Sample:	'20211010A(EM)
File name:	R-CDs 3 300uM.FDS
Run date:	'09:55:56, 06/09/2023
Operator:	Administrator
Comment:	'

Instrument
Model:	F-4700 FL Spectrophotometer
Serial number:	2019-001
ROM Version:	5J24010 00

Instrument parameters
Measurement type:	Wavelength scan
Scan mode:	Emission
Data mode:	Fluorescence
EX WL:	520.0 nm
EM  Start WL:	540.0 nm
EM  End WL:	800.0 nm
Scan speed:	1200 nm/min
Delay:	0.0 s
EX Slit:	10.0 nm
EM Slit:	10.0 nm
PMT Voltage:	630 V
Response:	0.002 s
Corrected spectra:	Off
Shutter control:	On

Processing performed
Savitsky-Golay smoothed
Smoothing order:	3
Number of points:	7
Number of times:	1

Peak integration
Integration method:	Rectangular
Sensitivity:	1
Threshold:	1.000

Peaks
No.	Start(nm)	Apex(nm)	End(nm)	Height(Data)	Valley(nm)	Valley(Data)
1	540.0	612.4	613.4	1676	613.4	1651
2	613.4	615.4	616.0	1677	616.0	1663
3	616.0	616.6	621.0	1690	621.0	1650
4	621.0	621.8	711.0	1673	711.0	234.3
5	711.0	712.0	731.2	239.8	731.2	123.4
6	731.2	732.2	744.0	125.9	744.0	78.95
7	744.0	744.6	762.6	81.65	762.6	38.78
8	762.6	763.2	766.2	41.97	766.2	35.36
9	766.2	767.0	777.2	38.93	777.2	25.11
10	777.2	778.0	780.2	27.11	780.2	23.75
11	780.2	780.8	784.6	25.20	784.6	20.81
12	784.6	786.0	788.4	23.03	788.4	19.72
13	788.4	789.4	790.4	21.51	790.4	19.76
14	790.4	790.8	794.6	21.41	794.6	17.54
15	794.6	796.6	798.2	19.09	798.2	16.85

Data points
nm	Data
540.0	244.6
540.2	254.4
540.4	259.5
540.6	261.0
540.8	259.6
541.0	258.1
541.2	256.6
541.4	262.4
541.6	268.2
541.8	270.9
542.0	270.1
542.2	272.9
542.4	272.3
542.6	275.9
542.8	279.6
543.0	280.1
543.2	282.0
543.4	286.0
543.6	286.3
543.8	287.6
544.0	291.1
544.2	295.2
544.4	301.5
544.6	301.7
544.8	298.8
545.0	295.9
545.2	296.3
545.4	300.4
545.6	306.9
545.8	307.7
546.0	310.3
546.2	312.4
546.4	313.1
546.6	312.7
546.8	315.6
547.0	316.7
547.2	321.7
547.4	322.7
547.6	324.2
547.8	324.5
548.0	324.5
548.2	325.5
548.4	329.5
548.6	332.3
548.8	337.1
549.0	342.1
549.2	343.2
549.4	346.1
549.6	351.1
549.8	351.6
550.0	351.6
550.2	353.4
550.4	353.4
550.6	352.3
550.8	354.0
551.0	355.2
551.2	358.7
551.4	364.2
551.6	371.9
551.8	371.3
552.0	373.1
552.2	375.7
552.4	378.9
552.6	378.9
552.8	381.8
553.0	379.2
553.2	378.9
553.4	385.1
553.6	387.7
553.8	391.6
554.0	393.3
554.2	395.2
554.4	398.0
554.6	403.1
554.8	402.5
555.0	406.0
555.2	406.6
555.4	409.8
555.6	413.1
555.8	418.1
556.0	421.3
556.2	420.2
556.4	420.2
556.6	421.2
556.8	424.2
557.0	429.6
557.2	429.1
557.4	430.4
557.6	436.1
557.8	440.7
558.0	449.6
558.2	455.2
558.4	453.7
558.6	454.0
558.8	454.1
559.0	451.1
559.2	457.0
559.4	463.9
559.6	465.8
559.8	469.1
560.0	474.2
560.2	477.6
560.4	484.7
560.6	486.0
560.8	484.6
561.0	488.9
561.2	493.7
561.4	498.4
561.6	504.9
561.8	504.7
562.0	505.9
562.2	511.7
562.4	514.7
562.6	516.1
562.8	519.6
563.0	523.7
563.2	525.9
563.4	529.6
563.6	533.5
563.8	533.4
564.0	533.8
564.2	540.2
564.4	546.1
564.6	554.1
564.8	566.2
565.0	572.8
565.2	570.1
565.4	571.3
565.6	571.3
565.8	572.6
566.0	582.1
566.2	592.8
566.4	596.3
566.6	601.3
566.8	599.7
567.0	599.3
567.2	605.2
567.4	615.0
567.6	624.1
567.8	626.7
568.0	622.3
568.2	623.2
568.4	631.0
568.6	638.6
568.8	646.9
569.0	648.2
569.2	644.9
569.4	652.6
569.6	661.0
569.8	665.5
570.0	669.5
570.2	673.8
570.4	681.1
570.6	692.5
570.8	697.3
571.0	692.2
571.2	689.9
571.4	693.5
571.6	703.4
571.8	717.2
572.0	723.2
572.2	722.2
572.4	724.5
572.6	732.9
572.8	740.6
573.0	752.7
573.2	757.9
573.4	766.3
573.6	761.9
573.8	767.4
574.0	770.6
574.2	776.1
574.4	787.8
574.6	799.2
574.8	803.3
575.0	812.1
575.2	818.2
575.4	817.7
575.6	825.8
575.8	828.5
576.0	833.3
576.2	839.1
576.4	845.3
576.6	849.6
576.8	854.9
577.0	857.9
577.2	865.1
577.4	866.8
577.6	876.8
577.8	888.2
578.0	896.1
578.2	904.5
578.4	910.1
578.6	912.9
578.8	922.6
579.0	927.1
579.2	937.8
579.4	945.6
579.6	946.0
579.8	953.1
580.0	957.4
580.2	960.2
580.4	969.0
580.6	973.1
580.8	974.6
581.0	984.3
581.2	995.2
581.4	1003
581.6	1010
581.8	1008
582.0	1009
582.2	1015
582.4	1028
582.6	1035
582.8	1046
583.0	1049
583.2	1053
583.4	1057
583.6	1063
583.8	1064
584.0	1072
584.2	1079
584.4	1085
584.6	1090
584.8	1097
585.0	1098
585.2	1102
585.4	1109
585.6	1120
585.8	1123
586.0	1130
586.2	1130
586.4	1135
586.6	1139
586.8	1150
587.0	1162
587.2	1170
587.4	1178
587.6	1187
587.8	1185
588.0	1189
588.2	1197
588.4	1208
588.6	1212
588.8	1213
589.0	1213
589.2	1216
589.4	1220
589.6	1228
589.8	1229
590.0	1237
590.2	1245
590.4	1257
590.6	1267
590.8	1269
591.0	1275
591.2	1282
591.4	1286
591.6	1290
591.8	1295
592.0	1297
592.2	1303
592.4	1312
592.6	1316
592.8	1313
593.0	1324
593.2	1339
593.4	1352
593.6	1357
593.8	1348
594.0	1339
594.2	1343
594.4	1357
594.6	1368
594.8	1370
595.0	1376
595.2	1385
595.4	1384
595.6	1398
595.8	1406
596.0	1399
596.2	1408
596.4	1414
596.6	1412
596.8	1420
597.0	1424
597.2	1423
597.4	1437
597.6	1447
597.8	1449
598.0	1455
598.2	1459
598.4	1467
598.6	1468
598.8	1472
599.0	1474
599.2	1480
599.4	1487
599.6	1488
599.8	1486
600.0	1496
600.2	1505
600.4	1509
600.6	1511
600.8	1504
601.0	1506
601.2	1519
601.4	1518
601.6	1521
601.8	1520
602.0	1521
602.2	1529
602.4	1541
602.6	1542
602.8	1542
603.0	1542
603.2	1545
603.4	1545
603.6	1555
603.8	1556
604.0	1563
604.2	1565
604.4	1563
604.6	1570
604.8	1575
605.0	1575
605.2	1578
605.4	1578
605.6	1573
605.8	1593
606.0	1598
606.2	1611
606.4	1610
606.6	1606
606.8	1605
607.0	1611
607.2	1614
607.4	1617
607.6	1609
607.8	1610
608.0	1617
608.2	1619
608.4	1620
608.6	1616
608.8	1615
609.0	1623
609.2	1627
609.4	1635
609.6	1634
609.8	1627
610.0	1629
610.2	1629
610.4	1638
610.6	1646
610.8	1656
611.0	1658
611.2	1658
611.4	1653
611.6	1655
611.8	1654
612.0	1662
612.2	1667
612.4	1676
612.6	1675
612.8	1672
613.0	1662
613.2	1655
613.4	1651
613.6	1651
613.8	1657
614.0	1658
614.2	1659
614.4	1665
614.6	1668
614.8	1665
615.0	1675
615.2	1677
615.4	1677
615.6	1669
615.8	1664
616.0	1663
616.2	1674
616.4	1684
616.6	1690
616.8	1681
617.0	1680
617.2	1680
617.4	1673
617.6	1674
617.8	1676
618.0	1668
618.2	1664
618.4	1672
618.6	1671
618.8	1678
619.0	1673
619.2	1669
619.4	1663
619.6	1669
619.8	1671
620.0	1673
620.2	1667
620.4	1661
620.6	1653
620.8	1650
621.0	1650
621.2	1655
621.4	1666
621.6	1672
621.8	1673
622.0	1670
622.2	1660
622.4	1655
622.6	1657
622.8	1654
623.0	1655
623.2	1661
623.4	1661
623.6	1658
623.8	1645
624.0	1631
624.2	1630
624.4	1643
624.6	1649
624.8	1650
625.0	1645
625.2	1634
625.4	1628
625.6	1623
625.8	1626
626.0	1625
626.2	1628
626.4	1630
626.6	1629
626.8	1618
627.0	1614
627.2	1600
627.4	1598
627.6	1601
627.8	1604
628.0	1600
628.2	1590
628.4	1589
628.6	1591
628.8	1590
629.0	1589
629.2	1586
629.4	1585
629.6	1584
629.8	1579
630.0	1573
630.2	1562
630.4	1562
630.6	1564
630.8	1551
631.0	1550
631.2	1548
631.4	1542
631.6	1546
631.8	1543
632.0	1535
632.2	1534
632.4	1531
632.6	1535
632.8	1534
633.0	1529
633.2	1523
633.4	1508
633.6	1503
633.8	1506
634.0	1503
634.2	1506
634.4	1500
634.6	1494
634.8	1496
635.0	1501
635.2	1494
635.4	1486
635.6	1476
635.8	1466
636.0	1462
636.2	1462
636.4	1452
636.6	1443
636.8	1446
637.0	1440
637.2	1440
637.4	1436
637.6	1425
637.8	1420
638.0	1422
638.2	1420
638.4	1416
638.6	1418
638.8	1413
639.0	1413
639.2	1406
639.4	1397
639.6	1389
639.8	1396
640.0	1398
640.2	1398
640.4	1391
640.6	1382
640.8	1373
641.0	1370
641.2	1362
641.4	1358
641.6	1349
641.8	1339
642.0	1336
642.2	1336
642.4	1335
642.6	1329
642.8	1319
643.0	1307
643.2	1310
643.4	1306
643.6	1310
643.8	1302
644.0	1303
644.2	1296
644.4	1293
644.6	1278
644.8	1271
645.0	1271
645.2	1276
645.4	1280
645.6	1278
645.8	1272
646.0	1265
646.2	1258
646.4	1248
646.6	1241
646.8	1233
647.0	1231
647.2	1231
647.4	1222
647.6	1220
647.8	1215
648.0	1209
648.2	1207
648.4	1205
648.6	1204
648.8	1205
649.0	1197
649.2	1189
649.4	1184
649.6	1177
649.8	1179
650.0	1170
650.2	1157
650.4	1153
650.6	1154
650.8	1149
651.0	1150
651.2	1139
651.4	1127
651.6	1121
651.8	1115
652.0	1117
652.2	1120
652.4	1117
652.6	1118
652.8	1104
653.0	1096
653.2	1096
653.4	1097
653.6	1091
653.8	1086
654.0	1074
654.2	1073
654.4	1073
654.6	1072
654.8	1070
655.0	1064
655.2	1053
655.4	1046
655.6	1033
655.8	1027
656.0	1023
656.2	1015
656.4	1015
656.6	1015
656.8	1009
657.0	1009
657.2	1002
657.4	997.7
657.6	994.2
657.8	989.9
658.0	982.6
658.2	981.3
658.4	976.7
658.6	973.5
658.8	966.8
659.0	961.8
659.2	952.3
659.4	954.3
659.6	953.5
659.8	950.3
660.0	944.3
660.2	937.0
660.4	922.3
660.6	922.8
660.8	924.1
661.0	921.8
661.2	915.7
661.4	909.1
661.6	903.4
661.8	905.0
662.0	908.6
662.2	901.0
662.4	895.0
662.6	887.4
662.8	882.5
663.0	872.8
663.2	868.0
663.4	861.1
663.6	860.9
663.8	856.7
664.0	850.7
664.2	846.6
664.4	836.8
664.6	835.1
664.8	828.1
665.0	819.1
665.2	812.5
665.4	818.4
665.6	819.0
665.8	820.9
666.0	819.2
666.2	814.1
666.4	807.7
666.6	806.6
666.8	804.9
667.0	798.8
667.2	796.1
667.4	792.1
667.6	784.1
667.8	776.2
668.0	774.7
668.2	770.1
668.4	770.8
668.6	767.1
668.8	765.0
669.0	761.4
669.2	760.9
669.4	755.0
669.6	744.6
669.8	738.9
670.0	735.1
670.2	726.5
670.4	725.5
670.6	724.6
670.8	720.1
671.0	721.7
671.2	714.4
671.4	701.3
671.6	692.5
671.8	692.8
672.0	694.8
672.2	695.4
672.4	694.4
672.6	686.4
672.8	681.3
673.0	682.0
673.2	678.2
673.4	678.3
673.6	679.1
673.8	675.4
674.0	670.1
674.2	663.4
674.4	653.0
674.6	653.9
674.8	649.5
675.0	648.2
675.2	644.5
675.4	640.7
675.6	635.5
675.8	633.5
676.0	622.1
676.2	616.9
676.4	613.0
676.6	614.9
676.8	616.5
677.0	613.5
677.2	607.9
677.4	607.4
677.6	603.8
677.8	600.9
678.0	597.5
678.2	595.0
678.4	592.7
678.6	591.5
678.8	588.0
679.0	577.3
679.2	567.0
679.4	566.7
679.6	568.7
679.8	567.6
680.0	565.0
680.2	557.4
680.4	552.2
680.6	551.6
680.8	550.9
681.0	549.5
681.2	548.4
681.4	542.3
681.6	539.3
681.8	535.1
682.0	528.7
682.2	527.2
682.4	525.2
682.6	519.8
682.8	520.2
683.0	517.7
683.2	514.5
683.4	512.2
683.6	507.4
683.8	507.9
684.0	511.2
684.2	510.8
684.4	503.2
684.6	494.1
684.8	488.2
685.0	486.4
685.2	487.6
685.4	483.5
685.6	477.6
685.8	480.1
686.0	481.6
686.2	479.1
686.4	477.0
686.6	466.6
686.8	463.3
687.0	463.3
687.2	463.1
687.4	462.8
687.6	459.7
687.8	454.6
688.0	453.4
688.2	447.0
688.4	447.6
688.6	445.8
688.8	443.3
689.0	438.2
689.2	435.9
689.4	426.8
689.6	424.9
689.8	423.5
690.0	420.9
690.2	415.9
690.4	410.8
690.6	405.9
690.8	410.3
691.0	416.5
691.2	418.6
691.4	416.0
691.6	410.1
691.8	405.8
692.0	401.6
692.2	401.9
692.4	402.0
692.6	401.3
692.8	399.6
693.0	397.8
693.2	387.9
693.4	387.5
693.6	386.1
693.8	382.7
694.0	375.1
694.2	371.4
694.4	367.9
694.6	368.9
694.8	374.3
695.0	372.7
695.2	367.5
695.4	360.4
695.6	359.9
695.8	358.7
696.0	362.1
696.2	361.6
696.4	359.6
696.6	349.6
696.8	349.9
697.0	349.4
697.2	349.3
697.4	349.2
697.6	346.6
697.8	344.8
698.0	344.8
698.2	343.0
698.4	344.0
698.6	342.0
698.8	337.8
699.0	336.7
699.2	331.9
699.4	327.9
699.6	329.4
699.8	330.3
700.0	327.2
700.2	324.7
700.4	321.2
700.6	317.1
700.8	317.1
701.0	317.4
701.2	317.1
701.4	317.6
701.6	312.7
701.8	311.6
702.0	307.7
702.2	304.6
702.4	306.0
702.6	307.4
702.8	305.6
703.0	305.6
703.2	299.4
703.4	297.6
703.6	298.8
703.8	300.9
704.0	300.1
704.2	294.1
704.4	286.8
704.6	284.1
704.8	286.4
705.0	287.7
705.2	287.3
705.4	280.3
705.6	277.5
705.8	278.3
706.0	280.5
706.2	278.9
706.4	276.7
706.6	272.3
706.8	272.4
707.0	274.3
707.2	274.9
707.4	272.9
707.6	267.6
707.8	264.8
708.0	263.0
708.2	264.1
708.4	262.3
708.6	258.0
708.8	254.7
709.0	251.6
709.2	249.3
709.4	251.8
709.6	253.6
709.8	251.7
710.0	254.3
710.2	250.8
710.4	246.9
710.6	241.4
710.8	238.3
711.0	234.3
711.2	236.2
711.4	237.0
711.6	238.5
711.8	237.3
712.0	239.8
712.2	237.6
712.4	237.0
712.6	233.5
712.8	226.6
713.0	222.3
713.2	224.7
713.4	223.8
713.6	226.5
713.8	229.1
714.0	225.4
714.2	222.1
714.4	220.5
714.6	219.7
714.8	221.0
715.0	223.1
715.2	220.7
715.4	218.4
715.6	214.2
715.8	210.9
716.0	207.2
716.2	203.4
716.4	200.3
716.6	200.8
716.8	202.3
717.0	203.7
717.2	203.3
717.4	200.7
717.6	194.1
717.8	193.9
718.0	195.2
718.2	194.9
718.4	189.9
718.6	188.2
718.8	181.4
719.0	180.5
719.2	181.2
719.4	181.6
719.6	180.4
719.8	184.2
720.0	182.7
720.2	180.8
720.4	177.1
720.6	175.7
720.8	175.7
721.0	175.5
721.2	171.8
721.4	171.5
721.6	168.6
721.8	168.1
722.0	169.5
722.2	169.2
722.4	166.2
722.6	165.9
722.8	163.6
723.0	161.8
723.2	161.5
723.4	160.7
723.6	161.8
723.8	162.1
724.0	159.8
724.2	160.7
724.4	159.2
724.6	156.0
724.8	155.2
725.0	152.6
725.2	150.4
725.4	151.9
725.6	150.2
725.8	148.4
726.0	148.3
726.2	147.9
726.4	148.3
726.6	146.8
726.8	143.8
727.0	140.5
727.2	141.0
727.4	140.5
727.6	142.2
727.8	140.9
728.0	141.2
728.2	139.9
728.4	138.9
728.6	137.3
728.8	136.7
729.0	135.1
729.2	135.6
729.4	135.1
729.6	134.1
729.8	131.2
730.0	129.2
730.2	129.7
730.4	129.3
730.6	129.8
730.8	129.0
731.0	125.1
731.2	123.4
731.4	123.5
731.6	124.1
731.8	125.6
732.0	125.7
732.2	125.9
732.4	124.4
732.6	123.5
732.8	122.2
733.0	120.2
733.2	117.0
733.4	115.4
733.6	114.7
733.8	113.1
734.0	116.0
734.2	115.9
734.4	114.2
734.6	111.2
734.8	110.0
735.0	107.9
735.2	110.2
735.4	108.4
735.6	107.6
735.8	105.0
736.0	104.8
736.2	104.4
736.4	103.6
736.6	102.3
736.8	100.2
737.0	99.95
737.2	100.8
737.4	101.6
737.6	100.9
737.8	100.3
738.0	98.79
738.2	101.2
738.4	100.5
738.6	98.85
738.8	97.17
739.0	96.16
739.2	95.02
739.4	97.15
739.6	96.01
739.8	93.59
740.0	92.63
740.2	93.26
740.4	93.14
740.6	91.85
740.8	89.65
741.0	87.06
741.2	85.00
741.4	87.11
741.6	87.93
741.8	86.85
742.0	85.93
742.2	84.80
742.4	83.83
742.6	83.96
742.8	83.80
743.0	83.15
743.2	82.16
743.4	80.84
743.6	80.81
743.8	79.46
744.0	78.95
744.2	79.68
744.4	80.62
744.6	81.65
744.8	81.43
745.0	80.41
745.2	76.81
745.4	74.97
745.6	74.61
745.8	73.85
746.0	73.01
746.2	74.27
746.4	73.45
746.6	72.32
746.8	71.64
747.0	69.74
747.2	70.39
747.4	70.72
747.6	69.79
747.8	69.07
748.0	68.45
748.2	67.39
748.4	68.23
748.6	68.71
748.8	68.01
749.0	68.12
749.2	66.98
749.4	66.42
749.6	67.38
749.8	67.34
750.0	66.32
750.2	65.67
750.4	62.53
750.6	61.07
750.8	62.91
751.0	63.49
751.2	62.44
751.4	63.13
751.6	60.78
751.8	59.03
752.0	60.12
752.2	60.67
752.4	59.82
752.6	60.00
752.8	58.99
753.0	58.41
753.2	57.87
753.4	58.78
753.6	59.40
753.8	58.34
754.0	59.18
754.2	58.20
754.4	56.81
754.6	56.24
754.8	56.43
755.0	55.19
755.2	55.37
755.4	55.17
755.6	54.74
755.8	54.37
756.0	55.21
756.2	54.02
756.4	53.01
756.6	52.65
756.8	52.38
757.0	52.90
757.2	53.05
757.4	52.47
757.6	52.67
757.8	52.05
758.0	51.51
758.2	51.04
758.4	50.37
758.6	49.35
758.8	49.42
759.0	48.31
759.2	47.08
759.4	47.17
759.6	47.08
759.8	46.33
760.0	47.04
760.2	47.40
760.4	46.72
760.6	46.17
760.8	44.29
761.0	42.48
761.2	42.52
761.4	44.09
761.6	44.32
761.8	44.80
762.0	43.32
762.2	40.85
762.4	38.90
762.6	38.78
762.8	39.64
763.0	41.34
763.2	41.97
763.4	41.42
763.6	40.90
763.8	40.98
764.0	41.07
764.2	41.53
764.4	41.83
764.6	40.41
764.8	39.97
765.0	38.25
765.2	37.63
765.4	38.11
765.6	38.37
765.8	37.94
766.0	37.50
766.2	35.36
766.4	35.94
766.6	36.48
766.8	37.73
767.0	38.93
767.2	38.49
767.4	37.45
767.6	37.79
767.8	37.43
768.0	36.80
768.2	36.31
768.4	34.61
768.6	33.63
768.8	33.94
769.0	34.38
769.2	34.10
769.4	34.18
769.6	32.99
769.8	32.41
770.0	33.12
770.2	33.61
770.4	33.73
770.6	32.11
770.8	30.77
771.0	31.12
771.2	31.94
771.4	31.89
771.6	32.65
771.8	31.61
772.0	31.98
772.2	31.99
772.4	31.58
772.6	30.76
772.8	29.91
773.0	29.11
773.2	29.52
773.4	29.44
773.6	30.14
773.8	30.74
774.0	30.35
774.2	29.57
774.4	28.45
774.6	27.79
774.8	27.20
775.0	27.48
775.2	27.79
775.4	27.68
775.6	27.14
775.8	26.83
776.0	26.45
776.2	27.53
776.4	27.58
776.6	26.81
776.8	26.50
777.0	25.35
777.2	25.11
777.4	26.20
777.6	26.41
777.8	26.37
778.0	27.11
778.2	26.31
778.4	25.82
778.6	26.86
778.8	26.83
779.0	25.60
779.2	25.08
779.4	24.47
779.6	23.77
779.8	24.34
780.0	24.94
780.2	23.75
780.4	23.89
780.6	24.64
780.8	25.20
781.0	24.44
781.2	24.43
781.4	23.31
781.6	23.59
781.8	24.10
782.0	25.00
782.2	24.92
782.4	24.22
782.6	23.80
782.8	24.00
783.0	23.72
783.2	24.00
783.4	23.76
783.6	22.93
783.8	23.03
784.0	23.15
784.2	22.27
784.4	21.41
784.6	20.81
784.8	20.90
785.0	21.45
785.2	21.57
785.4	21.98
785.6	22.24
785.8	22.80
786.0	23.03
786.2	21.86
786.4	20.06
786.6	19.97
786.8	20.10
787.0	20.30
787.2	20.96
787.4	20.44
787.6	20.13
787.8	19.98
788.0	19.84
788.2	20.03
788.4	19.72
788.6	20.44
788.8	20.33
789.0	20.25
789.2	20.49
789.4	21.51
789.6	21.15
789.8	21.42
790.0	20.45
790.2	19.77
790.4	19.76
790.6	20.55
790.8	21.41
791.0	21.29
791.2	20.66
791.4	20.36
791.6	20.44
791.8	20.30
792.0	19.79
792.2	19.02
792.4	18.38
792.6	18.44
792.8	18.64
793.0	18.65
793.2	19.04
793.4	18.91
793.6	19.11
793.8	18.72
794.0	18.36
794.2	17.85
794.4	18.07
794.6	17.54
794.8	17.65
795.0	17.62
795.2	18.18
795.4	18.18
795.6	18.38
795.8	17.87
796.0	17.93
796.2	17.77
796.4	18.42
796.6	19.09
796.8	18.98
797.0	18.16
797.2	17.74
797.4	17.55
797.6	17.47
797.8	17.60
798.0	16.89
798.2	16.85
798.4	17.79
798.6	18.46
798.8	17.92
799.0	17.08
799.2	16.60
799.4	16.42
799.6	17.66
799.8	18.88
800.0	19.41

