Sample:	'20211010A(EM)
File name:	R-CDs 5 500uM.FDS
Run date:	'10:05:45, 06/09/2023
Operator:	Administrator
Comment:	'

Instrument
Model:	F-4700 FL Spectrophotometer
Serial number:	2019-001
ROM Version:	5J24010 00

Instrument parameters
Measurement type:	Wavelength scan
Scan mode:	Emission
Data mode:	Fluorescence
EX WL:	520.0 nm
EM  Start WL:	540.0 nm
EM  End WL:	800.0 nm
Scan speed:	1200 nm/min
Delay:	0.0 s
EX Slit:	10.0 nm
EM Slit:	10.0 nm
PMT Voltage:	670 V
Response:	0.002 s
Corrected spectra:	Off
Shutter control:	On

Processing performed
Savitsky-Golay smoothed
Smoothing order:	3
Number of points:	7
Number of times:	1

Peak integration
Integration method:	Rectangular
Sensitivity:	1
Threshold:	1.000

Peaks
No.	Start(nm)	Apex(nm)	End(nm)	Height(Data)	Valley(nm)	Valley(Data)
1	540.0	612.0	612.6	2056	612.6	2036
2	612.6	613.8	614.6	2056	614.6	2036
3	614.6	615.4	616.4	2078	616.4	2058
4	616.4	617.2	619.8	2084	619.8	2047
5	619.8	621.2	622.6	2063	622.6	2019
6	622.6	624.0	737.4	2043	737.4	116.0
7	737.4	738.2	744.8	121.2	744.8	91.76
8	744.8	745.4	754.8	95.59	754.8	65.12
9	754.8	755.4	759.4	69.09	759.4	53.83
10	759.4	760.4	762.4	57.74	762.4	50.38
11	762.4	765.0	768.4	53.40	768.4	42.27
12	768.4	769.2	775.2	45.28	775.2	32.72
13	775.2	776.6	777.4	36.21	777.4	32.44
14	777.4	778.0	781.2	35.80	781.2	28.43
15	781.2	782.4	784.0	31.50	784.0	24.46
16	784.0	784.4	787.0	27.49	787.0	23.76
17	787.0	788.4	790.4	26.12	790.4	23.32
18	790.4	791.0	791.8	27.92	791.8	22.69
19	791.8	792.8	794.2	25.33	794.2	20.63
20	794.2	796.6	798.0	22.60	798.0	20.33
21	798.0	798.8	800.0	23.05	800.0	18.68

Data points
nm	Data
540.0	341.2
540.2	355.7
540.4	359.2
540.6	356.6
540.8	356.0
541.0	352.5
541.2	356.7
541.4	362.8
541.6	365.1
541.8	367.4
542.0	371.7
542.2	375.9
542.4	378.6
542.6	378.1
542.8	372.3
543.0	375.4
543.2	376.2
543.4	380.4
543.6	384.5
543.8	390.7
544.0	394.0
544.2	406.5
544.4	411.3
544.6	414.1
544.8	415.1
545.0	411.0
545.2	408.6
545.4	409.6
545.6	409.2
545.8	419.2
546.0	426.9
546.2	427.0
546.4	433.7
546.6	434.4
546.8	433.8
547.0	438.2
547.2	437.8
547.4	435.4
547.6	439.7
547.8	439.7
548.0	441.0
548.2	445.7
548.4	449.4
548.6	455.5
548.8	455.6
549.0	457.6
549.2	454.2
549.4	458.8
549.6	464.2
549.8	468.5
550.0	470.9
550.2	481.8
550.4	477.7
550.6	480.6
550.8	484.2
551.0	486.5
551.2	489.8
551.4	491.7
551.6	490.1
551.8	491.2
552.0	495.1
552.2	495.9
552.4	496.3
552.6	499.1
552.8	501.0
553.0	503.3
553.2	504.1
553.4	501.7
553.6	506.1
553.8	514.1
554.0	521.7
554.2	527.4
554.4	530.2
554.6	531.1
554.8	534.8
555.0	534.5
555.2	541.5
555.4	539.3
555.6	538.1
555.8	538.0
556.0	546.6
556.2	548.9
556.4	555.4
556.6	555.7
556.8	554.0
557.0	550.7
557.2	556.2
557.4	556.5
557.6	565.2
557.8	574.5
558.0	584.2
558.2	582.3
558.4	580.7
558.6	579.4
558.8	580.1
559.0	584.7
559.2	590.6
559.4	593.7
559.6	593.4
559.8	599.7
560.0	607.5
560.2	619.6
560.4	619.6
560.6	619.1
560.8	615.2
561.0	619.5
561.2	624.4
561.4	626.1
561.6	624.9
561.8	627.2
562.0	634.7
562.2	644.1
562.4	650.7
562.6	649.4
562.8	655.7
563.0	659.2
563.2	658.6
563.4	663.9
563.6	666.6
563.8	673.0
564.0	680.6
564.2	683.6
564.4	681.0
564.6	689.6
564.8	688.6
565.0	696.1
565.2	696.0
565.4	698.9
565.6	700.3
565.8	709.0
566.0	712.9
566.2	713.7
566.4	716.5
566.6	727.8
566.8	731.6
567.0	737.1
567.2	733.7
567.4	733.0
567.6	734.1
567.8	739.0
568.0	743.4
568.2	751.3
568.4	753.6
568.6	759.1
568.8	769.1
569.0	775.3
569.2	787.5
569.4	792.0
569.6	794.9
569.8	796.1
570.0	800.2
570.2	803.6
570.4	820.8
570.6	827.6
570.8	839.4
571.0	848.4
571.2	846.9
571.4	847.1
571.6	849.4
571.8	854.7
572.0	857.7
572.2	864.9
572.4	872.3
572.6	882.3
572.8	884.9
573.0	890.4
573.2	893.6
573.4	903.6
573.6	912.6
573.8	920.0
574.0	921.0
574.2	920.3
574.4	929.1
574.6	934.1
574.8	942.1
575.0	946.3
575.2	951.3
575.4	960.4
575.6	973.5
575.8	975.5
576.0	984.1
576.2	989.2
576.4	996.9
576.6	1012
576.8	1023
577.0	1026
577.2	1028
577.4	1027
577.6	1027
577.8	1035
578.0	1038
578.2	1041
578.4	1042
578.6	1050
578.8	1058
579.0	1072
579.2	1079
579.4	1085
579.6	1095
579.8	1107
580.0	1110
580.2	1111
580.4	1111
580.6	1118
580.8	1124
581.0	1141
581.2	1149
581.4	1157
581.6	1174
581.8	1183
582.0	1179
582.2	1182
582.4	1193
582.6	1199
582.8	1211
583.0	1220
583.2	1223
583.4	1234
583.6	1243
583.8	1248
584.0	1248
584.2	1253
584.4	1249
584.6	1256
584.8	1260
585.0	1277
585.2	1297
585.4	1315
585.6	1327
585.8	1330
586.0	1330
586.2	1325
586.4	1328
586.6	1332
586.8	1342
587.0	1342
587.2	1352
587.4	1364
587.6	1376
587.8	1387
588.0	1390
588.2	1388
588.4	1394
588.6	1404
588.8	1420
589.0	1435
589.2	1443
589.4	1452
589.6	1460
589.8	1455
590.0	1466
590.2	1477
590.4	1479
590.6	1485
590.8	1504
591.0	1515
591.2	1533
591.4	1537
591.6	1536
591.8	1518
592.0	1515
592.2	1517
592.4	1524
592.6	1536
592.8	1572
593.0	1576
593.2	1586
593.4	1590
593.6	1589
593.8	1593
594.0	1614
594.2	1617
594.4	1628
594.6	1633
594.8	1640
595.0	1644
595.2	1659
595.4	1664
595.6	1675
595.8	1668
596.0	1671
596.2	1681
596.4	1697
596.6	1710
596.8	1712
597.0	1714
597.2	1720
597.4	1730
597.6	1738
597.8	1743
598.0	1735
598.2	1743
598.4	1746
598.6	1755
598.8	1761
599.0	1778
599.2	1782
599.4	1786
599.6	1793
599.8	1799
600.0	1791
600.2	1797
600.4	1789
600.6	1802
600.8	1813
601.0	1826
601.2	1831
601.4	1839
601.6	1844
601.8	1847
602.0	1842
602.2	1848
602.4	1854
602.6	1872
602.8	1885
603.0	1885
603.2	1894
603.4	1898
603.6	1895
603.8	1894
604.0	1892
604.2	1900
604.4	1915
604.6	1928
604.8	1937
605.0	1927
605.2	1919
605.4	1938
605.6	1938
605.8	1937
606.0	1945
606.2	1939
606.4	1944
606.6	1962
606.8	1964
607.0	1970
607.2	1975
607.4	1978
607.6	1988
607.8	1982
608.0	1986
608.2	1992
608.4	1989
608.6	1988
608.8	1993
609.0	1982
609.2	1986
609.4	1992
609.6	2015
609.8	2024
610.0	2030
610.2	2026
610.4	2023
610.6	2031
610.8	2045
611.0	2036
611.2	2035
611.4	2026
611.6	2030
611.8	2048
612.0	2056
612.2	2046
612.4	2048
612.6	2036
612.8	2037
613.0	2044
613.2	2051
613.4	2045
613.6	2051
613.8	2056
614.0	2040
614.2	2041
614.4	2042
614.6	2036
614.8	2041
615.0	2055
615.2	2060
615.4	2078
615.6	2077
615.8	2073
616.0	2071
616.2	2061
616.4	2058
616.6	2061
616.8	2062
617.0	2077
617.2	2084
617.4	2069
617.6	2058
617.8	2053
618.0	2052
618.2	2067
618.4	2064
618.6	2050
618.8	2054
619.0	2059
619.2	2059
619.4	2059
619.6	2053
619.8	2047
620.0	2052
620.2	2056
620.4	2056
620.6	2058
620.8	2057
621.0	2061
621.2	2063
621.4	2055
621.6	2047
621.8	2048
622.0	2031
622.2	2021
622.4	2023
622.6	2019
622.8	2023
623.0	2038
623.2	2035
623.4	2030
623.6	2037
623.8	2042
624.0	2043
624.2	2038
624.4	2034
624.6	2030
624.8	2034
625.0	2035
625.2	2028
625.4	2020
625.6	2015
625.8	2009
626.0	2011
626.2	1995
626.4	1989
626.6	1992
626.8	1995
627.0	1995
627.2	2000
627.4	1987
627.6	1978
627.8	1971
628.0	1962
628.2	1958
628.4	1951
628.6	1947
628.8	1949
629.0	1951
629.2	1946
629.4	1946
629.6	1931
629.8	1922
630.0	1922
630.2	1931
630.4	1939
630.6	1932
630.8	1913
631.0	1898
631.2	1899
631.4	1910
631.6	1911
631.8	1918
632.0	1902
632.2	1893
632.4	1892
632.6	1887
632.8	1881
633.0	1893
633.2	1888
633.4	1877
633.6	1862
633.8	1854
634.0	1853
634.2	1853
634.4	1850
634.6	1842
634.8	1838
635.0	1833
635.2	1823
635.4	1810
635.6	1804
635.8	1817
636.0	1821
636.2	1821
636.4	1809
636.6	1800
636.8	1784
637.0	1774
637.2	1755
637.4	1748
637.6	1754
637.8	1753
638.0	1749
638.2	1737
638.4	1729
638.6	1720
638.8	1734
639.0	1735
639.2	1735
639.4	1725
639.6	1722
639.8	1711
640.0	1711
640.2	1706
640.4	1690
640.6	1673
640.8	1666
641.0	1657
641.2	1662
641.4	1666
641.6	1664
641.8	1656
642.0	1652
642.2	1640
642.4	1644
642.6	1647
642.8	1642
643.0	1636
643.2	1620
643.4	1597
643.6	1601
643.8	1588
644.0	1580
644.2	1579
644.4	1581
644.6	1579
644.8	1590
645.0	1584
645.2	1571
645.4	1554
645.6	1547
645.8	1541
646.0	1536
646.2	1525
646.4	1513
646.6	1501
646.8	1499
647.0	1506
647.2	1500
647.4	1490
647.6	1474
647.8	1461
648.0	1462
648.2	1465
648.4	1467
648.6	1468
648.8	1451
649.0	1444
649.2	1439
649.4	1441
649.6	1442
649.8	1437
650.0	1421
650.2	1407
650.4	1393
650.6	1399
650.8	1398
651.0	1397
651.2	1390
651.4	1373
651.6	1363
651.8	1360
652.0	1360
652.2	1360
652.4	1354
652.6	1344
652.8	1337
653.0	1332
653.2	1331
653.4	1329
653.6	1325
653.8	1322
654.0	1317
654.2	1309
654.4	1301
654.6	1291
654.8	1284
655.0	1277
655.2	1276
655.4	1268
655.6	1259
655.8	1259
656.0	1266
656.2	1257
656.4	1253
656.6	1251
656.8	1241
657.0	1238
657.2	1236
657.4	1219
657.6	1210
657.8	1206
658.0	1200
658.2	1192
658.4	1185
658.6	1180
658.8	1178
659.0	1171
659.2	1167
659.4	1162
659.6	1156
659.8	1153
660.0	1150
660.2	1143
660.4	1141
660.6	1136
660.8	1126
661.0	1128
661.2	1123
661.4	1118
661.6	1117
661.8	1103
662.0	1091
662.2	1083
662.4	1069
662.6	1065
662.8	1072
663.0	1064
663.2	1065
663.4	1065
663.6	1059
663.8	1061
664.0	1060
664.2	1049
664.4	1043
664.6	1037
664.8	1027
665.0	1021
665.2	1015
665.4	1003
665.6	999.8
665.8	994.5
666.0	995.9
666.2	993.5
666.4	994.7
666.6	990.1
666.8	979.0
667.0	970.9
667.2	968.1
667.4	959.4
667.6	947.6
667.8	944.3
668.0	935.3
668.2	942.5
668.4	949.1
668.6	948.4
668.8	936.7
669.0	925.2
669.2	916.8
669.4	909.3
669.6	905.7
669.8	899.4
670.0	890.3
670.2	882.7
670.4	881.0
670.6	876.0
670.8	872.1
671.0	872.5
671.2	876.3
671.4	874.3
671.6	874.5
671.8	872.4
672.0	859.2
672.2	853.4
672.4	853.4
672.6	846.5
672.8	841.6
673.0	835.7
673.2	829.3
673.4	819.9
673.6	817.7
673.8	816.3
674.0	810.2
674.2	802.8
674.4	796.0
674.6	782.5
674.8	779.4
675.0	776.8
675.2	774.6
675.4	773.4
675.6	768.7
675.8	762.1
676.0	760.3
676.2	758.7
676.4	754.3
676.6	753.8
676.8	748.0
677.0	749.3
677.2	744.9
677.4	740.5
677.6	735.5
677.8	729.5
678.0	725.4
678.2	731.9
678.4	732.3
678.6	728.2
678.8	718.0
679.0	709.6
679.2	700.2
679.4	697.9
679.6	701.0
679.8	700.7
680.0	689.8
680.2	681.4
680.4	673.1
680.6	669.3
680.8	667.7
681.0	664.9
681.2	660.3
681.4	652.8
681.6	658.3
681.8	656.8
682.0	658.3
682.2	654.5
682.4	644.8
682.6	634.0
682.8	629.2
683.0	622.4
683.2	619.3
683.4	618.6
683.6	616.9
683.8	616.2
684.0	612.4
684.2	608.2
684.4	601.4
684.6	597.1
684.8	597.7
685.0	594.9
685.2	593.0
685.4	592.3
685.6	587.8
685.8	585.2
686.0	586.7
686.2	579.9
686.4	579.5
686.6	576.6
686.8	569.1
687.0	566.0
687.2	561.1
687.4	553.9
687.6	552.0
687.8	549.4
688.0	548.6
688.2	550.9
688.4	551.8
688.6	550.0
688.8	541.3
689.0	531.4
689.2	524.1
689.4	522.3
689.6	523.3
689.8	527.0
690.0	523.8
690.2	517.6
690.4	509.5
690.6	500.7
690.8	497.3
691.0	499.7
691.2	502.3
691.4	507.5
691.6	508.8
691.8	501.5
692.0	501.5
692.2	493.1
692.4	482.4
692.6	479.3
692.8	477.6
693.0	471.2
693.2	474.6
693.4	474.8
693.6	467.6
693.8	466.0
694.0	461.3
694.2	450.9
694.4	452.9
694.6	453.1
694.8	451.3
695.0	451.1
695.2	445.9
695.4	436.9
695.6	438.8
695.8	435.9
696.0	434.6
696.2	432.3
696.4	430.5
696.6	426.6
696.8	430.5
697.0	432.1
697.2	433.8
697.4	434.3
697.6	427.9
697.8	419.1
698.0	416.6
698.2	413.6
698.4	413.3
698.6	410.5
698.8	403.3
699.0	395.5
699.2	394.7
699.4	396.5
699.6	400.0
699.8	402.9
700.0	404.2
700.2	399.4
700.4	394.2
700.6	388.9
700.8	387.4
701.0	387.8
701.2	388.7
701.4	383.6
701.6	383.0
701.8	377.5
702.0	379.5
702.2	382.5
702.4	383.3
702.6	379.7
702.8	378.8
703.0	372.8
703.2	372.7
703.4	371.9
703.6	367.9
703.8	364.7
704.0	358.7
704.2	356.3
704.4	352.6
704.6	352.1
704.8	354.8
705.0	353.0
705.2	353.0
705.4	351.6
705.6	343.8
705.8	342.1
706.0	345.2
706.2	338.5
706.4	334.9
706.6	331.8
706.8	327.5
707.0	325.4
707.2	329.1
707.4	328.1
707.6	325.6
707.8	330.5
708.0	327.7
708.2	320.3
708.4	316.6
708.6	315.0
708.8	314.4
709.0	320.3
709.2	316.5
709.4	312.9
709.6	310.1
709.8	309.3
710.0	308.7
710.2	309.0
710.4	305.7
710.6	302.6
710.8	297.6
711.0	299.0
711.2	296.3
711.4	290.9
711.6	287.4
711.8	285.2
712.0	282.6
712.2	292.2
712.4	291.6
712.6	284.5
712.8	280.1
713.0	273.1
713.2	268.5
713.4	272.0
713.6	272.7
713.8	272.8
714.0	273.3
714.2	267.5
714.4	268.2
714.6	269.9
714.8	275.0
715.0	274.7
715.2	271.7
715.4	264.2
715.6	259.7
715.8	258.1
716.0	257.9
716.2	252.9
716.4	248.0
716.6	242.6
716.8	239.2
717.0	241.7
717.2	243.4
717.4	241.2
717.6	239.9
717.8	236.0
718.0	231.5
718.2	232.0
718.4	235.1
718.6	232.1
718.8	232.1
719.0	229.0
719.2	222.6
719.4	223.5
719.6	222.5
719.8	218.2
720.0	220.3
720.2	217.3
720.4	219.7
720.6	222.4
720.8	215.5
721.0	211.8
721.2	211.9
721.4	212.7
721.6	214.3
721.8	210.4
722.0	202.1
722.2	199.0
722.4	201.6
722.6	209.1
722.8	206.8
723.0	203.8
723.2	197.2
723.4	191.6
723.6	192.3
723.8	194.5
724.0	190.7
724.2	190.9
724.4	190.6
724.6	186.0
724.8	183.6
725.0	184.8
725.2	180.6
725.4	180.3
725.6	180.7
725.8	178.2
726.0	177.4
726.2	176.8
726.4	174.3
726.6	174.1
726.8	168.1
727.0	166.2
727.2	167.9
727.4	166.9
727.6	169.6
727.8	171.8
728.0	168.7
728.2	165.4
728.4	164.8
728.6	163.6
728.8	162.1
729.0	160.5
729.2	160.4
729.4	158.3
729.6	156.7
729.8	156.6
730.0	152.1
730.2	152.0
730.4	155.0
730.6	154.8
730.8	153.8
731.0	152.8
731.2	150.4
731.4	150.6
731.6	150.9
731.8	146.2
732.0	144.5
732.2	141.1
732.4	138.3
732.6	140.4
732.8	141.7
733.0	141.5
733.2	142.1
733.4	144.4
733.6	141.6
733.8	140.3
734.0	139.6
734.2	137.5
734.4	133.1
734.6	130.3
734.8	126.8
735.0	125.9
735.2	128.8
735.4	130.0
735.6	129.9
735.8	123.5
736.0	123.5
736.2	125.0
736.4	129.5
736.6	129.6
736.8	130.3
737.0	125.9
737.2	122.1
737.4	116.0
737.6	117.7
737.8	118.0
738.0	120.9
738.2	121.2
738.4	118.9
738.6	118.5
738.8	120.7
739.0	120.4
739.2	119.4
739.4	114.9
739.6	110.5
739.8	109.6
740.0	111.5
740.2	112.3
740.4	111.3
740.6	108.8
740.8	105.8
741.0	103.9
741.2	106.5
741.4	106.7
741.6	104.6
741.8	104.6
742.0	106.0
742.2	105.8
742.4	105.7
742.6	103.4
742.8	100.4
743.0	98.99
743.2	100.9
743.4	101.1
743.6	101.3
743.8	101.5
744.0	97.27
744.2	94.57
744.4	93.92
744.6	92.00
744.8	91.76
745.0	92.71
745.2	92.69
745.4	95.59
745.6	94.77
745.8	92.49
746.0	88.22
746.2	86.96
746.4	86.39
746.6	87.91
746.8	87.75
747.0	86.94
747.2	83.93
747.4	86.87
747.6	86.32
747.8	85.15
748.0	85.08
748.2	85.09
748.4	83.16
748.6	84.59
748.8	82.61
749.0	78.40
749.2	80.25
749.4	82.73
749.6	84.84
749.8	85.85
750.0	81.96
750.2	78.01
750.4	78.64
750.6	78.79
750.8	78.97
751.0	78.02
751.2	76.26
751.4	76.66
751.6	77.22
751.8	78.39
752.0	77.36
752.2	76.13
752.4	77.34
752.6	76.44
752.8	75.65
753.0	73.26
753.2	73.91
753.4	73.55
753.6	74.03
753.8	72.05
754.0	69.42
754.2	66.95
754.4	66.53
754.6	65.69
754.8	65.12
755.0	67.11
755.2	67.75
755.4	69.09
755.6	68.15
755.8	67.84
756.0	66.64
756.2	67.12
756.4	66.71
756.6	65.74
756.8	63.58
757.0	64.43
757.2	64.59
757.4	63.25
757.6	61.99
757.8	61.09
758.0	60.02
758.2	60.68
758.4	62.12
758.6	61.54
758.8	60.00
759.0	58.11
759.2	56.29
759.4	53.83
759.6	55.70
759.8	56.14
760.0	56.55
760.2	57.48
760.4	57.74
760.6	56.86
760.8	56.26
761.0	54.55
761.2	52.90
761.4	54.17
761.6	55.27
761.8	54.44
762.0	51.55
762.2	51.42
762.4	50.38
762.6	50.56
762.8	50.64
763.0	51.38
763.2	51.31
763.4	51.76
763.6	51.86
763.8	52.64
764.0	50.84
764.2	51.71
764.4	51.84
764.6	50.73
764.8	51.14
765.0	53.40
765.2	51.14
765.4	48.95
765.6	47.85
765.8	46.91
766.0	47.54
766.2	50.43
766.4	49.30
766.6	46.93
766.8	45.77
767.0	44.74
767.2	44.00
767.4	44.75
767.6	44.57
767.8	43.09
768.0	43.49
768.2	42.31
768.4	42.27
768.6	42.78
768.8	44.38
769.0	44.00
769.2	45.28
769.4	43.79
769.6	43.49
769.8	41.96
770.0	40.99
770.2	40.54
770.4	41.93
770.6	42.18
770.8	40.57
771.0	39.60
771.2	38.90
771.4	39.94
771.6	40.49
771.8	41.11
772.0	39.38
772.2	38.03
772.4	36.84
772.6	38.22
772.8	38.11
773.0	38.89
773.2	37.79
773.4	35.91
773.6	34.63
773.8	34.87
774.0	34.65
774.2	35.58
774.4	35.78
774.6	35.27
774.8	34.67
775.0	33.98
775.2	32.72
775.4	33.46
775.6	33.52
775.8	34.08
776.0	34.33
776.2	34.66
776.4	35.09
776.6	36.21
776.8	35.44
777.0	34.09
777.2	32.79
777.4	32.44
777.6	34.15
777.8	35.57
778.0	35.80
778.2	34.53
778.4	33.22
778.6	31.84
778.8	32.27
779.0	31.79
779.2	31.24
779.4	30.48
779.6	30.16
779.8	29.71
780.0	30.24
780.2	30.76
780.4	29.88
780.6	29.61
780.8	29.16
781.0	28.51
781.2	28.43
781.4	29.25
781.6	29.93
781.8	29.93
782.0	29.79
782.2	30.59
782.4	31.50
782.6	31.05
782.8	30.04
783.0	28.88
783.2	28.95
783.4	28.14
783.6	27.15
783.8	25.71
784.0	24.46
784.2	25.59
784.4	27.49
784.6	27.16
784.8	26.25
785.0	25.79
785.2	24.99
785.4	25.94
785.6	26.20
785.8	25.93
786.0	25.72
786.2	25.57
786.4	25.23
786.6	25.86
786.8	24.73
787.0	23.76
787.2	23.83
787.4	24.11
787.6	25.23
787.8	25.54
788.0	25.78
788.2	26.12
788.4	26.12
788.6	26.02
788.8	25.94
789.0	25.58
789.2	25.26
789.4	25.41
789.6	25.45
789.8	25.22
790.0	24.01
790.2	24.07
790.4	23.32
790.6	24.55
790.8	26.76
791.0	27.92
791.2	27.12
791.4	25.20
791.6	23.81
791.8	22.69
792.0	22.98
792.2	24.07
792.4	24.40
792.6	24.76
792.8	25.33
793.0	23.77
793.2	23.26
793.4	22.88
793.6	23.10
793.8	23.33
794.0	21.86
794.2	20.63
794.4	20.93
794.6	20.72
794.8	22.50
795.0	22.13
795.2	21.90
795.4	21.75
795.6	21.19
795.8	20.72
796.0	20.84
796.2	21.19
796.4	21.98
796.6	22.60
796.8	22.23
797.0	22.07
797.2	21.52
797.4	22.00
797.6	20.84
797.8	21.06
798.0	20.33
798.2	20.64
798.4	21.03
798.6	21.97
798.8	23.05
799.0	22.71
799.2	21.84
799.4	20.16
799.6	18.18
799.8	17.33
800.0	18.68

