Sample:	'20211010A(EM)
File name:	R-CDs 8 800uM.FDS
Run date:	'10:24:01, 06/09/2023
Operator:	Administrator
Comment:	'

Instrument
Model:	F-4700 FL Spectrophotometer
Serial number:	2019-001
ROM Version:	5J24010 00

Instrument parameters
Measurement type:	Wavelength scan
Scan mode:	Emission
Data mode:	Fluorescence
EX WL:	520.0 nm
EM  Start WL:	540.0 nm
EM  End WL:	800.0 nm
Scan speed:	1200 nm/min
Delay:	0.0 s
EX Slit:	10.0 nm
EM Slit:	10.0 nm
PMT Voltage:	660 V
Response:	0.002 s
Corrected spectra:	Off
Shutter control:	On

Processing performed
Savitsky-Golay smoothed
Smoothing order:	3
Number of points:	7
Number of times:	1

Peak integration
Integration method:	Rectangular
Sensitivity:	1
Threshold:	1.000

Peaks
No.	Start(nm)	Apex(nm)	End(nm)	Height(Data)	Valley(nm)	Valley(Data)
1	540.0	609.2	610.0	1797	610.0	1772
2	610.0	611.6	613.4	1818	613.4	1788
3	613.4	616.0	617.4	1854	617.4	1819
4	617.4	618.4	618.8	1839	618.8	1823
5	618.8	619.6	620.6	1847	620.6	1810
6	620.6	622.2	623.8	1828	623.8	1783
7	623.8	625.2	735.4	1797	735.4	117.5
8	735.4	736.0	747.6	120.9	747.6	76.35
9	747.6	748.4	753.8	82.10	753.8	61.19
10	753.8	754.6	755.6	64.16	755.6	58.92
11	755.6	757.0	759.2	60.24	759.2	50.38
12	759.2	760.0	761.0	55.87	761.0	49.39
13	761.0	761.8	766.2	53.58	766.2	40.51
14	766.2	767.8	770.4	43.82	770.4	36.39
15	770.4	772.0	773.0	38.66	773.0	32.74
16	773.0	774.4	777.0	36.50	777.0	29.23
17	777.0	778.2	779.6	32.01	779.6	25.64
18	779.6	781.6	783.4	29.95	783.4	23.68
19	783.4	785.0	786.6	27.16	786.6	23.58
20	786.6	788.0	788.8	25.83	788.8	20.21
21	788.8	790.2	791.2	25.33	791.2	20.65
22	791.2	791.6	793.2	21.75	793.2	19.17
23	793.2	794.0	795.2	22.71	795.2	18.41
24	795.2	796.6	797.8	21.59	797.8	18.59

Data points
nm	Data
540.0	229.3
540.2	233.0
540.4	235.4
540.6	236.4
540.8	235.9
541.0	234.1
541.2	235.6
541.4	235.4
541.6	240.8
541.8	240.5
542.0	240.1
542.2	242.0
542.4	243.1
542.6	246.6
542.8	250.2
543.0	249.7
543.2	248.5
543.4	251.1
543.6	253.9
543.8	256.5
544.0	258.9
544.2	261.8
544.4	265.4
544.6	270.7
544.8	272.3
545.0	266.3
545.2	268.8
545.4	271.3
545.6	278.1
545.8	282.8
546.0	285.3
546.2	283.6
546.4	284.2
546.6	285.4
546.8	289.1
547.0	289.6
547.2	289.8
547.4	290.9
547.6	292.3
547.8	292.1
548.0	294.7
548.2	296.7
548.4	297.6
548.6	298.3
548.8	300.5
549.0	303.2
549.2	308.4
549.4	315.7
549.6	320.3
549.8	323.4
550.0	325.2
550.2	324.0
550.4	323.9
550.6	321.6
550.8	320.1
551.0	325.0
551.2	330.8
551.4	333.5
551.6	338.6
551.8	338.2
552.0	338.8
552.2	341.5
552.4	342.5
552.6	340.4
552.8	343.8
553.0	346.8
553.2	353.4
553.4	357.5
553.6	360.7
553.8	356.1
554.0	357.7
554.2	357.8
554.4	358.1
554.6	359.1
554.8	369.2
555.0	370.3
555.2	377.3
555.4	383.7
555.6	385.3
555.8	387.6
556.0	391.8
556.2	391.9
556.4	392.4
556.6	395.0
556.8	396.4
557.0	399.0
557.2	397.8
557.4	402.9
557.6	403.3
557.8	411.7
558.0	416.3
558.2	413.6
558.4	411.5
558.6	414.1
558.8	414.2
559.0	422.7
559.2	429.4
559.4	432.6
559.6	436.7
559.8	439.4
560.0	436.0
560.2	436.9
560.4	443.5
560.6	449.9
560.8	455.6
561.0	459.4
561.2	460.9
561.4	468.3
561.6	471.8
561.8	477.2
562.0	480.3
562.2	485.3
562.4	486.7
562.6	489.0
562.8	491.2
563.0	497.4
563.2	499.2
563.4	506.6
563.6	510.7
563.8	515.9
564.0	524.5
564.2	527.7
564.4	523.8
564.6	524.8
564.8	528.4
565.0	528.3
565.2	534.6
565.4	540.1
565.6	539.7
565.8	548.4
566.0	557.7
566.2	558.8
566.4	567.0
566.6	572.9
566.8	571.8
567.0	573.2
567.2	580.3
567.4	582.3
567.6	584.8
567.8	592.1
568.0	594.6
568.2	600.0
568.4	606.6
568.6	613.8
568.8	614.3
569.0	618.1
569.2	620.2
569.4	629.3
569.6	633.9
569.8	641.4
570.0	651.4
570.2	657.1
570.4	660.2
570.6	672.8
570.8	681.7
571.0	684.9
571.2	687.5
571.4	684.3
571.6	682.2
571.8	691.9
572.0	702.5
572.2	713.4
572.4	719.5
572.6	720.0
572.8	718.2
573.0	719.1
573.2	719.8
573.4	726.9
573.6	743.5
573.8	751.5
574.0	763.7
574.2	769.1
574.4	767.3
574.6	767.9
574.8	774.2
575.0	782.9
575.2	796.3
575.4	800.7
575.6	804.5
575.8	808.2
576.0	817.3
576.2	823.4
576.4	822.8
576.6	828.4
576.8	835.5
577.0	848.6
577.2	864.5
577.4	867.0
577.6	873.1
577.8	880.9
578.0	880.8
578.2	891.1
578.4	898.2
578.6	901.7
578.8	914.2
579.0	918.0
579.2	919.4
579.4	925.7
579.6	937.6
579.8	946.0
580.0	957.8
580.2	953.0
580.4	951.6
580.6	951.0
580.8	962.0
581.0	972.8
581.2	988.9
581.4	993.0
581.6	992.8
581.8	995.3
582.0	1002
582.2	1016
582.4	1034
582.6	1048
582.8	1047
583.0	1046
583.2	1051
583.4	1058
583.6	1066
583.8	1079
584.0	1082
584.2	1081
584.4	1095
584.6	1097
584.8	1108
585.0	1111
585.2	1115
585.4	1125
585.6	1144
585.8	1150
586.0	1161
586.2	1153
586.4	1148
586.6	1157
586.8	1166
587.0	1172
587.2	1182
587.4	1188
587.6	1193
587.8	1205
588.0	1214
588.2	1219
588.4	1228
588.6	1231
588.8	1241
589.0	1248
589.2	1252
589.4	1258
589.6	1269
589.8	1280
590.0	1282
590.2	1277
590.4	1277
590.6	1275
590.8	1292
591.0	1315
591.2	1320
591.4	1327
591.6	1333
591.8	1332
592.0	1337
592.2	1345
592.4	1356
592.6	1364
592.8	1376
593.0	1383
593.2	1383
593.4	1389
593.6	1397
593.8	1393
594.0	1409
594.2	1417
594.4	1422
594.6	1432
594.8	1429
595.0	1425
595.2	1442
595.4	1453
595.6	1458
595.8	1466
596.0	1468
596.2	1478
596.4	1497
596.6	1518
596.8	1516
597.0	1504
597.2	1506
597.4	1510
597.6	1525
597.8	1538
598.0	1528
598.2	1522
598.4	1519
598.6	1520
598.8	1534
599.0	1546
599.2	1554
599.4	1574
599.6	1580
599.8	1592
600.0	1594
600.2	1597
600.4	1595
600.6	1597
600.8	1604
601.0	1614
601.2	1620
601.4	1623
601.6	1629
601.8	1637
602.0	1637
602.2	1637
602.4	1637
602.6	1636
602.8	1639
603.0	1647
603.2	1645
603.4	1661
603.6	1663
603.8	1667
604.0	1667
604.2	1671
604.4	1673
604.6	1688
604.8	1690
605.0	1692
605.2	1695
605.4	1695
605.6	1701
605.8	1709
606.0	1726
606.2	1725
606.4	1726
606.6	1718
606.8	1722
607.0	1729
607.2	1741
607.4	1739
607.6	1743
607.8	1745
608.0	1753
608.2	1754
608.4	1749
608.6	1755
608.8	1763
609.0	1781
609.2	1797
609.4	1789
609.6	1783
609.8	1785
610.0	1772
610.2	1779
610.4	1789
610.6	1785
610.8	1782
611.0	1796
611.2	1790
611.4	1803
611.6	1818
611.8	1817
612.0	1801
612.2	1808
612.4	1810
612.6	1811
612.8	1816
613.0	1804
613.2	1789
613.4	1788
613.6	1804
613.8	1814
614.0	1820
614.2	1821
614.4	1821
614.6	1820
614.8	1832
615.0	1834
615.2	1832
615.4	1831
615.6	1838
615.8	1848
616.0	1854
616.2	1852
616.4	1844
616.6	1837
616.8	1829
617.0	1832
617.2	1831
617.4	1819
617.6	1820
617.8	1831
618.0	1831
618.2	1839
618.4	1839
618.6	1823
618.8	1823
619.0	1830
619.2	1829
619.4	1838
619.6	1847
619.8	1845
620.0	1842
620.2	1834
620.4	1817
620.6	1810
620.8	1810
621.0	1813
621.2	1822
621.4	1820
621.6	1819
621.8	1812
622.0	1819
622.2	1828
622.4	1825
622.6	1811
622.8	1810
623.0	1806
623.2	1811
623.4	1812
623.6	1802
623.8	1783
624.0	1795
624.2	1795
624.4	1789
624.6	1788
624.8	1788
625.0	1784
625.2	1797
625.4	1796
625.6	1784
625.8	1788
626.0	1786
626.2	1795
626.4	1792
626.6	1787
626.8	1771
627.0	1766
627.2	1761
627.4	1773
627.6	1774
627.8	1777
628.0	1770
628.2	1752
628.4	1748
628.6	1740
628.8	1744
629.0	1750
629.2	1746
629.4	1731
629.6	1722
629.8	1710
630.0	1714
630.2	1723
630.4	1724
630.6	1712
630.8	1702
631.0	1707
631.2	1708
631.4	1706
631.6	1707
631.8	1694
632.0	1687
632.2	1680
632.4	1677
632.6	1662
632.8	1672
633.0	1673
633.2	1669
633.4	1658
633.6	1654
633.8	1636
634.0	1640
634.2	1644
634.4	1645
634.6	1631
634.8	1637
635.0	1618
635.2	1611
635.4	1612
635.6	1617
635.8	1606
636.0	1617
636.2	1602
636.4	1599
636.6	1598
636.8	1596
637.0	1593
637.2	1588
637.4	1575
637.6	1569
637.8	1567
638.0	1565
638.2	1571
638.4	1569
638.6	1555
638.8	1544
639.0	1539
639.2	1538
639.4	1537
639.6	1533
639.8	1528
640.0	1517
640.2	1514
640.4	1513
640.6	1510
640.8	1498
641.0	1501
641.2	1491
641.4	1487
641.6	1485
641.8	1471
642.0	1456
642.2	1451
642.4	1448
642.6	1455
642.8	1459
643.0	1454
643.2	1451
643.4	1438
643.6	1428
643.8	1424
644.0	1414
644.2	1412
644.4	1401
644.6	1390
644.8	1384
645.0	1384
645.2	1382
645.4	1382
645.6	1366
645.8	1366
646.0	1367
646.2	1369
646.4	1369
646.6	1372
646.8	1358
647.0	1353
647.2	1344
647.4	1331
647.6	1326
647.8	1323
648.0	1321
648.2	1320
648.4	1318
648.6	1308
648.8	1303
649.0	1285
649.2	1292
649.4	1292
649.6	1292
649.8	1291
650.0	1278
650.2	1258
650.4	1258
650.6	1253
650.8	1247
651.0	1239
651.2	1235
651.4	1230
651.6	1228
651.8	1227
652.0	1225
652.2	1220
652.4	1216
652.6	1208
652.8	1195
653.0	1186
653.2	1185
653.4	1184
653.6	1181
653.8	1171
654.0	1161
654.2	1155
654.4	1153
654.6	1150
654.8	1151
655.0	1145
655.2	1146
655.4	1140
655.6	1140
655.8	1134
656.0	1125
656.2	1118
656.4	1115
656.6	1110
656.8	1105
657.0	1092
657.2	1077
657.4	1062
657.6	1062
657.8	1067
658.0	1067
658.2	1067
658.4	1065
658.6	1060
658.8	1056
659.0	1049
659.2	1046
659.4	1049
659.6	1048
659.8	1051
660.0	1039
660.2	1025
660.4	1018
660.6	1006
660.8	994.1
661.0	1003
661.2	1006
661.4	1002
661.6	993.6
661.8	979.9
662.0	969.5
662.2	976.7
662.4	982.6
662.6	982.4
662.8	973.2
663.0	965.4
663.2	955.8
663.4	942.2
663.6	934.5
663.8	927.2
664.0	925.7
664.2	925.7
664.4	924.2
664.6	920.8
664.8	919.0
665.0	905.6
665.2	898.2
665.4	887.0
665.6	884.9
665.8	891.7
666.0	896.1
666.2	898.4
666.4	892.5
666.6	881.0
666.8	872.4
667.0	864.7
667.2	857.1
667.4	855.7
667.6	853.7
667.8	855.8
668.0	848.9
668.2	843.8
668.4	833.3
668.6	820.2
668.8	825.3
669.0	825.6
669.2	825.4
669.4	829.2
669.6	825.7
669.8	814.7
670.0	812.5
670.2	796.3
670.4	786.5
670.6	786.1
670.8	783.5
671.0	786.5
671.2	786.7
671.4	781.8
671.6	776.7
671.8	772.9
672.0	763.1
672.2	758.5
672.4	756.2
672.6	756.3
672.8	755.6
673.0	757.9
673.2	752.4
673.4	738.9
673.6	730.7
673.8	729.1
674.0	725.2
674.2	728.9
674.4	722.1
674.6	714.0
674.8	711.3
675.0	714.2
675.2	711.8
675.4	710.6
675.6	695.2
675.8	684.3
676.0	681.2
676.2	684.1
676.4	683.3
676.6	681.3
676.8	670.6
677.0	665.0
677.2	666.8
677.4	670.8
677.6	668.2
677.8	666.6
678.0	656.0
678.2	648.3
678.4	640.2
678.6	638.2
678.8	637.8
679.0	637.0
679.2	631.6
679.4	629.7
679.6	621.5
679.8	620.0
680.0	617.0
680.2	611.5
680.4	610.9
680.6	610.1
680.8	608.5
681.0	604.6
681.2	599.5
681.4	595.9
681.6	585.5
681.8	578.4
682.0	579.6
682.2	579.8
682.4	575.2
682.6	568.5
682.8	561.2
683.0	560.4
683.2	564.9
683.4	572.4
683.6	569.4
683.8	558.7
684.0	557.1
684.2	548.8
684.4	543.1
684.6	539.3
684.8	539.9
685.0	538.3
685.2	540.6
685.4	534.9
685.6	530.9
685.8	525.5
686.0	526.9
686.2	523.1
686.4	516.5
686.6	507.2
686.8	498.3
687.0	493.4
687.2	491.7
687.4	496.3
687.6	499.2
687.8	504.0
688.0	502.4
688.2	499.4
688.4	488.0
688.6	480.2
688.8	473.7
689.0	475.8
689.2	479.0
689.4	479.5
689.6	477.3
689.8	466.9
690.0	464.1
690.2	461.5
690.4	462.2
690.6	459.6
690.8	453.6
691.0	447.7
691.2	451.2
691.4	446.8
691.6	447.1
691.8	446.1
692.0	437.3
692.2	436.6
692.4	438.0
692.6	436.0
692.8	436.2
693.0	438.8
693.2	432.9
693.4	427.5
693.6	423.3
693.8	421.9
694.0	418.1
694.2	417.1
694.4	415.8
694.6	412.7
694.8	409.6
695.0	407.4
695.2	400.9
695.4	399.4
695.6	399.7
695.8	400.1
696.0	401.4
696.2	396.6
696.4	390.2
696.6	389.2
696.8	384.2
697.0	385.1
697.2	383.0
697.4	377.4
697.6	374.9
697.8	371.7
698.0	366.7
698.2	368.9
698.4	370.2
698.6	372.7
698.8	375.2
699.0	369.7
699.2	363.0
699.4	364.3
699.6	363.7
699.8	360.9
700.0	360.4
700.2	355.4
700.4	352.8
700.6	358.3
700.8	357.3
701.0	351.9
701.2	350.1
701.4	346.9
701.6	343.8
701.8	343.6
702.0	338.5
702.2	331.1
702.4	327.7
702.6	329.0
702.8	330.6
703.0	330.3
703.2	326.9
703.4	325.0
703.6	325.4
703.8	325.7
704.0	326.7
704.2	323.5
704.4	318.9
704.6	315.9
704.8	315.5
705.0	312.8
705.2	312.5
705.4	312.4
705.6	311.6
705.8	313.2
706.0	315.1
706.2	313.8
706.4	307.4
706.6	304.8
706.8	301.7
707.0	301.7
707.2	299.0
707.4	298.7
707.6	295.8
707.8	296.5
708.0	297.2
708.2	289.8
708.4	281.8
708.6	280.4
708.8	284.3
709.0	287.0
709.2	289.0
709.4	285.4
709.6	279.9
709.8	274.0
710.0	273.9
710.2	272.8
710.4	273.3
710.6	271.3
710.8	269.5
711.0	263.1
711.2	259.1
711.4	257.8
711.6	253.4
711.8	255.0
712.0	259.4
712.2	259.9
712.4	254.2
712.6	254.1
712.8	248.5
713.0	252.8
713.2	252.1
713.4	252.2
713.6	246.4
713.8	241.3
714.0	237.4
714.2	240.8
714.4	238.8
714.6	241.6
714.8	243.5
715.0	236.7
715.2	229.0
715.4	223.9
715.6	217.0
715.8	218.0
716.0	218.8
716.2	218.0
716.4	217.2
716.6	219.4
716.8	219.4
717.0	220.1
717.2	218.5
717.4	216.7
717.6	216.9
717.8	215.5
718.0	213.3
718.2	211.8
718.4	209.3
718.6	206.7
718.8	205.5
719.0	202.6
719.2	201.0
719.4	201.1
719.6	200.9
719.8	196.3
720.0	197.7
720.2	200.5
720.4	198.0
720.6	198.5
720.8	200.5
721.0	194.9
721.2	195.7
721.4	194.4
721.6	188.4
721.8	184.4
722.0	183.7
722.2	182.4
722.4	184.7
722.6	182.5
722.8	180.5
723.0	178.5
723.2	177.9
723.4	177.7
723.6	177.1
723.8	173.4
724.0	175.8
724.2	175.9
724.4	173.6
724.6	171.7
724.8	170.9
725.0	169.0
725.2	172.4
725.4	171.3
725.6	168.6
725.8	166.1
726.0	162.2
726.2	160.7
726.4	160.9
726.6	160.5
726.8	161.2
727.0	160.7
727.2	155.5
727.4	155.4
727.6	154.0
727.8	153.6
728.0	155.3
728.2	153.4
728.4	149.5
728.6	146.5
728.8	142.5
729.0	142.0
729.2	144.4
729.4	144.5
729.6	143.8
729.8	142.8
730.0	141.0
730.2	138.4
730.4	137.8
730.6	137.9
730.8	136.5
731.0	136.7
731.2	135.0
731.4	132.3
731.6	133.4
731.8	135.0
732.0	133.7
732.2	133.7
732.4	131.4
732.6	130.8
732.8	132.0
733.0	131.4
733.2	128.7
733.4	126.5
733.6	124.4
733.8	123.2
734.0	125.3
734.2	125.0
734.4	123.8
734.6	121.2
734.8	120.8
735.0	118.8
735.2	119.0
735.4	117.5
735.6	118.4
735.8	118.1
736.0	120.9
736.2	120.4
736.4	119.9
736.6	117.4
736.8	118.3
737.0	115.1
737.2	115.4
737.4	113.0
737.6	110.2
737.8	105.9
738.0	106.5
738.2	107.7
738.4	108.7
738.6	110.0
738.8	108.5
739.0	105.1
739.2	104.5
739.4	105.2
739.6	103.1
739.8	103.6
740.0	101.6
740.2	99.68
740.4	100.1
740.6	100.9
740.8	101.8
741.0	101.6
741.2	98.33
741.4	96.78
741.6	97.33
741.8	99.32
742.0	99.34
742.2	96.53
742.4	91.82
742.6	88.92
742.8	88.65
743.0	93.03
743.2	94.46
743.4	93.73
743.6	93.16
743.8	89.92
744.0	85.89
744.2	85.47
744.4	86.26
744.6	87.52
744.8	89.33
745.0	88.52
745.2	85.16
745.4	84.53
745.6	85.31
745.8	85.22
746.0	83.85
746.2	84.49
746.4	82.67
746.6	82.88
746.8	83.48
747.0	81.32
747.2	79.29
747.4	77.84
747.6	76.35
747.8	77.22
748.0	79.58
748.2	80.39
748.4	82.10
748.6	80.08
748.8	78.15
749.0	76.63
749.2	76.55
749.4	77.30
749.6	77.93
749.8	75.42
750.0	73.39
750.2	73.50
750.4	72.75
750.6	70.89
750.8	68.71
751.0	67.26
751.2	65.98
751.4	67.76
751.6	67.34
751.8	66.47
752.0	66.44
752.2	65.51
752.4	65.12
752.6	64.93
752.8	64.62
753.0	63.29
753.2	63.45
753.4	61.29
753.6	61.45
753.8	61.19
754.0	62.57
754.2	62.56
754.4	63.74
754.6	64.16
754.8	62.66
755.0	61.71
755.2	61.63
755.4	59.51
755.6	58.92
755.8	59.43
756.0	59.57
756.2	59.59
756.4	59.83
756.6	59.89
756.8	60.16
757.0	60.24
757.2	59.63
757.4	58.58
757.6	57.27
757.8	56.60
758.0	55.76
758.2	57.32
758.4	57.29
758.6	58.10
758.8	55.73
759.0	52.40
759.2	50.38
759.4	51.93
759.6	54.01
759.8	55.41
760.0	55.87
760.2	54.36
760.4	52.83
760.6	51.89
760.8	50.58
761.0	49.39
761.2	49.57
761.4	50.84
761.6	52.95
761.8	53.58
762.0	52.99
762.2	51.42
762.4	49.86
762.6	49.61
762.8	49.26
763.0	47.33
763.2	46.93
763.4	47.70
763.6	47.79
763.8	46.76
764.0	47.59
764.2	45.23
764.4	44.22
764.6	46.12
764.8	46.07
765.0	45.62
765.2	46.89
765.4	45.90
765.6	43.14
765.8	42.82
766.0	41.06
766.2	40.51
766.4	40.52
766.6	41.82
766.8	40.77
767.0	41.22
767.2	41.53
767.4	42.99
767.6	43.34
767.8	43.82
768.0	42.83
768.2	40.90
768.4	40.23
768.6	39.61
768.8	39.40
769.0	39.26
769.2	39.91
769.4	39.48
769.6	38.84
769.8	36.97
770.0	36.73
770.2	36.54
770.4	36.39
770.6	36.83
770.8	37.31
771.0	37.02
771.2	37.02
771.4	36.52
771.6	37.21
771.8	37.82
772.0	38.66
772.2	38.42
772.4	36.81
772.6	34.04
772.8	33.38
773.0	32.74
773.2	33.14
773.4	32.96
773.6	32.97
773.8	32.95
774.0	33.42
774.2	34.71
774.4	36.50
774.6	35.98
774.8	34.30
775.0	34.10
775.2	33.05
775.4	31.77
775.6	30.87
775.8	29.40
776.0	29.01
776.2	30.72
776.4	31.16
776.6	30.64
776.8	29.45
777.0	29.23
777.2	29.37
777.4	30.22
777.6	30.58
777.8	30.82
778.0	31.16
778.2	32.01
778.4	30.46
778.6	30.44
778.8	29.39
779.0	28.44
779.2	26.94
779.4	26.68
779.6	25.64
779.8	26.61
780.0	26.38
780.2	27.71
780.4	27.96
780.6	27.52
780.8	27.17
781.0	26.50
781.2	26.27
781.4	28.17
781.6	29.95
781.8	28.77
782.0	27.19
782.2	26.04
782.4	25.82
782.6	26.04
782.8	26.27
783.0	25.14
783.2	24.12
783.4	23.68
783.6	23.92
783.8	24.64
784.0	24.82
784.2	24.81
784.4	25.11
784.6	25.07
784.8	26.46
785.0	27.16
785.2	27.02
785.4	26.43
785.6	26.09
785.8	25.45
786.0	25.49
786.2	24.44
786.4	23.82
786.6	23.58
786.8	23.99
787.0	24.55
787.2	25.06
787.4	25.67
787.6	25.31
787.8	24.92
788.0	25.83
788.2	25.79
788.4	23.90
788.6	22.52
788.8	20.21
789.0	20.91
789.2	22.71
789.4	23.95
789.6	23.42
789.8	23.78
790.0	23.60
790.2	25.33
790.4	25.21
790.6	23.87
790.8	21.87
791.0	21.25
791.2	20.65
791.4	21.05
791.6	21.75
791.8	21.33
792.0	21.70
792.2	21.54
792.4	21.47
792.6	21.24
792.8	21.23
793.0	19.99
793.2	19.17
793.4	19.90
793.6	21.88
793.8	22.67
794.0	22.71
794.2	22.27
794.4	20.53
794.6	21.05
794.8	20.55
795.0	18.99
795.2	18.41
795.4	19.64
795.6	19.98
795.8	20.83
796.0	20.55
796.2	20.28
796.4	20.97
796.6	21.59
796.8	21.57
797.0	20.75
797.2	19.43
797.4	18.64
797.6	18.65
797.8	18.59
798.0	19.84
798.2	20.23
798.4	20.47
798.6	20.75
798.8	20.73
799.0	20.57
799.2	20.85
799.4	21.28
799.6	21.68
799.8	21.90
800.0	21.76

