Sample:	'20211010A(EM)
File name:	R-CDs 1 100uM.FDS
Run date:	'09:46:24, 06/09/2023
Operator:	Administrator
Comment:	'

Instrument
Model:	F-4700 FL Spectrophotometer
Serial number:	2019-001
ROM Version:	5J24010 00

Instrument parameters
Measurement type:	Wavelength scan
Scan mode:	Emission
Data mode:	Fluorescence
EX WL:	520.0 nm
EM  Start WL:	540.0 nm
EM  End WL:	800.0 nm
Scan speed:	1200 nm/min
Delay:	0.0 s
EX Slit:	10.0 nm
EM Slit:	10.0 nm
PMT Voltage:	500 V
Response:	0.002 s
Corrected spectra:	Off
Shutter control:	On

Processing performed
Savitsky-Golay smoothed
Smoothing order:	3
Number of points:	7
Number of times:	1

Peak integration
Integration method:	Rectangular
Sensitivity:	1
Threshold:	1.000

Peaks
No.	Start(nm)	Apex(nm)	End(nm)	Height(Data)	Valley(nm)	Valley(Data)
1	540.0	601.4	602.2	208.0	602.2	206.4
2	602.2	605.4	606.0	215.7	606.0	213.3
3	606.0	606.8	607.6	215.8	607.6	213.7
4	607.6	611.0	612.6	220.0	612.6	216.3
5	612.6	614.2	615.4	219.9	615.4	216.3
6	615.4	617.6	622.0	219.6	622.0	214.0
7	622.0	623.0	623.8	215.9	623.8	209.1
8	623.8	624.4	668.0	214.5	668.0	98.44
9	668.0	668.6	736.8	99.93	736.8	12.67
10	736.8	737.6	800.0	14.18	800.0	2.583

Data points
nm	Data
540.0	43.13
540.2	42.71
540.4	43.00
540.6	43.57
540.8	43.50
541.0	43.64
541.2	43.30
541.4	43.36
541.6	43.93
541.8	44.19
542.0	44.26
542.2	44.56
542.4	44.77
542.6	45.41
542.8	45.14
543.0	44.66
543.2	44.63
543.4	45.24
543.6	45.45
543.8	46.24
544.0	46.21
544.2	46.22
544.4	46.65
544.6	47.68
544.8	47.54
545.0	47.62
545.2	47.10
545.4	47.87
545.6	48.64
545.8	48.84
546.0	48.88
546.2	48.67
546.4	47.54
546.6	47.84
546.8	48.36
547.0	48.91
547.2	49.76
547.4	50.60
547.6	50.50
547.8	50.49
548.0	50.29
548.2	51.00
548.4	51.32
548.6	52.30
548.8	52.20
549.0	52.23
549.2	51.93
549.4	51.40
549.6	51.68
549.8	52.74
550.0	52.96
550.2	53.63
550.4	53.86
550.6	53.56
550.8	53.76
551.0	53.87
551.2	54.10
551.4	54.02
551.6	53.88
551.8	54.71
552.0	55.28
552.2	55.99
552.4	57.10
552.6	56.87
552.8	57.38
553.0	57.66
553.2	57.81
553.4	58.30
553.6	58.93
553.8	59.11
554.0	59.73
554.2	59.52
554.4	59.21
554.6	59.01
554.8	59.81
555.0	61.10
555.2	61.62
555.4	61.84
555.6	62.39
555.8	62.68
556.0	63.26
556.2	63.42
556.4	63.03
556.6	63.13
556.8	64.06
557.0	64.82
557.2	65.35
557.4	65.57
557.6	65.78
557.8	66.61
558.0	67.25
558.2	68.28
558.4	68.81
558.6	69.22
558.8	69.12
559.0	69.71
559.2	70.38
559.4	71.34
559.6	72.10
559.8	72.37
560.0	71.77
560.2	71.99
560.4	71.96
560.6	72.18
560.8	73.19
561.0	73.72
561.2	74.42
561.4	75.68
561.6	75.88
561.8	76.47
562.0	76.81
562.2	77.19
562.4	78.00
562.6	78.86
562.8	79.22
563.0	79.81
563.2	79.90
563.4	80.62
563.6	82.11
563.8	83.41
564.0	84.26
564.2	84.52
564.4	84.62
564.6	84.61
564.8	85.64
565.0	86.64
565.2	87.51
565.4	88.01
565.6	88.55
565.8	89.33
566.0	89.56
566.2	89.42
566.4	90.44
566.6	91.27
566.8	92.70
567.0	94.23
567.2	95.08
567.4	95.42
567.6	96.54
567.8	96.91
568.0	96.90
568.2	96.64
568.4	97.91
568.6	98.74
568.8	100.2
569.0	101.0
569.2	100.9
569.4	101.5
569.6	102.7
569.8	103.7
570.0	105.2
570.2	106.4
570.4	107.2
570.6	108.1
570.8	108.2
571.0	108.8
571.2	108.9
571.4	109.5
571.6	110.2
571.8	111.4
572.0	112.7
572.2	114.1
572.4	115.2
572.6	115.6
572.8	116.1
573.0	117.7
573.2	118.7
573.4	119.3
573.6	120.1
573.8	119.5
574.0	119.3
574.2	120.7
574.4	122.4
574.6	124.6
574.8	126.3
575.0	126.9
575.2	126.3
575.4	126.9
575.6	127.9
575.8	129.9
576.0	131.6
576.2	131.5
576.4	130.6
576.6	131.4
576.8	132.3
577.0	134.3
577.2	136.4
577.4	136.4
577.6	136.7
577.8	137.9
578.0	139.7
578.2	141.2
578.4	141.7
578.6	142.1
578.8	142.7
579.0	143.9
579.2	145.3
579.4	147.3
579.6	147.1
579.8	147.7
580.0	148.3
580.2	148.9
580.4	148.8
580.6	150.2
580.8	150.0
581.0	150.1
581.2	151.6
581.4	152.7
581.6	153.5
581.8	155.5
582.0	156.4
582.2	157.0
582.4	157.3
582.6	156.6
582.8	157.2
583.0	158.9
583.2	160.1
583.4	160.4
583.6	160.1
583.8	160.5
584.0	160.8
584.2	161.7
584.4	163.6
584.6	164.2
584.8	165.4
585.0	166.3
585.2	166.8
585.4	167.7
585.6	168.7
585.8	169.4
586.0	169.5
586.2	169.8
586.4	171.6
586.6	172.9
586.8	173.3
587.0	174.1
587.2	174.8
587.4	175.2
587.6	176.0
587.8	176.7
588.0	176.7
588.2	176.5
588.4	176.9
588.6	176.6
588.8	176.7
589.0	178.1
589.2	179.2
589.4	181.1
589.6	182.5
589.8	183.2
590.0	182.2
590.2	183.6
590.4	184.2
590.6	185.2
590.8	186.3
591.0	186.8
591.2	185.9
591.4	185.7
591.6	186.6
591.8	187.4
592.0	188.1
592.2	188.5
592.4	189.1
592.6	190.1
592.8	192.0
593.0	192.0
593.2	191.6
593.4	192.0
593.6	192.8
593.8	193.6
594.0	193.5
594.2	192.1
594.4	191.8
594.6	192.6
594.8	193.9
595.0	195.1
595.2	196.3
595.4	196.7
595.6	197.5
595.8	197.7
596.0	197.8
596.2	198.3
596.4	198.7
596.6	199.1
596.8	199.1
597.0	199.0
597.2	197.7
597.4	198.8
597.6	199.7
597.8	200.9
598.0	201.3
598.2	201.9
598.4	202.1
598.6	204.9
598.8	205.3
599.0	205.6
599.2	204.2
599.4	202.8
599.6	202.9
599.8	203.8
600.0	205.5
600.2	206.5
600.4	207.1
600.6	207.2
600.8	207.3
601.0	206.8
601.2	207.8
601.4	208.0
601.6	207.9
601.8	207.1
602.0	206.6
602.2	206.4
602.4	206.8
602.6	208.3
602.8	210.4
603.0	212.0
603.2	213.0
603.4	212.3
603.6	210.3
603.8	209.5
604.0	209.9
604.2	211.3
604.4	213.1
604.6	213.8
604.8	214.3
605.0	215.6
605.2	215.3
605.4	215.7
605.6	214.8
605.8	213.5
606.0	213.3
606.2	214.4
606.4	214.9
606.6	215.7
606.8	215.8
607.0	215.0
607.2	214.4
607.4	214.3
607.6	213.7
607.8	214.9
608.0	216.2
608.2	216.8
608.4	217.1
608.6	217.3
608.8	217.1
609.0	216.8
609.2	217.1
609.4	217.4
609.6	217.1
609.8	217.1
610.0	217.3
610.2	217.0
610.4	218.5
610.6	218.8
610.8	219.3
611.0	220.0
611.2	219.8
611.4	218.5
611.6	219.2
611.8	217.7
612.0	216.9
612.2	217.6
612.4	217.9
612.6	216.3
612.8	217.7
613.0	217.6
613.2	217.7
613.4	219.3
613.6	219.1
613.8	219.1
614.0	219.7
614.2	219.9
614.4	219.8
614.6	219.3
614.8	217.0
615.0	216.6
615.2	216.9
615.4	216.3
615.6	217.0
615.8	217.2
616.0	217.2
616.2	217.4
616.4	218.6
616.6	217.8
616.8	218.5
617.0	218.5
617.2	218.5
617.4	219.2
617.6	219.6
617.8	219.0
618.0	218.2
618.2	217.7
618.4	217.2
618.6	217.9
618.8	217.7
619.0	217.9
619.2	216.6
619.4	217.2
619.6	216.6
619.8	215.7
620.0	216.1
620.2	215.9
620.4	215.1
620.6	216.0
620.8	215.2
621.0	214.7
621.2	214.9
621.4	215.5
621.6	215.4
621.8	215.1
622.0	214.0
622.2	214.2
622.4	214.0
622.6	215.5
622.8	215.6
623.0	215.9
623.2	215.1
623.4	212.4
623.6	209.5
623.8	209.1
624.0	210.6
624.2	212.9
624.4	214.5
624.6	212.4
624.8	211.6
625.0	211.4
625.2	211.0
625.4	209.9
625.6	209.5
625.8	209.0
626.0	210.7
626.2	211.2
626.4	211.7
626.6	210.1
626.8	209.3
627.0	208.4
627.2	208.7
627.4	208.4
627.6	208.3
627.8	208.7
628.0	208.5
628.2	207.7
628.4	207.7
628.6	208.5
628.8	207.3
629.0	207.6
629.2	206.3
629.4	204.7
629.6	202.7
629.8	202.9
630.0	202.2
630.2	202.2
630.4	203.4
630.6	203.5
630.8	202.9
631.0	202.1
631.2	200.8
631.4	201.2
631.6	201.3
631.8	199.9
632.0	199.0
632.2	198.4
632.4	196.9
632.6	197.4
632.8	197.5
633.0	196.4
633.2	196.4
633.4	195.8
633.6	195.7
633.8	195.2
634.0	194.4
634.2	192.5
634.4	192.2
634.6	191.6
634.8	192.4
635.0	193.0
635.2	193.1
635.4	191.6
635.6	191.8
635.8	191.6
636.0	190.4
636.2	190.2
636.4	190.3
636.6	188.6
636.8	187.6
637.0	186.6
637.2	185.0
637.4	185.0
637.6	185.9
637.8	185.8
638.0	184.0
638.2	182.8
638.4	181.8
638.6	181.4
638.8	181.8
639.0	181.5
639.2	181.5
639.4	181.2
639.6	181.2
639.8	180.9
640.0	180.0
640.2	178.3
640.4	177.1
640.6	175.1
640.8	174.5
641.0	174.7
641.2	174.7
641.4	175.7
641.6	175.6
641.8	173.9
642.0	172.4
642.2	172.0
642.4	171.9
642.6	174.2
642.8	175.0
643.0	173.4
643.2	171.9
643.4	169.8
643.6	169.3
643.8	169.1
644.0	167.7
644.2	166.0
644.4	165.4
644.6	163.8
644.8	164.6
645.0	164.5
645.2	164.4
645.4	164.0
645.6	163.2
645.8	162.2
646.0	161.6
646.2	161.3
646.4	160.4
646.6	159.4
646.8	159.0
647.0	159.5
647.2	159.9
647.4	159.6
647.6	158.4
647.8	157.2
648.0	155.9
648.2	155.6
648.4	155.0
648.6	154.8
648.8	154.2
649.0	153.2
649.2	153.2
649.4	152.2
649.6	152.4
649.8	152.0
650.0	149.8
650.2	147.6
650.4	147.4
650.6	146.5
650.8	147.6
651.0	147.5
651.2	146.8
651.4	146.8
651.6	145.9
651.8	145.4
652.0	143.8
652.2	142.8
652.4	142.6
652.6	142.2
652.8	141.1
653.0	140.5
653.2	138.9
653.4	138.9
653.6	139.0
653.8	139.3
654.0	138.4
654.2	137.5
654.4	136.8
654.6	136.3
654.8	135.5
655.0	135.8
655.2	135.0
655.4	134.8
655.6	134.6
655.8	133.8
656.0	132.4
656.2	130.8
656.4	129.9
656.6	129.0
656.8	128.7
657.0	128.4
657.2	128.3
657.4	128.1
657.6	127.9
657.8	127.1
658.0	126.9
658.2	126.2
658.4	125.6
658.6	125.1
658.8	124.7
659.0	124.0
659.2	123.7
659.4	123.1
659.6	121.7
659.8	120.5
660.0	119.4
660.2	118.9
660.4	119.2
660.6	118.8
660.8	118.0
661.0	117.3
661.2	117.1
661.4	117.7
661.6	117.6
661.8	116.9
662.0	116.3
662.2	115.7
662.4	114.7
662.6	113.9
662.8	112.5
663.0	111.8
663.2	111.2
663.4	110.5
663.6	109.9
663.8	110.0
664.0	110.3
664.2	110.1
664.4	109.0
664.6	107.2
664.8	105.5
665.0	104.7
665.2	105.1
665.4	105.2
665.6	105.6
665.8	105.7
666.0	104.4
666.2	104.1
666.4	103.9
666.6	102.4
666.8	101.1
667.0	100.5
667.2	99.89
667.4	99.64
667.6	99.23
667.8	98.74
668.0	98.44
668.2	98.75
668.4	99.43
668.6	99.93
668.8	99.53
669.0	98.88
669.2	97.91
669.4	96.01
669.6	94.94
669.8	94.68
670.0	93.94
670.2	93.50
670.4	93.86
670.6	92.61
670.8	91.94
671.0	91.04
671.2	90.30
671.4	89.82
671.6	90.21
671.8	89.68
672.0	87.81
672.2	86.57
672.4	85.69
672.6	85.93
672.8	86.54
673.0	87.54
673.2	86.50
673.4	86.09
673.6	85.27
673.8	85.16
674.0	84.92
674.2	84.95
674.4	84.21
674.6	83.14
674.8	82.06
675.0	81.01
675.2	81.37
675.4	81.43
675.6	81.76
675.8	81.60
676.0	80.78
676.2	79.77
676.4	79.28
676.6	78.67
676.8	78.79
677.0	78.19
677.2	76.96
677.4	76.50
677.6	76.20
677.8	75.74
678.0	76.51
678.2	76.56
678.4	76.11
678.6	76.09
678.8	75.84
679.0	74.77
679.2	73.89
679.4	73.30
679.6	72.31
679.8	71.51
680.0	71.05
680.2	71.07
680.4	70.85
680.6	71.58
680.8	71.43
681.0	70.69
681.2	70.02
681.4	68.79
681.6	67.70
681.8	67.47
682.0	66.96
682.2	66.42
682.4	66.89
682.6	66.77
682.8	66.33
683.0	66.16
683.2	65.47
683.4	64.81
683.6	64.87
683.8	64.58
684.0	64.21
684.2	63.71
684.4	63.35
684.6	62.99
684.8	63.00
685.0	62.71
685.2	62.25
685.4	61.41
685.6	60.82
685.8	59.80
686.0	60.04
686.2	60.11
686.4	59.83
686.6	60.00
686.8	59.75
687.0	58.84
687.2	58.22
687.4	57.78
687.6	57.40
687.8	58.18
688.0	58.43
688.2	57.64
688.4	56.26
688.6	55.27
688.8	54.89
689.0	54.95
689.2	55.47
689.4	54.96
689.6	54.50
689.8	53.84
690.0	53.74
690.2	53.55
690.4	53.90
690.6	53.11
690.8	52.96
691.0	52.66
691.2	52.44
691.4	52.15
691.6	51.40
691.8	50.67
692.0	50.52
692.2	50.02
692.4	49.56
692.6	49.44
692.8	49.02
693.0	49.33
693.2	49.14
693.4	48.84
693.6	48.69
693.8	48.65
694.0	48.04
694.2	47.82
694.4	47.38
694.6	47.43
694.8	47.34
695.0	46.79
695.2	46.12
695.4	45.53
695.6	45.40
695.8	45.28
696.0	44.90
696.2	44.54
696.4	44.63
696.6	44.55
696.8	44.51
697.0	44.18
697.2	43.59
697.4	43.45
697.6	44.14
697.8	44.25
698.0	43.96
698.2	43.36
698.4	42.38
698.6	41.76
698.8	41.74
699.0	41.97
699.2	42.21
699.4	42.32
699.6	42.26
699.8	41.66
700.0	41.46
700.2	41.45
700.4	41.10
700.6	40.73
700.8	40.44
701.0	39.36
701.2	39.22
701.4	39.38
701.6	39.41
701.8	39.52
702.0	39.47
702.2	38.93
702.4	38.54
702.6	38.72
702.8	38.38
703.0	37.71
703.2	37.19
703.4	36.90
703.6	36.56
703.8	37.19
704.0	37.32
704.2	37.23
704.4	36.92
704.6	36.79
704.8	36.55
705.0	36.72
705.2	36.54
705.4	36.33
705.6	36.06
705.8	35.58
706.0	35.19
706.2	34.34
706.4	33.83
706.6	33.88
706.8	34.55
707.0	34.57
707.2	34.83
707.4	34.32
707.6	34.05
707.8	33.82
708.0	33.43
708.2	33.01
708.4	33.19
708.6	33.04
708.8	33.05
709.0	32.83
709.2	32.46
709.4	32.59
709.6	32.87
709.8	32.47
710.0	31.93
710.2	31.68
710.4	31.44
710.6	31.64
710.8	31.54
711.0	30.73
711.2	30.37
711.4	30.41
711.6	30.20
711.8	30.33
712.0	30.52
712.2	30.10
712.4	30.06
712.6	30.23
712.8	29.96
713.0	29.54
713.2	29.90
713.4	29.71
713.6	29.29
713.8	28.96
714.0	28.21
714.2	27.26
714.4	27.14
714.6	26.99
714.8	27.00
715.0	26.98
715.2	26.69
715.4	26.36
715.6	25.99
715.8	25.85
716.0	25.71
716.2	26.19
716.4	26.25
716.6	26.16
716.8	25.82
717.0	25.76
717.2	25.75
717.4	25.98
717.6	25.67
717.8	25.28
718.0	25.03
718.2	25.40
718.4	25.78
718.6	25.37
718.8	24.98
719.0	24.65
719.2	24.22
719.4	24.31
719.6	24.10
719.8	23.69
720.0	23.72
720.2	23.60
720.4	23.61
720.6	23.57
720.8	23.60
721.0	23.35
721.2	22.85
721.4	22.30
721.6	21.93
721.8	21.82
722.0	21.89
722.2	21.71
722.4	21.61
722.6	21.91
722.8	21.48
723.0	21.51
723.2	21.50
723.4	21.20
723.6	21.03
723.8	20.83
724.0	20.44
724.2	20.54
724.4	20.59
724.6	20.22
724.8	19.72
725.0	19.36
725.2	19.28
725.4	19.63
725.6	19.53
725.8	19.42
726.0	19.08
726.2	19.36
726.4	19.16
726.6	18.91
726.8	18.35
727.0	17.97
727.2	17.71
727.4	17.96
727.6	18.04
727.8	18.11
728.0	17.61
728.2	17.53
728.4	17.57
728.6	17.79
728.8	17.87
729.0	17.82
729.2	17.24
729.4	17.03
729.6	16.77
729.8	16.77
730.0	16.69
730.2	16.70
730.4	16.57
730.6	16.37
730.8	16.29
731.0	16.16
731.2	16.09
731.4	15.96
731.6	15.66
731.8	15.42
732.0	15.47
732.2	15.81
732.4	16.13
732.6	16.26
732.8	16.19
733.0	15.78
733.2	15.17
733.4	15.01
733.6	15.17
733.8	15.34
734.0	15.34
734.2	15.03
734.4	14.60
734.6	14.24
734.8	14.39
735.0	14.25
735.2	14.03
735.4	14.07
735.6	13.93
735.8	13.63
736.0	13.78
736.2	13.77
736.4	13.40
736.6	13.08
736.8	12.67
737.0	12.73
737.2	13.47
737.4	14.06
737.6	14.18
737.8	13.91
738.0	13.36
738.2	12.97
738.4	12.63
738.6	11.90
738.8	11.72
739.0	11.57
739.2	11.70
739.4	11.94
739.6	11.87
739.8	11.87
740.0	11.97
740.2	12.16
740.4	12.25
740.6	12.08
740.8	11.73
741.0	11.58
741.2	11.48
741.4	11.77
741.6	11.62
741.8	11.44
742.0	11.31
742.2	11.05
742.4	11.16
742.6	11.00
742.8	10.71
743.0	10.86
743.2	10.83
743.4	10.75
743.6	10.84
743.8	10.55
744.0	10.36
744.2	10.52
744.4	10.40
744.6	10.28
744.8	10.24
745.0	10.11
745.2	10.03
745.4	9.892
745.6	9.785
745.8	9.698
746.0	9.688
746.2	9.792
746.4	9.714
746.6	9.600
746.8	9.515
747.0	9.669
747.2	9.519
747.4	9.552
747.6	9.563
747.8	9.592
748.0	9.385
748.2	9.279
748.4	8.792
748.6	8.436
748.8	8.492
749.0	8.632
749.2	8.739
749.4	8.773
749.6	8.752
749.8	8.789
750.0	8.820
750.2	8.691
750.4	8.597
750.6	8.185
750.8	7.948
751.0	7.963
751.2	7.944
751.4	8.041
751.6	8.329
751.8	8.172
752.0	8.190
752.2	8.056
752.4	7.884
752.6	7.745
752.8	7.899
753.0	7.867
753.2	7.917
753.4	7.712
753.6	7.604
753.8	7.377
754.0	7.287
754.2	7.417
754.4	7.617
754.6	7.660
754.8	7.541
755.0	7.481
755.2	7.371
755.4	7.347
755.6	7.310
755.8	7.186
756.0	6.968
756.2	7.140
756.4	7.090
756.6	7.266
756.8	7.223
757.0	7.242
757.2	7.060
757.4	6.770
757.6	6.328
757.8	6.382
758.0	6.418
758.2	6.553
758.4	6.676
758.6	6.575
758.8	6.437
759.0	6.387
759.2	6.433
759.4	6.382
759.6	6.377
759.8	6.217
760.0	5.932
760.2	5.935
760.4	5.985
760.6	6.278
760.8	6.353
761.0	6.515
761.2	6.229
761.4	6.101
761.6	5.842
761.8	5.925
762.0	5.917
762.2	6.056
762.4	5.843
762.6	5.654
762.8	5.565
763.0	5.592
763.2	5.692
763.4	5.832
763.6	5.755
763.8	5.527
764.0	5.523
764.2	5.372
764.4	5.402
764.6	5.548
764.8	5.422
765.0	5.385
765.2	5.539
765.4	5.363
765.6	5.373
765.8	5.411
766.0	5.288
766.2	5.350
766.4	5.287
766.6	5.045
766.8	4.731
767.0	4.528
767.2	4.589
767.4	4.877
767.6	5.034
767.8	5.317
768.0	5.069
768.2	4.872
768.4	4.733
768.6	4.748
768.8	4.880
769.0	5.166
769.2	5.082
769.4	4.987
769.6	4.814
769.8	4.523
770.0	4.540
770.2	4.576
770.4	4.658
770.6	4.717
770.8	4.780
771.0	4.766
771.2	4.671
771.4	4.420
771.6	4.322
771.8	4.274
772.0	4.267
772.2	4.345
772.4	4.358
772.6	4.462
772.8	4.545
773.0	4.585
773.2	4.489
773.4	4.211
773.6	4.104
773.8	4.070
774.0	4.050
774.2	4.058
774.4	4.186
774.6	4.101
774.8	4.116
775.0	4.034
775.2	4.033
775.4	3.862
775.6	3.908
775.8	3.871
776.0	3.881
776.2	3.910
776.4	3.984
776.6	3.963
776.8	3.950
777.0	3.855
777.2	3.730
777.4	3.601
777.6	3.588
777.8	3.718
778.0	3.661
778.2	3.590
778.4	3.503
778.6	3.456
778.8	3.505
779.0	3.474
779.2	3.405
779.4	3.430
779.6	3.361
779.8	3.404
780.0	3.515
780.2	3.415
780.4	3.356
780.6	3.326
780.8	3.148
781.0	2.971
781.2	3.115
781.4	3.248
781.6	3.408
781.8	3.414
782.0	3.316
782.2	3.198
782.4	3.316
782.6	3.486
782.8	3.470
783.0	3.297
783.2	3.135
783.4	3.104
783.6	3.151
783.8	3.388
784.0	3.363
784.2	3.225
784.4	3.000
784.6	3.022
784.8	3.017
785.0	3.157
785.2	3.065
785.4	3.122
785.6	3.017
785.8	3.017
786.0	3.000
786.2	2.943
786.4	2.824
786.6	2.968
786.8	2.984
787.0	2.969
787.2	3.023
787.4	3.089
787.6	2.993
787.8	3.021
788.0	2.959
788.2	2.913
788.4	2.791
788.6	2.875
788.8	2.826
789.0	2.896
789.2	2.868
789.4	2.907
789.6	2.828
789.8	2.831
790.0	2.758
790.2	2.728
790.4	2.777
790.6	2.746
790.8	2.807
791.0	2.736
791.2	2.786
791.4	2.692
791.6	2.722
791.8	2.635
792.0	2.651
792.2	2.601
792.4	2.713
792.6	2.614
792.8	2.559
793.0	2.649
793.2	2.694
793.4	2.722
793.6	2.694
793.8	2.492
794.0	2.245
794.2	2.227
794.4	2.339
794.6	2.499
794.8	2.646
795.0	2.657
795.2	2.532
795.4	2.526
795.6	2.646
795.8	2.645
796.0	2.609
796.2	2.506
796.4	2.354
796.6	2.266
796.8	2.332
797.0	2.371
797.2	2.434
797.4	2.525
797.6	2.452
797.8	2.311
798.0	2.413
798.2	2.375
798.4	2.583
798.6	2.695
798.8	2.592
799.0	2.536
799.2	2.508
799.4	2.471
799.6	2.670
799.8	2.766
800.0	2.583

