Sample:	'20211010A(EM)
File name:	R-CDs 3.FDS
Run date:	'09:54:18, 06/09/2023
Operator:	Administrator
Comment:	'

Instrument
Model:	F-4700 FL Spectrophotometer
Serial number:	2019-001
ROM Version:	5J24010 00

Instrument parameters
Measurement type:	Wavelength scan
Scan mode:	Emission
Data mode:	Fluorescence
EX WL:	520.0 nm
EM  Start WL:	540.0 nm
EM  End WL:	800.0 nm
Scan speed:	1200 nm/min
Delay:	0.0 s
EX Slit:	10.0 nm
EM Slit:	10.0 nm
PMT Voltage:	630 V
Response:	0.002 s
Corrected spectra:	Off
Shutter control:	On

Processing performed
Savitsky-Golay smoothed
Smoothing order:	3
Number of points:	7
Number of times:	1

Peak integration
Integration method:	Rectangular
Sensitivity:	1
Threshold:	1.000

Peaks
No.	Start(nm)	Apex(nm)	End(nm)	Height(Data)	Valley(nm)	Valley(Data)
1	540.0	608.4	612.8	8491	612.8	8352
2	612.8	613.8	755.8	8387	755.8	158.9
3	755.8	756.6	781.6	166.7	781.6	62.75
4	781.6	783.0	794.4	67.48	794.4	46.67
5	794.4	795.4	798.2	52.21	798.2	44.72

Data points
nm	Data
540.0	760.5
540.2	779.0
540.4	789.0
540.6	795.2
540.8	806.0
541.0	818.6
541.2	827.5
541.4	842.8
541.6	845.7
541.8	846.1
542.0	860.6
542.2	872.5
542.4	889.2
542.6	905.8
542.8	914.8
543.0	923.3
543.2	935.2
543.4	946.1
543.6	964.0
543.8	975.7
544.0	986.4
544.2	993.3
544.4	998.9
544.6	1008
544.8	1020
545.0	1035
545.2	1051
545.4	1064
545.6	1079
545.8	1092
546.0	1103
546.2	1120
546.4	1129
546.6	1137
546.8	1144
547.0	1155
547.2	1168
547.4	1190
547.6	1201
547.8	1212
548.0	1222
548.2	1237
548.4	1251
548.6	1261
548.8	1281
549.0	1293
549.2	1303
549.4	1317
549.6	1327
549.8	1341
550.0	1369
550.2	1375
550.4	1391
550.6	1409
550.8	1420
551.0	1444
551.2	1464
551.4	1471
551.6	1487
551.8	1507
552.0	1517
552.2	1530
552.4	1549
552.6	1567
552.8	1574
553.0	1593
553.2	1607
553.4	1628
553.6	1656
553.8	1679
554.0	1684
554.2	1699
554.4	1718
554.6	1741
554.8	1762
555.0	1783
555.2	1801
555.4	1822
555.6	1843
555.8	1858
556.0	1871
556.2	1889
556.4	1916
556.6	1931
556.8	1947
557.0	1964
557.2	1979
557.4	2004
557.6	2028
557.8	2043
558.0	2059
558.2	2078
558.4	2101
558.6	2124
558.8	2143
559.0	2169
559.2	2189
559.4	2213
559.6	2244
559.8	2270
560.0	2293
560.2	2320
560.4	2332
560.6	2348
560.8	2381
561.0	2410
561.2	2428
561.4	2456
561.6	2479
561.8	2505
562.0	2539
562.2	2563
562.4	2574
562.6	2600
562.8	2623
563.0	2650
563.2	2669
563.4	2697
563.6	2731
563.8	2754
564.0	2786
564.2	2824
564.4	2851
564.6	2884
564.8	2912
565.0	2936
565.2	2960
565.4	2989
565.6	3019
565.8	3047
566.0	3072
566.2	3102
566.4	3129
566.6	3149
566.8	3180
567.0	3216
567.2	3250
567.4	3275
567.6	3307
567.8	3323
568.0	3344
568.2	3386
568.4	3425
568.6	3462
568.8	3494
569.0	3520
569.2	3544
569.4	3581
569.6	3609
569.8	3640
570.0	3657
570.2	3694
570.4	3731
570.6	3771
570.8	3811
571.0	3841
571.2	3860
571.4	3890
571.6	3917
571.8	3952
572.0	4000
572.2	4038
572.4	4079
572.6	4114
572.8	4139
573.0	4158
573.2	4188
573.4	4217
573.6	4262
573.8	4304
574.0	4349
574.2	4384
574.4	4423
574.6	4454
574.8	4487
575.0	4490
575.2	4511
575.4	4545
575.6	4578
575.8	4632
576.0	4680
576.2	4698
576.4	4720
576.6	4766
576.8	4794
577.0	4839
577.2	4880
577.4	4908
577.6	4929
577.8	4970
578.0	5007
578.2	5046
578.4	5087
578.6	5117
578.8	5143
579.0	5182
579.2	5222
579.4	5258
579.6	5292
579.8	5325
580.0	5364
580.2	5401
580.4	5443
580.6	5475
580.8	5515
581.0	5550
581.2	5578
581.4	5606
581.6	5648
581.8	5671
582.0	5720
582.2	5747
582.4	5769
582.6	5821
582.8	5863
583.0	5902
583.2	5946
583.4	5962
583.6	5969
583.8	6015
584.0	6038
584.2	6077
584.4	6114
584.6	6141
584.8	6178
585.0	6220
585.2	6254
585.4	6290
585.6	6314
585.8	6338
586.0	6372
586.2	6395
586.4	6418
586.6	6485
586.8	6526
587.0	6549
587.2	6571
587.4	6569
587.6	6581
587.8	6632
588.0	6677
588.2	6711
588.4	6753
588.6	6771
588.8	6800
589.0	6818
589.2	6848
589.4	6888
589.6	6936
589.8	6977
590.0	7019
590.2	7047
590.4	7064
590.6	7067
590.8	7080
591.0	7104
591.2	7144
591.4	7180
591.6	7210
591.8	7236
592.0	7255
592.2	7271
592.4	7297
592.6	7325
592.8	7358
593.0	7389
593.2	7409
593.4	7433
593.6	7465
593.8	7500
594.0	7517
594.2	7528
594.4	7546
594.6	7571
594.8	7584
595.0	7606
595.2	7630
595.4	7673
595.6	7712
595.8	7746
596.0	7735
596.2	7739
596.4	7746
596.6	7785
596.8	7843
597.0	7859
597.2	7848
597.4	7863
597.6	7878
597.8	7923
598.0	7981
598.2	7975
598.4	7972
598.6	7976
598.8	7993
599.0	8005
599.2	8029
599.4	8039
599.6	8053
599.8	8077
600.0	8126
600.2	8147
600.4	8162
600.6	8169
600.8	8157
601.0	8157
601.2	8174
601.4	8190
601.6	8199
601.8	8221
602.0	8235
602.2	8255
602.4	8247
602.6	8262
602.8	8263
603.0	8297
603.2	8316
603.4	8322
603.6	8304
603.8	8306
604.0	8302
604.2	8336
604.4	8355
604.6	8357
604.8	8379
605.0	8373
605.2	8367
605.4	8389
605.6	8399
605.8	8396
606.0	8417
606.2	8387
606.4	8386
606.6	8405
606.8	8428
607.0	8443
607.2	8460
607.4	8442
607.6	8452
607.8	8456
608.0	8478
608.2	8486
608.4	8491
608.6	8470
608.8	8473
609.0	8469
609.2	8470
609.4	8456
609.6	8450
609.8	8443
610.0	8456
610.2	8466
610.4	8457
610.6	8436
610.8	8425
611.0	8414
611.2	8409
611.4	8412
611.6	8410
611.8	8419
612.0	8424
612.2	8412
612.4	8394
612.6	8372
612.8	8352
613.0	8364
613.2	8357
613.4	8372
613.6	8381
613.8	8387
614.0	8362
614.2	8371
614.4	8343
614.6	8348
614.8	8333
615.0	8327
615.2	8293
615.4	8298
615.6	8277
615.8	8277
616.0	8261
616.2	8268
616.4	8248
616.6	8247
616.8	8227
617.0	8210
617.2	8195
617.4	8201
617.6	8188
617.8	8167
618.0	8161
618.2	8147
618.4	8135
618.6	8131
618.8	8126
619.0	8112
619.2	8094
619.4	8066
619.6	8060
619.8	8041
620.0	8028
620.2	8020
620.4	8002
620.6	7981
620.8	7974
621.0	7960
621.2	7952
621.4	7938
621.6	7918
621.8	7897
622.0	7881
622.2	7848
622.4	7821
622.6	7803
622.8	7779
623.0	7787
623.2	7767
623.4	7737
623.6	7711
623.8	7693
624.0	7674
624.2	7661
624.4	7628
624.6	7614
624.8	7615
625.0	7613
625.2	7600
625.4	7567
625.6	7544
625.8	7525
626.0	7505
626.2	7475
626.4	7447
626.6	7413
626.8	7400
627.0	7410
627.2	7396
627.4	7373
627.6	7348
627.8	7322
628.0	7295
628.2	7269
628.4	7245
628.6	7225
628.8	7201
629.0	7189
629.2	7168
629.4	7137
629.6	7117
629.8	7096
630.0	7082
630.2	7071
630.4	7037
630.6	7006
630.8	6959
631.0	6925
631.2	6904
631.4	6891
631.6	6897
631.8	6905
632.0	6877
632.2	6848
632.4	6801
632.6	6769
632.8	6764
633.0	6743
633.2	6724
633.4	6713
633.6	6676
633.8	6640
634.0	6622
634.2	6588
634.4	6569
634.6	6554
634.8	6520
635.0	6494
635.2	6484
635.4	6455
635.6	6437
635.8	6420
636.0	6398
636.2	6382
636.4	6349
636.6	6319
636.8	6293
637.0	6280
637.2	6266
637.4	6240
637.6	6211
637.8	6176
638.0	6145
638.2	6134
638.4	6121
638.6	6093
638.8	6057
639.0	6014
639.2	5975
639.4	5973
639.6	5958
639.8	5944
640.0	5911
640.2	5891
640.4	5875
640.6	5868
640.8	5855
641.0	5832
641.2	5796
641.4	5779
641.6	5768
641.8	5744
642.0	5726
642.2	5685
642.4	5641
642.6	5609
642.8	5592
643.0	5570
643.2	5561
643.4	5541
643.6	5509
643.8	5489
644.0	5466
644.2	5421
644.4	5392
644.6	5373
644.8	5351
645.0	5342
645.2	5328
645.4	5287
645.6	5256
645.8	5232
646.0	5205
646.2	5195
646.4	5182
646.6	5151
646.8	5136
647.0	5120
647.2	5080
647.4	5064
647.6	5022
647.8	4986
648.0	4977
648.2	4971
648.4	4941
648.6	4919
648.8	4881
649.0	4847
649.2	4830
649.4	4816
649.6	4801
649.8	4779
650.0	4767
650.2	4740
650.4	4719
650.6	4690
650.8	4661
651.0	4631
651.2	4620
651.4	4599
651.6	4592
651.8	4572
652.0	4547
652.2	4523
652.4	4491
652.6	4458
652.8	4435
653.0	4421
653.2	4404
653.4	4376
653.6	4340
653.8	4318
654.0	4295
654.2	4292
654.4	4282
654.6	4265
654.8	4239
655.0	4219
655.2	4192
655.4	4181
655.6	4156
655.8	4138
656.0	4115
656.2	4094
656.4	4075
656.6	4071
656.8	4050
657.0	4033
657.2	3996
657.4	3963
657.6	3945
657.8	3945
658.0	3947
658.2	3934
658.4	3894
658.6	3858
658.8	3825
659.0	3789
659.2	3783
659.4	3761
659.6	3746
659.8	3740
660.0	3716
660.2	3685
660.4	3669
660.6	3659
660.8	3639
661.0	3641
661.2	3614
661.4	3599
661.6	3575
661.8	3555
662.0	3522
662.2	3504
662.4	3471
662.6	3460
662.8	3447
663.0	3432
663.2	3417
663.4	3397
663.6	3381
663.8	3372
664.0	3351
664.2	3340
664.4	3327
664.6	3302
664.8	3278
665.0	3259
665.2	3230
665.4	3217
665.6	3193
665.8	3171
666.0	3150
666.2	3130
666.4	3115
666.6	3116
666.8	3097
667.0	3090
667.2	3075
667.4	3052
667.6	3039
667.8	3036
668.0	3013
668.2	2983
668.4	2965
668.6	2943
668.8	2928
669.0	2916
669.2	2894
669.4	2868
669.6	2855
669.8	2839
670.0	2817
670.2	2811
670.4	2799
670.6	2784
670.8	2763
671.0	2745
671.2	2723
671.4	2714
671.6	2703
671.8	2694
672.0	2674
672.2	2654
672.4	2640
672.6	2618
672.8	2602
673.0	2588
673.2	2574
673.4	2555
673.6	2547
673.8	2531
674.0	2514
674.2	2499
674.4	2495
674.6	2476
674.8	2460
675.0	2448
675.2	2433
675.4	2417
675.6	2405
675.8	2388
676.0	2379
676.2	2369
676.4	2356
676.6	2336
676.8	2322
677.0	2314
677.2	2309
677.4	2295
677.6	2281
677.8	2264
678.0	2248
678.2	2234
678.4	2213
678.6	2187
678.8	2166
679.0	2151
679.2	2138
679.4	2132
679.6	2132
679.8	2119
680.0	2105
680.2	2091
680.4	2077
680.6	2057
680.8	2056
681.0	2042
681.2	2027
681.4	2018
681.6	2005
681.8	1990
682.0	1984
682.2	1972
682.4	1951
682.6	1946
682.8	1933
683.0	1923
683.2	1912
683.4	1901
683.6	1881
683.8	1870
684.0	1849
684.2	1828
684.4	1818
684.6	1811
684.8	1810
685.0	1811
685.2	1801
685.4	1788
685.6	1780
685.8	1766
686.0	1754
686.2	1749
686.4	1732
686.6	1718
686.8	1712
687.0	1707
687.2	1700
687.4	1692
687.6	1670
687.8	1650
688.0	1635
688.2	1626
688.4	1614
688.6	1609
688.8	1595
689.0	1586
689.2	1572
689.4	1571
689.6	1566
689.8	1559
690.0	1548
690.2	1539
690.4	1529
690.6	1523
690.8	1516
691.0	1503
691.2	1493
691.4	1479
691.6	1465
691.8	1451
692.0	1447
692.2	1440
692.4	1436
692.6	1427
692.8	1418
693.0	1405
693.2	1402
693.4	1394
693.6	1387
693.8	1382
694.0	1380
694.2	1362
694.4	1350
694.6	1336
694.8	1331
695.0	1333
695.2	1329
695.4	1320
695.6	1310
695.8	1298
696.0	1292
696.2	1285
696.4	1280
696.6	1276
696.8	1273
697.0	1269
697.2	1256
697.4	1246
697.6	1235
697.8	1225
698.0	1221
698.2	1218
698.4	1211
698.6	1204
698.8	1190
699.0	1181
699.2	1172
699.4	1167
699.6	1168
699.8	1159
700.0	1157
700.2	1149
700.4	1137
700.6	1129
700.8	1129
701.0	1119
701.2	1118
701.4	1110
701.6	1100
701.8	1090
702.0	1088
702.2	1087
702.4	1085
702.6	1075
702.8	1073
703.0	1064
703.2	1051
703.4	1050
703.6	1050
703.8	1042
704.0	1037
704.2	1030
704.4	1020
704.6	1018
704.8	1019
705.0	1015
705.2	1007
705.4	997.4
705.6	995.4
705.8	982.6
706.0	969.9
706.2	962.5
706.4	953.3
706.6	943.6
706.8	945.0
707.0	941.5
707.2	940.5
707.4	934.5
707.6	931.5
707.8	928.7
708.0	921.2
708.2	914.9
708.4	906.7
708.6	891.8
708.8	885.1
709.0	880.6
709.2	878.5
709.4	884.7
709.6	881.4
709.8	874.8
710.0	867.2
710.2	860.9
710.4	857.3
710.6	858.4
710.8	853.9
711.0	848.1
711.2	842.5
711.4	835.3
711.6	824.3
711.8	816.2
712.0	809.0
712.2	801.9
712.4	803.5
712.6	797.7
712.8	793.3
713.0	790.7
713.2	781.3
713.4	775.4
713.6	774.7
713.8	765.5
714.0	759.4
714.2	751.5
714.4	746.6
714.6	746.9
714.8	742.9
715.0	733.5
715.2	724.9
715.4	720.5
715.6	722.9
715.8	725.8
716.0	720.0
716.2	709.6
716.4	703.7
716.6	699.2
716.8	695.0
717.0	693.7
717.2	687.7
717.4	683.4
717.6	683.4
717.8	679.8
718.0	670.7
718.2	662.5
718.4	657.1
718.6	649.7
718.8	645.5
719.0	641.8
719.2	632.2
719.4	629.7
719.6	627.9
719.8	625.3
720.0	620.9
720.2	615.1
720.4	607.7
720.6	607.7
720.8	600.9
721.0	598.7
721.2	592.1
721.4	585.4
721.6	578.5
721.8	578.4
722.0	572.6
722.2	569.4
722.4	570.1
722.6	570.7
722.8	569.6
723.0	566.3
723.2	558.5
723.4	549.3
723.6	543.8
723.8	538.8
724.0	533.2
724.2	526.2
724.4	520.4
724.6	518.3
724.8	519.9
725.0	522.7
725.2	522.2
725.4	518.4
725.6	506.0
725.8	499.2
726.0	493.7
726.2	490.9
726.4	488.2
726.6	486.4
726.8	481.6
727.0	477.7
727.2	475.4
727.4	468.6
727.6	466.9
727.8	466.6
728.0	461.4
728.2	454.5
728.4	453.6
728.6	445.7
728.8	444.4
729.0	448.8
729.2	445.1
729.4	440.0
729.6	438.0
729.8	431.0
730.0	426.4
730.2	431.2
730.4	423.6
730.6	415.8
730.8	410.3
731.0	409.7
731.2	411.9
731.4	415.9
731.6	412.8
731.8	410.7
732.0	404.7
732.2	403.9
732.4	398.0
732.6	392.5
732.8	386.6
733.0	382.0
733.2	378.6
733.4	380.6
733.6	379.5
733.8	373.7
734.0	369.1
734.2	364.8
734.4	359.8
734.6	357.0
734.8	355.2
735.0	353.1
735.2	357.4
735.4	360.7
735.6	357.1
735.8	351.2
736.0	347.8
736.2	344.1
736.4	337.8
736.6	331.4
736.8	324.0
737.0	320.9
737.2	321.6
737.4	321.9
737.6	325.0
737.8	324.3
738.0	323.4
738.2	320.2
738.4	315.5
738.6	312.6
738.8	314.0
739.0	310.9
739.2	308.5
739.4	302.5
739.6	300.1
739.8	298.5
740.0	294.4
740.2	290.4
740.4	289.8
740.6	288.0
740.8	292.0
741.0	290.6
741.2	285.2
741.4	278.5
741.6	271.1
741.8	267.4
742.0	271.9
742.2	272.4
742.4	273.5
742.6	271.2
742.8	267.0
743.0	265.8
743.2	265.3
743.4	264.5
743.6	259.8
743.8	255.6
744.0	253.2
744.2	250.8
744.4	252.4
744.6	253.7
744.8	252.2
745.0	252.1
745.2	251.6
745.4	248.7
745.6	245.5
745.8	238.9
746.0	235.8
746.2	228.8
746.4	226.1
746.6	226.9
746.8	227.4
747.0	229.5
747.2	232.8
747.4	227.6
747.6	224.8
747.8	223.1
748.0	216.9
748.2	215.1
748.4	216.5
748.6	215.6
748.8	216.1
749.0	214.5
749.2	207.7
749.4	206.1
749.6	206.6
749.8	205.9
750.0	202.9
750.2	200.2
750.4	195.6
750.6	192.1
750.8	193.7
751.0	195.6
751.2	195.3
751.4	195.1
751.6	192.7
751.8	189.1
752.0	188.1
752.2	185.3
752.4	183.7
752.6	183.8
752.8	186.7
753.0	188.8
753.2	189.3
753.4	186.9
753.6	182.6
753.8	176.9
754.0	173.7
754.2	172.5
754.4	171.4
754.6	170.4
754.8	169.7
755.0	167.3
755.2	165.0
755.4	164.9
755.6	161.1
755.8	158.9
756.0	161.0
756.2	162.1
756.4	163.7
756.6	166.7
756.8	164.1
757.0	160.7
757.2	156.8
757.4	152.3
757.6	149.9
757.8	150.8
758.0	150.0
758.2	150.1
758.4	148.5
758.6	149.0
758.8	147.8
759.0	146.3
759.2	144.8
759.4	144.8
759.6	143.3
759.8	144.9
760.0	143.9
760.2	141.7
760.4	139.7
760.6	138.4
760.8	138.2
761.0	138.6
761.2	138.1
761.4	136.6
761.6	133.6
761.8	131.0
762.0	130.7
762.2	128.8
762.4	127.6
762.6	127.4
762.8	126.7
763.0	127.0
763.2	125.5
763.4	124.5
763.6	122.2
763.8	121.8
764.0	121.4
764.2	123.0
764.4	121.4
764.6	122.1
764.8	121.4
765.0	120.5
765.2	118.7
765.4	117.7
765.6	115.9
765.8	115.6
766.0	115.9
766.2	116.6
766.4	116.1
766.6	115.4
766.8	115.2
767.0	114.7
767.2	111.8
767.4	109.8
767.6	107.9
767.8	105.2
768.0	107.2
768.2	108.8
768.4	108.9
768.6	106.3
768.8	103.4
769.0	99.76
769.2	101.4
769.4	101.1
769.6	101.9
769.8	99.77
770.0	98.10
770.2	98.18
770.4	97.91
770.6	97.81
770.8	97.67
771.0	96.18
771.2	94.13
771.4	94.10
771.6	93.36
771.8	93.14
772.0	91.96
772.2	91.75
772.4	90.41
772.6	91.70
772.8	91.67
773.0	89.94
773.2	87.97
773.4	87.09
773.6	84.89
773.8	84.21
774.0	83.22
774.2	83.26
774.4	84.85
774.6	86.47
774.8	84.95
775.0	83.27
775.2	82.47
775.4	82.00
775.6	81.93
775.8	82.67
776.0	81.92
776.2	81.85
776.4	82.84
776.6	81.54
776.8	78.84
777.0	77.65
777.2	76.19
777.4	75.38
777.6	76.71
777.8	75.77
778.0	74.18
778.2	74.83
778.4	74.04
778.6	74.28
778.8	76.70
779.0	76.41
779.2	74.68
779.4	74.04
779.6	72.21
779.8	71.66
780.0	72.24
780.2	72.03
780.4	72.10
780.6	71.80
780.8	70.72
781.0	69.21
781.2	66.60
781.4	63.87
781.6	62.75
781.8	63.57
782.0	64.14
782.2	64.44
782.4	65.49
782.6	65.34
782.8	66.57
783.0	67.48
783.2	66.82
783.4	64.87
783.6	63.60
783.8	60.76
784.0	61.30
784.2	61.88
784.4	62.53
784.6	62.85
784.8	61.31
785.0	58.62
785.2	59.38
785.4	60.18
785.6	61.23
785.8	62.15
786.0	60.04
786.2	58.98
786.4	58.48
786.6	57.95
786.8	58.68
787.0	59.34
787.2	58.59
787.4	58.38
787.6	57.16
787.8	57.47
788.0	58.01
788.2	58.53
788.4	57.65
788.6	56.21
788.8	54.73
789.0	54.70
789.2	55.43
789.4	56.44
789.6	55.75
789.8	56.08
790.0	56.05
790.2	55.89
790.4	55.18
790.6	53.72
790.8	51.48
791.0	51.38
791.2	52.37
791.4	52.67
791.6	52.41
791.8	52.22
792.0	50.30
792.2	50.64
792.4	50.34
792.6	50.19
792.8	51.29
793.0	52.07
793.2	50.01
793.4	49.75
793.6	48.36
793.8	47.93
794.0	48.11
794.2	47.76
794.4	46.67
794.6	48.29
794.8	50.66
795.0	50.66
795.2	51.32
795.4	52.21
795.6	51.85
795.8	52.12
796.0	51.72
796.2	49.01
796.4	46.55
796.6	46.25
796.8	46.59
797.0	47.00
797.2	47.89
797.4	48.18
797.6	46.64
797.8	45.84
798.0	45.00
798.2	44.72
798.4	46.29
798.6	46.78
798.8	46.74
799.0	46.32
799.2	45.24
799.4	45.95
799.6	47.21
799.8	45.73
800.0	39.22

