Sample:	'20211010A(EM)
File name:	R-CDs 2 200uM.FDS
Run date:	'09:50:03, 06/09/2023
Operator:	Administrator
Comment:	'

Instrument
Model:	F-4700 FL Spectrophotometer
Serial number:	2019-001
ROM Version:	5J24010 00

Instrument parameters
Measurement type:	Wavelength scan
Scan mode:	Emission
Data mode:	Fluorescence
EX WL:	520.0 nm
EM  Start WL:	540.0 nm
EM  End WL:	800.0 nm
Scan speed:	1200 nm/min
Delay:	0.0 s
EX Slit:	10.0 nm
EM Slit:	10.0 nm
PMT Voltage:	500 V
Response:	0.002 s
Corrected spectra:	Off
Shutter control:	On

Processing performed
Savitsky-Golay smoothed
Smoothing order:	3
Number of points:	7
Number of times:	1

Peak integration
Integration method:	Rectangular
Sensitivity:	1
Threshold:	1.000

Peaks
No.	Start(nm)	Apex(nm)	End(nm)	Height(Data)	Valley(nm)	Valley(Data)
1	540.0	594.4	595.4	317.7	595.4	313.6
2	595.4	596.8	597.6	320.0	597.6	316.6
3	597.6	598.6	599.4	320.2	599.4	315.8
4	599.4	600.0	601.4	319.1	601.4	315.6
5	601.4	602.2	604.0	318.6	604.0	314.0
6	604.0	606.2	607.0	315.7	607.0	311.0
7	607.0	607.6	610.8	313.8	610.8	305.1
8	610.8	611.2	613.8	308.2	613.8	300.7
9	613.8	614.6	621.0	304.4	621.0	284.0
10	621.0	621.8	800.0	286.7	800.0	2.167

Data points
nm	Data
540.0	64.18
540.2	63.98
540.4	64.30
540.6	64.86
540.8	64.85
541.0	65.43
541.2	66.61
541.4	67.52
541.6	68.19
541.8	68.90
542.0	68.93
542.2	68.50
542.4	68.41
542.6	68.83
542.8	69.34
543.0	70.34
543.2	70.76
543.4	70.07
543.6	69.93
543.8	69.90
544.0	71.35
544.2	71.90
544.4	72.23
544.6	72.67
544.8	72.97
545.0	73.32
545.2	74.51
545.4	74.45
545.6	75.57
545.8	76.62
546.0	77.17
546.2	77.34
546.4	77.50
546.6	76.70
546.8	77.07
547.0	77.04
547.2	77.80
547.4	78.88
547.6	79.62
547.8	79.19
548.0	80.17
548.2	80.46
548.4	81.35
548.6	82.69
548.8	83.63
549.0	83.67
549.2	84.27
549.4	84.66
549.6	83.95
549.8	84.34
550.0	85.81
550.2	86.08
550.4	85.70
550.6	85.96
550.8	85.00
551.0	86.25
551.2	89.00
551.4	89.76
551.6	89.72
551.8	90.07
552.0	90.35
552.2	91.26
552.4	92.81
552.6	93.22
552.8	94.58
553.0	95.66
553.2	95.52
553.4	94.03
553.6	93.93
553.8	93.69
554.0	95.40
554.2	97.62
554.4	97.95
554.6	98.80
554.8	100.4
555.0	101.0
555.2	101.6
555.4	102.7
555.6	102.9
555.8	103.9
556.0	105.5
556.2	105.7
556.4	104.9
556.6	104.3
556.8	105.1
557.0	106.6
557.2	108.9
557.4	109.6
557.6	109.8
557.8	110.0
558.0	111.4
558.2	113.0
558.4	113.9
558.6	115.1
558.8	116.0
559.0	116.7
559.2	118.3
559.4	118.9
559.6	119.5
559.8	121.1
560.0	121.9
560.2	122.1
560.4	123.7
560.6	124.5
560.8	125.9
561.0	127.8
561.2	128.8
561.4	129.8
561.6	130.9
561.8	131.7
562.0	132.3
562.2	134.2
562.4	135.2
562.6	136.6
562.8	138.1
563.0	139.5
563.2	139.2
563.4	140.6
563.6	141.0
563.8	142.0
564.0	143.5
564.2	145.1
564.4	146.9
564.6	149.2
564.8	151.6
565.0	153.6
565.2	154.5
565.4	155.7
565.6	156.5
565.8	156.7
566.0	156.9
566.2	157.8
566.4	159.1
566.6	161.5
566.8	162.9
567.0	165.0
567.2	166.5
567.4	169.1
567.6	170.1
567.8	171.0
568.0	171.6
568.2	172.7
568.4	174.9
568.6	177.3
568.8	179.2
569.0	180.5
569.2	182.4
569.4	183.0
569.6	185.6
569.8	186.5
570.0	189.3
570.2	190.6
570.4	193.5
570.6	194.4
570.8	196.2
571.0	198.3
571.2	200.4
571.4	200.9
571.6	202.2
571.8	201.5
572.0	202.1
572.2	204.1
572.4	206.0
572.6	208.0
572.8	209.7
573.0	209.7
573.2	212.1
573.4	213.9
573.6	217.1
573.8	218.7
574.0	220.3
574.2	221.0
574.4	223.1
574.6	223.6
574.8	225.9
575.0	226.8
575.2	228.5
575.4	230.5
575.6	232.5
575.8	233.3
576.0	234.1
576.2	235.9
576.4	237.2
576.6	239.4
576.8	240.4
577.0	242.1
577.2	243.7
577.4	246.3
577.6	246.7
577.8	249.1
578.0	249.6
578.2	251.9
578.4	254.7
578.6	256.4
578.8	255.8
579.0	257.0
579.2	257.2
579.4	259.4
579.6	262.0
579.8	263.2
580.0	264.9
580.2	265.0
580.4	264.7
580.6	266.7
580.8	269.8
581.0	271.2
581.2	273.9
581.4	274.3
581.6	274.9
581.8	276.7
582.0	279.1
582.2	277.5
582.4	277.7
582.6	277.4
582.8	277.0
583.0	278.0
583.2	280.9
583.4	281.6
583.6	283.8
583.8	284.6
584.0	286.0
584.2	287.3
584.4	289.5
584.6	291.1
584.8	290.3
585.0	289.1
585.2	290.2
585.4	291.2
585.6	292.6
585.8	295.0
586.0	296.1
586.2	296.5
586.4	297.7
586.6	299.9
586.8	300.8
587.0	301.1
587.2	302.6
587.4	302.8
587.6	303.5
587.8	304.2
588.0	304.9
588.2	306.2
588.4	306.6
588.6	307.0
588.8	307.8
589.0	307.7
589.2	308.4
589.4	308.8
589.6	308.3
589.8	309.3
590.0	310.0
590.2	309.5
590.4	308.9
590.6	309.0
590.8	309.1
591.0	309.8
591.2	310.0
591.4	309.4
591.6	310.0
591.8	311.9
592.0	312.5
592.2	314.5
592.4	316.0
592.6	315.4
592.8	316.4
593.0	315.7
593.2	315.9
593.4	315.6
593.6	314.9
593.8	315.6
594.0	317.2
594.2	316.3
594.4	317.7
594.6	316.9
594.8	317.6
595.0	317.4
595.2	315.7
595.4	313.6
595.6	315.3
595.8	315.9
596.0	318.2
596.2	319.5
596.4	319.8
596.6	319.5
596.8	320.0
597.0	318.9
597.2	317.2
597.4	317.3
597.6	316.6
597.8	316.9
598.0	317.6
598.2	318.5
598.4	319.3
598.6	320.2
598.8	319.7
599.0	319.1
599.2	317.5
599.4	315.8
599.6	316.2
599.8	318.7
600.0	319.1
600.2	317.9
600.4	317.9
600.6	317.1
600.8	316.6
601.0	318.2
601.2	316.8
601.4	315.6
601.6	316.5
601.8	317.2
602.0	317.0
602.2	318.6
602.4	317.8
602.6	317.4
602.8	316.6
603.0	315.6
603.2	315.2
603.4	314.9
603.6	314.1
603.8	314.4
604.0	314.0
604.2	314.8
604.4	315.4
604.6	314.0
604.8	314.0
605.0	315.4
605.2	315.3
605.4	314.9
605.6	315.1
605.8	314.4
606.0	314.3
606.2	315.7
606.4	314.3
606.6	312.1
606.8	311.3
607.0	311.0
607.2	311.1
607.4	313.6
607.6	313.8
607.8	313.5
608.0	312.1
608.2	311.6
608.4	311.1
608.6	311.1
608.8	310.5
609.0	309.3
609.2	309.5
609.4	310.8
609.6	310.2
609.8	310.2
610.0	309.7
610.2	307.5
610.4	306.4
610.6	306.5
610.8	305.1
611.0	307.2
611.2	308.2
611.4	308.0
611.6	308.0
611.8	307.6
612.0	306.3
612.2	306.8
612.4	306.7
612.6	305.1
612.8	305.9
613.0	304.8
613.2	302.2
613.4	301.0
613.6	301.1
613.8	300.7
614.0	302.2
614.2	303.7
614.4	304.1
614.6	304.4
614.8	304.0
615.0	302.0
615.2	299.9
615.4	298.8
615.6	298.1
615.8	297.8
616.0	298.1
616.2	297.1
616.4	297.0
616.6	296.5
616.8	296.2
617.0	296.3
617.2	296.3
617.4	295.9
617.6	295.6
617.8	295.1
618.0	294.7
618.2	295.0
618.4	293.9
618.6	293.7
618.8	293.6
619.0	293.7
619.2	293.0
619.4	292.5
619.6	290.8
619.8	289.7
620.0	289.0
620.2	290.2
620.4	288.6
620.6	288.0
620.8	285.4
621.0	284.0
621.2	284.3
621.4	285.9
621.6	285.7
621.8	286.7
622.0	285.8
622.2	285.6
622.4	285.7
622.6	284.4
622.8	281.8
623.0	279.2
623.2	278.4
623.4	278.9
623.6	279.4
623.8	280.5
624.0	279.9
624.2	278.1
624.4	279.3
624.6	279.1
624.8	278.6
625.0	279.0
625.2	278.3
625.4	275.6
625.6	275.6
625.8	273.9
626.0	273.7
626.2	273.7
626.4	273.5
626.6	271.6
626.8	271.3
627.0	271.4
627.2	270.9
627.4	270.5
627.6	269.5
627.8	267.7
628.0	265.9
628.2	266.7
628.4	266.7
628.6	267.0
628.8	266.5
629.0	265.8
629.2	264.0
629.4	264.0
629.6	263.8
629.8	263.0
630.0	262.1
630.2	260.8
630.4	258.4
630.6	257.2
630.8	256.5
631.0	255.8
631.2	255.8
631.4	254.6
631.6	253.2
631.8	253.7
632.0	254.5
632.2	255.3
632.4	255.4
632.6	255.2
632.8	253.7
633.0	252.4
633.2	251.4
633.4	250.4
633.6	249.5
633.8	248.8
634.0	248.1
634.2	248.8
634.4	249.0
634.6	247.7
634.8	245.6
635.0	243.3
635.2	243.0
635.4	243.7
635.6	242.5
635.8	241.7
636.0	240.6
636.2	239.6
636.4	238.6
636.6	237.8
636.8	235.5
637.0	235.0
637.2	234.7
637.4	234.6
637.6	234.5
637.8	234.8
638.0	233.7
638.2	234.0
638.4	233.6
638.6	232.7
638.8	231.3
639.0	229.5
639.2	228.4
639.4	228.8
639.6	229.1
639.8	228.3
640.0	226.0
640.2	223.4
640.4	222.1
640.6	222.1
640.8	222.4
641.0	222.1
641.2	221.6
641.4	220.3
641.6	218.6
641.8	219.0
642.0	218.4
642.2	217.8
642.4	217.6
642.6	215.9
642.8	214.2
643.0	212.9
643.2	211.3
643.4	210.3
643.6	209.8
643.8	209.1
644.0	209.0
644.2	208.3
644.4	207.6
644.6	207.4
644.8	206.6
645.0	204.9
645.2	204.0
645.4	202.6
645.6	201.5
645.8	202.5
646.0	202.4
646.2	200.7
646.4	199.9
646.6	198.2
646.8	197.2
647.0	197.0
647.2	196.9
647.4	195.5
647.6	194.6
647.8	193.8
648.0	192.7
648.2	191.1
648.4	190.4
648.6	189.7
648.8	189.0
649.0	188.4
649.2	187.5
649.4	186.1
649.6	185.2
649.8	185.0
650.0	184.8
650.2	184.5
650.4	184.6
650.6	184.8
650.8	184.1
651.0	182.7
651.2	180.9
651.4	179.0
651.6	177.5
651.8	177.1
652.0	175.2
652.2	174.2
652.4	173.5
652.6	173.7
652.8	173.8
653.0	174.3
653.2	172.9
653.4	171.1
653.6	170.5
653.8	168.9
654.0	166.8
654.2	165.6
654.4	163.9
654.6	162.9
654.8	164.6
655.0	164.2
655.2	163.0
655.4	162.2
655.6	161.7
655.8	161.4
656.0	161.2
656.2	160.0
656.4	158.0
656.6	156.6
656.8	155.7
657.0	156.2
657.2	155.8
657.4	154.9
657.6	154.3
657.8	154.3
658.0	153.5
658.2	153.2
658.4	152.3
658.6	150.0
658.8	148.9
659.0	149.0
659.2	147.9
659.4	146.5
659.6	146.7
659.8	146.0
660.0	146.4
660.2	146.0
660.4	144.2
660.6	142.4
660.8	141.8
661.0	140.8
661.2	141.3
661.4	140.9
661.6	140.2
661.8	139.3
662.0	138.4
662.2	137.5
662.4	136.4
662.6	135.2
662.8	134.6
663.0	134.2
663.2	133.6
663.4	132.9
663.6	132.2
663.8	132.1
664.0	132.2
664.2	132.0
664.4	131.1
664.6	129.4
664.8	128.0
665.0	126.7
665.2	125.7
665.4	125.2
665.6	124.6
665.8	124.3
666.0	124.4
666.2	124.0
666.4	124.1
666.6	122.8
666.8	121.5
667.0	120.1
667.2	119.4
667.4	117.9
667.6	117.4
667.8	116.0
668.0	116.0
668.2	117.0
668.4	117.3
668.6	116.0
668.8	114.6
669.0	113.1
669.2	111.7
669.4	111.9
669.6	111.1
669.8	110.4
670.0	110.2
670.2	109.4
670.4	108.4
670.6	108.6
670.8	108.3
671.0	108.7
671.2	108.4
671.4	106.4
671.6	104.6
671.8	104.3
672.0	103.6
672.2	103.3
672.4	102.9
672.6	102.5
672.8	101.8
673.0	101.8
673.2	101.0
673.4	99.52
673.6	98.51
673.8	98.19
674.0	97.77
674.2	97.69
674.4	97.10
674.6	96.55
674.8	95.94
675.0	95.65
675.2	95.89
675.4	95.41
675.6	94.98
675.8	94.94
676.0	94.37
676.2	93.00
676.4	91.74
676.6	90.85
676.8	91.02
677.0	90.76
677.2	90.46
677.4	89.61
677.6	89.03
677.8	89.02
678.0	88.52
678.2	87.32
678.4	86.21
678.6	85.84
678.8	86.04
679.0	86.03
679.2	85.37
679.4	84.50
679.6	83.86
679.8	83.53
680.0	83.06
680.2	82.61
680.4	81.31
680.6	80.22
680.8	80.47
681.0	80.69
681.2	80.79
681.4	80.23
681.6	79.28
681.8	78.64
682.0	78.46
682.2	78.30
682.4	78.63
682.6	77.78
682.8	77.32
683.0	77.11
683.2	75.75
683.4	74.65
683.6	73.84
683.8	73.31
684.0	72.33
684.2	72.67
684.4	71.85
684.6	71.61
684.8	71.66
685.0	71.92
685.2	70.81
685.4	70.45
685.6	69.86
685.8	69.25
686.0	69.81
686.2	70.16
686.4	69.81
686.6	69.02
686.8	67.38
687.0	65.72
687.2	65.77
687.4	66.22
687.6	66.11
687.8	65.89
688.0	65.27
688.2	64.70
688.4	64.65
688.6	64.54
688.8	63.74
689.0	63.55
689.2	63.43
689.4	63.03
689.6	63.00
689.8	62.62
690.0	62.00
690.2	61.34
690.4	60.76
690.6	60.13
690.8	60.13
691.0	60.00
691.2	59.24
691.4	58.20
691.6	57.61
691.8	57.84
692.0	57.96
692.2	58.35
692.4	57.98
692.6	56.85
692.8	55.92
693.0	56.12
693.2	55.42
693.4	55.22
693.6	54.96
693.8	53.89
694.0	53.49
694.2	53.68
694.4	53.27
694.6	53.47
694.8	53.48
695.0	53.07
695.2	52.70
695.4	52.66
695.6	52.20
695.8	52.16
696.0	52.03
696.2	52.00
696.4	51.51
696.6	51.62
696.8	51.44
697.0	50.98
697.2	50.27
697.4	49.49
697.6	48.71
697.8	48.77
698.0	48.82
698.2	49.02
698.4	48.87
698.6	48.83
698.8	48.29
699.0	48.07
699.2	47.43
699.4	47.27
699.6	46.47
699.8	46.58
700.0	45.88
700.2	46.02
700.4	46.20
700.6	46.06
700.8	45.34
701.0	45.13
701.2	44.40
701.4	44.36
701.6	44.82
701.8	45.02
702.0	45.09
702.2	44.41
702.4	43.45
702.6	43.02
702.8	42.41
703.0	42.13
703.2	41.70
703.4	41.83
703.6	41.70
703.8	41.92
704.0	41.72
704.2	41.34
704.4	41.00
704.6	41.81
704.8	41.48
705.0	40.73
705.2	40.22
705.4	39.38
705.6	38.82
705.8	39.03
706.0	38.88
706.2	39.13
706.4	39.57
706.6	39.55
706.8	38.95
707.0	38.08
707.2	37.33
707.4	37.48
707.6	37.57
707.8	38.03
708.0	37.85
708.2	37.29
708.4	36.77
708.6	36.33
708.8	36.23
709.0	36.53
709.2	36.11
709.4	35.67
709.6	35.06
709.8	34.98
710.0	35.16
710.2	35.00
710.4	34.88
710.6	34.12
710.8	33.91
711.0	34.04
711.2	33.81
711.4	33.93
711.6	34.17
711.8	34.13
712.0	34.09
712.2	33.55
712.4	32.61
712.6	32.31
712.8	32.10
713.0	32.16
713.2	32.13
713.4	31.77
713.6	31.24
713.8	31.29
714.0	31.40
714.2	31.20
714.4	31.15
714.6	30.60
714.8	30.31
715.0	30.46
715.2	29.98
715.4	29.71
715.6	29.73
715.8	29.90
716.0	30.08
716.2	30.24
716.4	29.44
716.6	28.91
716.8	28.85
717.0	28.62
717.2	28.12
717.4	27.92
717.6	27.85
717.8	27.55
718.0	27.35
718.2	26.75
718.4	26.29
718.6	26.02
718.8	26.67
719.0	26.88
719.2	27.01
719.4	26.79
719.6	26.94
719.8	26.25
720.0	26.09
720.2	25.38
720.4	24.88
720.6	24.68
720.8	25.03
721.0	24.85
721.2	24.95
721.4	24.44
721.6	24.12
721.8	24.26
722.0	24.83
722.2	24.89
722.4	24.95
722.6	24.51
722.8	24.00
723.0	23.20
723.2	23.19
723.4	22.42
723.6	22.20
723.8	21.74
724.0	21.47
724.2	21.40
724.4	21.75
724.6	21.93
724.8	22.26
725.0	21.93
725.2	21.57
725.4	21.10
725.6	20.63
725.8	20.63
726.0	20.86
726.2	20.89
726.4	20.97
726.6	20.45
726.8	20.18
727.0	19.72
727.2	19.65
727.4	19.67
727.6	19.59
727.8	19.76
728.0	19.96
728.2	19.58
728.4	19.45
728.6	19.36
728.8	19.18
729.0	18.83
729.2	18.29
729.4	18.06
729.6	18.14
729.8	18.23
730.0	18.29
730.2	18.23
730.4	18.05
730.6	18.26
730.8	18.38
731.0	18.09
731.2	17.42
731.4	17.22
731.6	16.99
731.8	17.03
732.0	16.73
732.2	16.42
732.4	15.68
732.6	15.68
732.8	15.80
733.0	16.22
733.2	16.28
733.4	16.36
733.6	16.31
733.8	16.48
734.0	16.14
734.2	15.76
734.4	15.32
734.6	14.91
734.8	14.92
735.0	14.93
735.2	15.07
735.4	15.09
735.6	15.02
735.8	14.72
736.0	14.66
736.2	14.35
736.4	14.58
736.6	14.64
736.8	14.60
737.0	14.56
737.2	14.28
737.4	13.49
737.6	13.12
737.8	12.68
738.0	12.61
738.2	13.07
738.4	12.95
738.6	12.98
738.8	13.15
739.0	13.03
739.2	13.11
739.4	13.26
739.6	13.02
739.8	12.98
740.0	13.05
740.2	13.09
740.4	13.06
740.6	13.02
740.8	12.47
741.0	12.34
741.2	11.96
741.4	12.15
741.6	12.40
741.8	12.63
742.0	12.27
742.2	12.00
742.4	11.37
742.6	11.20
742.8	11.05
743.0	11.33
743.2	11.51
743.4	11.24
743.6	11.09
743.8	10.89
744.0	10.62
744.2	10.77
744.4	10.80
744.6	10.78
744.8	10.62
745.0	10.60
745.2	10.31
745.4	10.34
745.6	10.39
745.8	10.65
746.0	10.59
746.2	10.58
746.4	10.17
746.6	10.14
746.8	10.05
747.0	10.28
747.2	10.09
747.4	9.808
747.6	9.295
747.8	9.087
748.0	8.939
748.2	9.294
748.4	9.512
748.6	9.649
748.8	9.600
749.0	9.473
749.2	9.242
749.4	9.199
749.6	9.207
749.8	9.236
750.0	9.434
750.2	9.277
750.4	9.176
750.6	9.051
750.8	8.795
751.0	8.693
751.2	8.593
751.4	8.399
751.6	8.377
751.8	8.464
752.0	8.413
752.2	8.428
752.4	8.377
752.6	8.285
752.8	7.968
753.0	7.917
753.2	7.707
753.4	7.736
753.6	8.050
753.8	8.034
754.0	7.881
754.2	7.898
754.4	7.771
754.6	7.751
754.8	7.834
755.0	7.686
755.2	7.410
755.4	7.295
755.6	7.452
755.8	7.403
756.0	7.480
756.2	7.499
756.4	7.307
756.6	7.304
756.8	7.567
757.0	7.568
757.2	7.508
757.4	7.247
757.6	6.979
757.8	6.690
758.0	6.552
758.2	6.490
758.4	6.447
758.6	6.590
758.8	6.871
759.0	7.203
759.2	7.100
759.4	6.964
759.6	6.596
759.8	6.275
760.0	6.183
760.2	6.296
760.4	6.283
760.6	6.495
760.8	6.494
761.0	6.393
761.2	6.270
761.4	6.180
761.6	6.194
761.8	6.107
762.0	6.158
762.2	6.249
762.4	6.095
762.6	5.991
762.8	5.785
763.0	5.496
763.2	5.351
763.4	5.348
763.6	5.291
763.8	5.448
764.0	5.838
764.2	6.120
764.4	6.036
764.6	5.623
764.8	5.303
765.0	5.183
765.2	5.191
765.4	5.428
765.6	5.548
765.8	5.459
766.0	5.533
766.2	5.413
766.4	5.138
766.6	5.081
766.8	4.999
767.0	5.045
767.2	5.023
767.4	4.800
767.6	4.748
767.8	4.700
768.0	4.882
768.2	5.116
768.4	5.214
768.6	5.001
768.8	5.003
769.0	4.974
769.2	4.995
769.4	4.839
769.6	4.777
769.8	4.577
770.0	4.719
770.2	4.850
770.4	4.648
770.6	4.481
770.8	4.478
771.0	4.327
771.2	4.387
771.4	4.381
771.6	4.362
771.8	4.426
772.0	4.471
772.2	4.408
772.4	4.370
772.6	4.350
772.8	4.291
773.0	4.243
773.2	4.217
773.4	4.193
773.6	4.185
773.8	4.388
774.0	4.349
774.2	4.317
774.4	4.134
774.6	3.972
774.8	3.855
775.0	3.846
775.2	3.740
775.4	3.695
775.6	3.595
775.8	3.670
776.0	3.752
776.2	3.862
776.4	3.918
776.6	3.915
776.8	3.800
777.0	3.586
777.2	3.706
777.4	3.989
777.6	4.054
777.8	3.990
778.0	3.838
778.2	3.605
778.4	3.638
778.6	3.719
778.8	3.706
779.0	3.637
779.2	3.550
779.4	3.644
779.6	3.658
779.8	3.568
780.0	3.370
780.2	3.263
780.4	3.349
780.6	3.582
780.8	3.677
781.0	3.551
781.2	3.356
781.4	3.286
781.6	3.288
781.8	3.272
782.0	3.196
782.2	3.134
782.4	3.245
782.6	3.344
782.8	3.241
783.0	3.224
783.2	3.153
783.4	3.126
783.6	3.010
783.8	2.963
784.0	3.026
784.2	3.192
784.4	3.306
784.6	3.361
784.8	3.259
785.0	3.126
785.2	3.211
785.4	3.087
785.6	2.943
785.8	2.817
786.0	2.878
786.2	3.018
786.4	3.175
786.6	3.232
786.8	3.288
787.0	3.302
787.2	3.229
787.4	3.144
787.6	2.979
787.8	2.811
788.0	2.729
788.2	2.776
788.4	2.789
788.6	2.908
788.8	2.953
789.0	2.963
789.2	2.923
789.4	2.903
789.6	2.852
789.8	2.888
790.0	2.706
790.2	2.638
790.4	2.591
790.6	2.559
790.8	2.530
791.0	2.659
791.2	2.600
791.4	2.670
791.6	2.619
791.8	2.566
792.0	2.662
792.2	2.701
792.4	2.710
792.6	2.686
792.8	2.555
793.0	2.491
793.2	2.691
793.4	2.719
793.6	2.669
793.8	2.551
794.0	2.510
794.2	2.439
794.4	2.614
794.6	2.753
794.8	2.768
795.0	2.684
795.2	2.646
795.4	2.430
795.6	2.290
795.8	2.224
796.0	2.407
796.2	2.601
796.4	2.811
796.6	2.701
796.8	2.564
797.0	2.349
797.2	2.464
797.4	2.600
797.6	2.624
797.8	2.566
798.0	2.565
798.2	2.488
798.4	2.480
798.6	2.455
798.8	2.593
799.0	2.614
799.2	2.615
799.4	2.538
799.6	2.279
799.8	2.105
800.0	2.167

