Sample:	'20211010A(EM)
File name:	R-CDs 8.FDS
Run date:	'10:22:39, 06/09/2023
Operator:	Administrator
Comment:	'

Instrument
Model:	F-4700 FL Spectrophotometer
Serial number:	2019-001
ROM Version:	5J24010 00

Instrument parameters
Measurement type:	Wavelength scan
Scan mode:	Emission
Data mode:	Fluorescence
EX WL:	520.0 nm
EM  Start WL:	540.0 nm
EM  End WL:	800.0 nm
Scan speed:	1200 nm/min
Delay:	0.0 s
EX Slit:	10.0 nm
EM Slit:	10.0 nm
PMT Voltage:	660 V
Response:	0.002 s
Corrected spectra:	Off
Shutter control:	On

Processing performed
Savitsky-Golay smoothed
Smoothing order:	3
Number of points:	7
Number of times:	1

Peak integration
Integration method:	Rectangular
Sensitivity:	1
Threshold:	1.000

Peaks
No.	Start(nm)	Apex(nm)	End(nm)	Height(Data)	Valley(nm)	Valley(Data)
1	540.0	608.6	609.4	8761	609.4	8697
2	609.4	610.4	776.4	8770	776.4	78.82
3	776.4	777.0	784.8	80.93	784.8	61.63
4	784.8	786.2	788.2	63.82	788.2	57.03
5	788.2	789.0	790.8	59.79	790.8	54.78
6	790.8	791.8	795.4	57.66	795.4	48.02
7	795.4	797.6	798.8	51.84	798.8	47.43

Data points
nm	Data
540.0	720.2
540.2	715.1
540.4	722.1
540.6	736.3
540.8	750.9
541.0	763.7
541.2	774.1
541.4	783.4
541.6	796.6
541.8	805.3
542.0	814.0
542.2	819.3
542.4	824.2
542.6	838.1
542.8	854.0
543.0	865.9
543.2	880.2
543.4	891.3
543.6	899.5
543.8	914.3
544.0	925.6
544.2	928.1
544.4	939.4
544.6	959.9
544.8	978.4
545.0	993.2
545.2	998.6
545.4	998.1
545.6	1008
545.8	1024
546.0	1038
546.2	1047
546.4	1060
546.6	1077
546.8	1085
547.0	1094
547.2	1104
547.4	1116
547.6	1133
547.8	1155
548.0	1163
548.2	1176
548.4	1193
548.6	1204
548.8	1217
549.0	1233
549.2	1247
549.4	1262
549.6	1278
549.8	1292
550.0	1302
550.2	1311
550.4	1322
550.6	1332
550.8	1339
551.0	1367
551.2	1388
551.4	1412
551.6	1433
551.8	1456
552.0	1468
552.2	1498
552.4	1510
552.6	1520
552.8	1524
553.0	1538
553.2	1561
553.4	1586
553.6	1602
553.8	1623
554.0	1640
554.2	1658
554.4	1678
554.6	1692
554.8	1711
555.0	1733
555.2	1753
555.4	1768
555.6	1785
555.8	1802
556.0	1829
556.2	1853
556.4	1884
556.6	1909
556.8	1925
557.0	1941
557.2	1971
557.4	1994
557.6	2021
557.8	2048
558.0	2061
558.2	2082
558.4	2103
558.6	2119
558.8	2138
559.0	2162
559.2	2188
559.4	2219
559.6	2237
559.8	2249
560.0	2276
560.2	2298
560.4	2330
560.6	2366
560.8	2391
561.0	2412
561.2	2447
561.4	2465
561.6	2498
561.8	2537
562.0	2560
562.2	2583
562.4	2608
562.6	2629
562.8	2660
563.0	2698
563.2	2722
563.4	2739
563.6	2766
563.8	2789
564.0	2814
564.2	2848
564.4	2879
564.6	2905
564.8	2939
565.0	2966
565.2	2983
565.4	3010
565.6	3047
565.8	3082
566.0	3115
566.2	3149
566.4	3172
566.6	3202
566.8	3237
567.0	3269
567.2	3301
567.4	3329
567.6	3357
567.8	3380
568.0	3410
568.2	3427
568.4	3475
568.6	3516
568.8	3546
569.0	3577
569.2	3621
569.4	3639
569.6	3672
569.8	3696
570.0	3727
570.2	3764
570.4	3820
570.6	3859
570.8	3880
571.0	3897
571.2	3930
571.4	3964
571.6	4011
571.8	4046
572.0	4085
572.2	4120
572.4	4158
572.6	4189
572.8	4229
573.0	4269
573.2	4301
573.4	4333
573.6	4370
573.8	4396
574.0	4427
574.2	4473
574.4	4496
574.6	4521
574.8	4564
575.0	4604
575.2	4645
575.4	4700
575.6	4732
575.8	4759
576.0	4788
576.2	4831
576.4	4863
576.6	4895
576.8	4938
577.0	4968
577.2	4999
577.4	5051
577.6	5075
577.8	5107
578.0	5147
578.2	5176
578.4	5203
578.6	5234
578.8	5258
579.0	5284
579.2	5339
579.4	5402
579.6	5446
579.8	5482
580.0	5511
580.2	5528
580.4	5585
580.6	5626
580.8	5632
581.0	5660
581.2	5686
581.4	5723
581.6	5777
581.8	5822
582.0	5851
582.2	5909
582.4	5953
582.6	5993
582.8	6038
583.0	6074
583.2	6090
583.4	6121
583.6	6135
583.8	6148
584.0	6186
584.2	6238
584.4	6265
584.6	6298
584.8	6339
585.0	6364
585.2	6389
585.4	6431
585.6	6463
585.8	6491
586.0	6545
586.2	6570
586.4	6586
586.6	6591
586.8	6613
587.0	6647
587.2	6696
587.4	6758
587.6	6807
587.8	6839
588.0	6864
588.2	6881
588.4	6896
588.6	6940
588.8	6989
589.0	7055
589.2	7094
589.4	7108
589.6	7114
589.8	7129
590.0	7150
590.2	7211
590.4	7240
590.6	7278
590.8	7314
591.0	7341
591.2	7340
591.4	7379
591.6	7391
591.8	7434
592.0	7483
592.2	7525
592.4	7536
592.6	7557
592.8	7569
593.0	7587
593.2	7640
593.4	7679
593.6	7728
593.8	7765
594.0	7784
594.2	7775
594.4	7789
594.6	7780
594.8	7802
595.0	7840
595.2	7879
595.4	7905
595.6	7929
595.8	7931
596.0	7944
596.2	7959
596.4	7996
596.6	8036
596.8	8054
597.0	8071
597.2	8108
597.4	8133
597.6	8149
597.8	8162
598.0	8169
598.2	8180
598.4	8203
598.6	8239
598.8	8265
599.0	8289
599.2	8310
599.4	8318
599.6	8310
599.8	8335
600.0	8371
600.2	8386
600.4	8396
600.6	8390
600.8	8366
601.0	8370
601.2	8390
601.4	8418
601.6	8452
601.8	8494
602.0	8516
602.2	8521
602.4	8523
602.6	8540
602.8	8556
603.0	8581
603.2	8601
603.4	8581
603.6	8556
603.8	8554
604.0	8557
604.2	8584
604.4	8608
604.6	8601
604.8	8599
605.0	8606
605.2	8610
605.4	8644
605.6	8684
605.8	8694
606.0	8691
606.2	8693
606.4	8669
606.6	8658
606.8	8692
607.0	8704
607.2	8706
607.4	8707
607.6	8689
607.8	8694
608.0	8729
608.2	8735
608.4	8752
608.6	8761
608.8	8757
609.0	8758
609.2	8744
609.4	8697
609.6	8721
609.8	8729
610.0	8748
610.2	8754
610.4	8770
610.6	8754
610.8	8750
611.0	8721
611.2	8704
611.4	8679
611.6	8694
611.8	8697
612.0	8687
612.2	8686
612.4	8695
612.6	8679
612.8	8682
613.0	8675
613.2	8661
613.4	8649
613.6	8674
613.8	8657
614.0	8655
614.2	8625
614.4	8611
614.6	8600
614.8	8624
615.0	8609
615.2	8601
615.4	8572
615.6	8559
615.8	8542
616.0	8543
616.2	8542
616.4	8520
616.6	8487
616.8	8470
617.0	8419
617.2	8429
617.4	8446
617.6	8455
617.8	8460
618.0	8464
618.2	8412
618.4	8411
618.6	8380
618.8	8366
619.0	8356
619.2	8349
619.4	8316
619.6	8306
619.8	8276
620.0	8263
620.2	8233
620.4	8207
620.6	8187
620.8	8206
621.0	8183
621.2	8170
621.4	8130
621.6	8107
621.8	8110
622.0	8110
622.2	8102
622.4	8074
622.6	8048
622.8	8025
623.0	8018
623.2	7986
623.4	7979
623.6	7956
623.8	7946
624.0	7909
624.2	7883
624.4	7843
624.6	7824
624.8	7822
625.0	7834
625.2	7824
625.4	7811
625.6	7760
625.8	7744
626.0	7723
626.2	7713
626.4	7707
626.6	7676
626.8	7641
627.0	7613
627.2	7587
627.4	7565
627.6	7545
627.8	7517
628.0	7505
628.2	7480
628.4	7457
628.6	7431
628.8	7418
629.0	7408
629.2	7383
629.4	7369
629.6	7330
629.8	7308
630.0	7280
630.2	7251
630.4	7210
630.6	7183
630.8	7148
631.0	7136
631.2	7106
631.4	7106
631.6	7087
631.8	7055
632.0	7023
632.2	6998
632.4	6969
632.6	6958
632.8	6945
633.0	6922
633.2	6886
633.4	6846
633.6	6820
633.8	6776
634.0	6751
634.2	6756
634.4	6743
634.6	6725
634.8	6710
635.0	6673
635.2	6622
635.4	6598
635.6	6586
635.8	6551
636.0	6529
636.2	6525
636.4	6512
636.6	6493
636.8	6486
637.0	6443
637.2	6395
637.4	6370
637.6	6350
637.8	6317
638.0	6294
638.2	6292
638.4	6261
638.6	6240
638.8	6202
639.0	6166
639.2	6141
639.4	6140
639.6	6123
639.8	6099
640.0	6046
640.2	6016
640.4	5981
640.6	5934
640.8	5912
641.0	5913
641.2	5889
641.4	5891
641.6	5879
641.8	5850
642.0	5808
642.2	5784
642.4	5730
642.6	5697
642.8	5681
643.0	5668
643.2	5649
643.4	5651
643.6	5654
643.8	5629
644.0	5599
644.2	5558
644.4	5522
644.6	5489
644.8	5481
645.0	5458
645.2	5436
645.4	5411
645.6	5381
645.8	5334
646.0	5308
646.2	5288
646.4	5268
646.6	5245
646.8	5235
647.0	5215
647.2	5201
647.4	5180
647.6	5166
647.8	5140
648.0	5116
648.2	5070
648.4	5034
648.6	4993
648.8	4987
649.0	4975
649.2	4966
649.4	4931
649.6	4906
649.8	4865
650.0	4841
650.2	4811
650.4	4803
650.6	4770
650.8	4746
651.0	4730
651.2	4719
651.4	4726
651.6	4711
651.8	4676
652.0	4652
652.2	4621
652.4	4590
652.6	4576
652.8	4540
653.0	4513
653.2	4510
653.4	4489
653.6	4465
653.8	4444
654.0	4416
654.2	4386
654.4	4363
654.6	4321
654.8	4298
655.0	4288
655.2	4271
655.4	4269
655.6	4261
655.8	4241
656.0	4220
656.2	4181
656.4	4129
656.6	4101
656.8	4083
657.0	4080
657.2	4076
657.4	4052
657.6	4035
657.8	4013
658.0	3994
658.2	3975
658.4	3955
658.6	3932
658.8	3921
659.0	3905
659.2	3885
659.4	3861
659.6	3845
659.8	3829
660.0	3806
660.2	3768
660.4	3729
660.6	3686
660.8	3676
661.0	3676
661.2	3668
661.4	3651
661.6	3638
661.8	3595
662.0	3569
662.2	3544
662.4	3519
662.6	3514
662.8	3521
663.0	3512
663.2	3490
663.4	3468
663.6	3433
663.8	3412
664.0	3395
664.2	3382
664.4	3361
664.6	3354
664.8	3321
665.0	3300
665.2	3286
665.4	3266
665.6	3252
665.8	3254
666.0	3227
666.2	3224
666.4	3216
666.6	3174
666.8	3142
667.0	3118
667.2	3087
667.4	3077
667.6	3078
667.8	3061
668.0	3047
668.2	3027
668.4	3010
668.6	2984
668.8	2965
669.0	2948
669.2	2923
669.4	2904
669.6	2904
669.8	2895
670.0	2884
670.2	2874
670.4	2857
670.6	2834
670.8	2810
671.0	2790
671.2	2774
671.4	2765
671.6	2758
671.8	2748
672.0	2740
672.2	2728
672.4	2713
672.6	2698
672.8	2665
673.0	2642
673.2	2630
673.4	2610
673.6	2594
673.8	2586
674.0	2563
674.2	2549
674.4	2541
674.6	2515
674.8	2503
675.0	2492
675.2	2474
675.4	2471
675.6	2456
675.8	2434
676.0	2417
676.2	2396
676.4	2381
676.6	2376
676.8	2367
677.0	2352
677.2	2325
677.4	2314
677.6	2308
677.8	2281
678.0	2280
678.2	2268
678.4	2241
678.6	2228
678.8	2222
679.0	2203
679.2	2199
679.4	2192
679.6	2161
679.8	2143
680.0	2134
680.2	2122
680.4	2116
680.6	2114
680.8	2099
681.0	2089
681.2	2071
681.4	2034
681.6	2023
681.8	2022
682.0	2005
682.2	1998
682.4	1996
682.6	1978
682.8	1969
683.0	1961
683.2	1934
683.4	1910
683.6	1900
683.8	1894
684.0	1883
684.2	1881
684.4	1888
684.6	1877
684.8	1870
685.0	1858
685.2	1838
685.4	1815
685.6	1804
685.8	1782
686.0	1775
686.2	1767
686.4	1759
686.6	1742
686.8	1729
687.0	1716
687.2	1710
687.4	1704
687.6	1700
687.8	1694
688.0	1682
688.2	1671
688.4	1659
688.6	1644
688.8	1633
689.0	1625
689.2	1616
689.4	1603
689.6	1596
689.8	1584
690.0	1574
690.2	1552
690.4	1550
690.6	1530
690.8	1525
691.0	1532
691.2	1537
691.4	1519
691.6	1515
691.8	1494
692.0	1483
692.2	1482
692.4	1474
692.6	1460
692.8	1448
693.0	1432
693.2	1420
693.4	1419
693.6	1411
693.8	1412
694.0	1411
694.2	1398
694.4	1389
694.6	1375
694.8	1369
695.0	1363
695.2	1355
695.4	1347
695.6	1343
695.8	1328
696.0	1326
696.2	1314
696.4	1304
696.6	1298
696.8	1294
697.0	1284
697.2	1274
697.4	1260
697.6	1259
697.8	1252
698.0	1244
698.2	1228
698.4	1220
698.6	1216
698.8	1227
699.0	1230
699.2	1223
699.4	1215
699.6	1198
699.8	1186
700.0	1172
700.2	1167
700.4	1162
700.6	1166
700.8	1156
701.0	1144
701.2	1129
701.4	1123
701.6	1119
701.8	1117
702.0	1116
702.2	1105
702.4	1097
702.6	1090
702.8	1086
703.0	1086
703.2	1082
703.4	1073
703.6	1066
703.8	1065
704.0	1060
704.2	1065
704.4	1056
704.6	1044
704.8	1026
705.0	1018
705.2	1005
705.4	1011
705.6	1014
705.8	1014
706.0	999.7
706.2	985.3
706.4	972.2
706.6	968.3
706.8	972.5
707.0	986.8
707.2	985.3
707.4	969.2
707.6	952.9
707.8	935.0
708.0	928.7
708.2	932.1
708.4	936.7
708.6	923.7
708.8	911.6
709.0	897.6
709.2	890.9
709.4	887.2
709.6	897.3
709.8	888.3
710.0	883.1
710.2	876.2
710.4	869.3
710.6	864.4
710.8	865.5
711.0	856.4
711.2	847.8
711.4	845.1
711.6	840.8
711.8	832.6
712.0	827.9
712.2	817.3
712.4	812.6
712.6	811.5
712.8	811.7
713.0	803.7
713.2	798.6
713.4	787.0
713.6	779.3
713.8	778.0
714.0	772.2
714.2	767.2
714.4	767.6
714.6	762.8
714.8	754.9
715.0	756.5
715.2	747.6
715.4	746.8
715.6	749.5
715.8	740.8
716.0	728.5
716.2	715.1
716.4	700.6
716.6	692.7
716.8	697.6
717.0	695.0
717.2	692.1
717.4	685.0
717.6	679.7
717.8	676.1
718.0	678.4
718.2	677.2
718.4	671.0
718.6	660.5
718.8	652.6
719.0	646.5
719.2	644.4
719.4	647.7
719.6	647.3
719.8	644.6
720.0	634.6
720.2	624.2
720.4	617.4
720.6	616.9
720.8	607.7
721.0	603.0
721.2	594.7
721.4	591.5
721.6	594.4
721.8	597.5
722.0	593.0
722.2	580.7
722.4	569.6
722.6	564.6
722.8	570.0
723.0	567.5
723.2	562.5
723.4	549.7
723.6	539.2
723.8	538.6
724.0	544.4
724.2	545.4
724.4	539.7
724.6	536.0
724.8	528.3
725.0	519.4
725.2	516.6
725.4	520.7
725.6	518.8
725.8	511.7
726.0	503.2
726.2	493.6
726.4	492.5
726.6	496.5
726.8	498.9
727.0	493.9
727.2	490.2
727.4	492.7
727.6	494.3
727.8	493.8
728.0	488.6
728.2	477.6
728.4	464.7
728.6	458.1
728.8	456.5
729.0	455.5
729.2	449.2
729.4	450.5
729.6	447.2
729.8	446.1
730.0	443.5
730.2	437.3
730.4	426.7
730.6	423.8
730.8	419.3
731.0	415.1
731.2	413.4
731.4	407.1
731.6	406.1
731.8	407.9
732.0	406.6
732.2	404.2
732.4	403.8
732.6	395.6
732.8	392.6
733.0	392.7
733.2	391.2
733.4	389.7
733.6	389.0
733.8	384.8
734.0	377.0
734.2	377.5
734.4	377.3
734.6	375.9
734.8	370.5
735.0	360.3
735.2	352.8
735.4	352.3
735.6	355.1
735.8	359.8
736.0	354.3
736.2	345.7
736.4	338.8
736.6	335.3
736.8	336.7
737.0	342.1
737.2	341.8
737.4	339.1
737.6	334.5
737.8	330.9
738.0	323.9
738.2	319.9
738.4	317.9
738.6	314.8
738.8	313.1
739.0	308.3
739.2	302.4
739.4	299.6
739.6	303.9
739.8	308.4
740.0	305.6
740.2	302.1
740.4	297.0
740.6	294.8
740.8	293.3
741.0	296.9
741.2	294.9
741.4	293.0
741.6	287.6
741.8	284.4
742.0	279.0
742.2	278.0
742.4	278.1
742.6	274.1
742.8	272.4
743.0	269.1
743.2	269.3
743.4	267.5
743.6	264.2
743.8	263.9
744.0	264.0
744.2	262.8
744.4	263.2
744.6	260.4
744.8	257.1
745.0	254.9
745.2	249.0
745.4	244.4
745.6	240.0
745.8	237.9
746.0	238.3
746.2	235.3
746.4	232.3
746.6	233.5
746.8	232.5
747.0	232.1
747.2	230.1
747.4	227.7
747.6	226.4
747.8	229.8
748.0	228.3
748.2	225.8
748.4	219.1
748.6	215.7
748.8	209.4
749.0	208.2
749.2	209.9
749.4	210.0
749.6	210.2
749.8	214.8
750.0	209.1
750.2	208.4
750.4	209.3
750.6	203.1
750.8	198.8
751.0	199.2
751.2	196.9
751.4	199.9
751.6	202.9
751.8	198.1
752.0	193.5
752.2	193.0
752.4	191.7
752.6	192.9
752.8	190.4
753.0	186.7
753.2	183.0
753.4	179.7
753.6	177.4
753.8	175.0
754.0	171.8
754.2	172.9
754.4	174.1
754.6	175.0
754.8	177.5
755.0	174.5
755.2	172.8
755.4	173.3
755.6	171.0
755.8	169.4
756.0	168.3
756.2	164.0
756.4	161.4
756.6	161.8
756.8	159.8
757.0	159.5
757.2	159.6
757.4	162.1
757.6	160.8
757.8	161.2
758.0	159.3
758.2	154.8
758.4	151.5
758.6	151.4
758.8	149.3
759.0	148.9
759.2	150.6
759.4	148.7
759.6	149.9
759.8	145.6
760.0	145.0
760.2	145.0
760.4	145.0
760.6	143.4
760.8	143.5
761.0	139.0
761.2	136.6
761.4	136.1
761.6	135.0
761.8	135.5
762.0	136.3
762.2	137.6
762.4	137.6
762.6	135.8
762.8	134.5
763.0	131.3
763.2	129.2
763.4	127.1
763.6	124.7
763.8	123.8
764.0	125.3
764.2	123.6
764.4	122.6
764.6	120.7
764.8	116.9
765.0	117.0
765.2	119.2
765.4	118.8
765.6	118.6
765.8	119.0
766.0	117.7
766.2	116.7
766.4	117.1
766.6	117.9
766.8	117.4
767.0	115.6
767.2	113.3
767.4	109.6
767.6	107.1
767.8	107.8
768.0	107.8
768.2	107.6
768.4	107.4
768.6	105.6
768.8	105.3
769.0	105.4
769.2	104.4
769.4	105.4
769.6	104.8
769.8	104.5
770.0	104.7
770.2	103.3
770.4	101.4
770.6	99.90
770.8	98.95
771.0	98.30
771.2	98.27
771.4	98.14
771.6	97.09
771.8	96.54
772.0	95.44
772.2	94.66
772.4	94.50
772.6	93.43
772.8	92.58
773.0	93.32
773.2	93.25
773.4	92.93
773.6	91.29
773.8	89.95
774.0	87.99
774.2	87.69
774.4	89.09
774.6	88.07
774.8	86.31
775.0	85.25
775.2	83.14
775.4	83.41
775.6	83.40
775.8	83.19
776.0	81.65
776.2	79.32
776.4	78.82
776.6	79.91
776.8	80.89
777.0	80.93
777.2	80.82
777.4	80.10
777.6	80.56
777.8	80.27
778.0	79.09
778.2	75.39
778.4	73.69
778.6	72.62
778.8	73.63
779.0	75.58
779.2	75.00
779.4	72.29
779.6	72.26
779.8	72.44
780.0	72.32
780.2	73.49
780.4	72.86
780.6	70.56
780.8	70.94
781.0	72.52
781.2	71.26
781.4	70.79
781.6	72.41
781.8	72.69
782.0	70.71
782.2	69.88
782.4	67.62
782.6	67.28
782.8	69.42
783.0	68.41
783.2	66.35
783.4	65.84
783.6	64.88
783.8	66.72
784.0	66.17
784.2	63.66
784.4	62.34
784.6	62.11
784.8	61.63
785.0	63.17
785.2	62.51
785.4	63.18
785.6	63.27
785.8	62.80
786.0	62.62
786.2	63.82
786.4	62.15
786.6	62.76
786.8	60.89
787.0	59.88
787.2	60.03
787.4	59.79
787.6	57.64
787.8	58.62
788.0	57.77
788.2	57.03
788.4	58.24
788.6	58.66
788.8	59.43
789.0	59.79
789.2	58.73
789.4	57.19
789.6	56.79
789.8	57.84
790.0	57.83
790.2	56.33
790.4	54.97
790.6	54.82
790.8	54.78
791.0	56.15
791.2	56.16
791.4	57.33
791.6	57.49
791.8	57.66
792.0	56.71
792.2	54.77
792.4	53.34
792.6	53.84
792.8	52.78
793.0	53.31
793.2	53.36
793.4	53.45
793.6	52.59
793.8	51.93
794.0	51.12
794.2	51.25
794.4	52.82
794.6	52.84
794.8	50.11
795.0	48.92
795.2	48.39
795.4	48.02
795.6	48.79
795.8	49.67
796.0	49.91
796.2	50.61
796.4	51.72
796.6	50.66
796.8	50.32
797.0	51.26
797.2	51.61
797.4	51.25
797.6	51.84
797.8	50.61
798.0	51.19
798.2	49.27
798.4	47.64
798.6	47.46
798.8	47.43
799.0	47.85
799.2	49.60
799.4	49.83
799.6	50.84
799.8	50.95
800.0	49.31

