Sample:	'20211010A(EM)
File name:	R-CDs 7 700uM.FDS
Run date:	'10:18:00, 06/09/2023
Operator:	Administrator
Comment:	'

Instrument
Model:	F-4700 FL Spectrophotometer
Serial number:	2019-001
ROM Version:	5J24010 00

Instrument parameters
Measurement type:	Wavelength scan
Scan mode:	Emission
Data mode:	Fluorescence
EX WL:	520.0 nm
EM  Start WL:	540.0 nm
EM  End WL:	800.0 nm
Scan speed:	1200 nm/min
Delay:	0.0 s
EX Slit:	10.0 nm
EM Slit:	10.0 nm
PMT Voltage:	630 V
Response:	0.002 s
Corrected spectra:	Off
Shutter control:	On

Processing performed
Savitsky-Golay smoothed
Smoothing order:	3
Number of points:	7
Number of times:	1

Peak integration
Integration method:	Rectangular
Sensitivity:	1
Threshold:	1.000

Peaks
No.	Start(nm)	Apex(nm)	End(nm)	Height(Data)	Valley(nm)	Valley(Data)
1	540.0	611.8	612.8	2752	612.8	2722
2	612.8	616.8	617.2	2780	617.2	2756
3	617.2	618.0	749.0	2782	749.0	103.4
4	749.0	749.8	750.8	110.5	750.8	95.61
5	750.8	751.8	772.2	103.9	772.2	45.54
6	772.2	773.0	774.0	49.52	774.0	43.81
7	774.0	774.6	779.2	46.41	779.2	35.16
8	779.2	779.6	782.4	39.99	782.4	34.02
9	782.4	783.6	785.2	36.79	785.2	30.09
10	785.2	785.8	788.2	33.32	788.2	29.94
11	788.2	790.8	792.6	31.47	792.6	25.53
12	792.6	794.0	796.8	29.06	796.8	25.07

Data points
nm	Data
540.0	440.3
540.2	428.3
540.4	428.9
540.6	436.6
540.8	444.0
541.0	447.8
541.2	449.5
541.4	448.3
541.6	445.4
541.8	449.3
542.0	453.4
542.2	460.1
542.4	467.5
542.6	470.3
542.8	471.2
543.0	471.0
543.2	476.5
543.4	483.4
543.6	490.8
543.8	491.5
544.0	491.7
544.2	489.1
544.4	492.3
544.6	499.7
544.8	508.2
545.0	509.7
545.2	509.4
545.4	510.4
545.6	511.8
545.8	519.9
546.0	526.3
546.2	526.7
546.4	524.8
546.6	524.9
546.8	528.5
547.0	531.1
547.2	535.8
547.4	540.1
547.6	547.9
547.8	552.6
548.0	557.8
548.2	555.1
548.4	554.4
548.6	555.4
548.8	559.8
549.0	564.4
549.2	565.0
549.4	569.8
549.6	574.4
549.8	581.5
550.0	584.0
550.2	580.8
550.4	580.5
550.6	588.9
550.8	593.8
551.0	604.8
551.2	610.7
551.4	611.7
551.6	614.4
551.8	613.8
552.0	614.8
552.2	615.6
552.4	620.8
552.6	627.5
552.8	626.0
553.0	623.6
553.2	627.9
553.4	631.2
553.6	634.2
553.8	637.8
554.0	638.5
554.2	637.9
554.4	649.2
554.6	656.6
554.8	661.1
555.0	670.0
555.2	671.0
555.4	671.4
555.6	675.6
555.8	672.0
556.0	675.3
556.2	682.6
556.4	691.4
556.6	702.8
556.8	705.2
557.0	703.1
557.2	703.1
557.4	704.7
557.6	709.1
557.8	714.5
558.0	717.2
558.2	719.1
558.4	723.7
558.6	729.6
558.8	732.0
559.0	739.7
559.2	743.7
559.4	744.7
559.6	750.2
559.8	754.6
560.0	764.5
560.2	766.9
560.4	764.3
560.6	768.0
560.8	768.5
561.0	770.6
561.2	779.8
561.4	780.8
561.6	783.8
561.8	791.0
562.0	793.8
562.2	802.2
562.4	807.7
562.6	812.7
562.8	821.2
563.0	830.5
563.2	836.0
563.4	839.6
563.6	837.4
563.8	838.0
564.0	844.2
564.2	849.2
564.4	855.4
564.6	865.2
564.8	868.3
565.0	881.1
565.2	887.2
565.4	887.3
565.6	892.9
565.8	903.0
566.0	906.8
566.2	911.7
566.4	910.1
566.6	911.4
566.8	922.0
567.0	937.8
567.2	950.4
567.4	951.5
567.6	957.9
567.8	959.4
568.0	969.7
568.2	974.4
568.4	976.0
568.6	975.6
568.8	982.7
569.0	988.7
569.2	999.1
569.4	1006
569.6	1015
569.8	1019
570.0	1024
570.2	1032
570.4	1044
570.6	1054
570.8	1061
571.0	1063
571.2	1067
571.4	1076
571.6	1088
571.8	1098
572.0	1107
572.2	1111
572.4	1114
572.6	1124
572.8	1127
573.0	1142
573.2	1154
573.4	1157
573.6	1160
573.8	1165
574.0	1172
574.2	1186
574.4	1194
574.6	1198
574.8	1208
575.0	1217
575.2	1228
575.4	1238
575.6	1249
575.8	1255
576.0	1262
576.2	1264
576.4	1265
576.6	1278
576.8	1291
577.0	1305
577.2	1314
577.4	1322
577.6	1328
577.8	1340
578.0	1352
578.2	1369
578.4	1369
578.6	1373
578.8	1373
579.0	1379
579.2	1389
579.4	1404
579.6	1406
579.8	1415
580.0	1428
580.2	1434
580.4	1442
580.6	1456
580.8	1466
581.0	1480
581.2	1498
581.4	1507
581.6	1516
581.8	1524
582.0	1533
582.2	1538
582.4	1549
582.6	1569
582.8	1584
583.0	1591
583.2	1607
583.4	1610
583.6	1611
583.8	1620
584.0	1627
584.2	1629
584.4	1649
584.6	1663
584.8	1676
585.0	1689
585.2	1699
585.4	1705
585.6	1716
585.8	1722
586.0	1733
586.2	1749
586.4	1762
586.6	1781
586.8	1792
587.0	1792
587.2	1792
587.4	1799
587.6	1804
587.8	1819
588.0	1843
588.2	1857
588.4	1863
588.6	1872
588.8	1873
589.0	1880
589.2	1897
589.4	1910
589.6	1923
589.8	1940
590.0	1941
590.2	1954
590.4	1963
590.6	1974
590.8	1980
591.0	1987
591.2	1989
591.4	2007
591.6	2018
591.8	2036
592.0	2047
592.2	2054
592.4	2067
592.6	2086
592.8	2084
593.0	2090
593.2	2102
593.4	2096
593.6	2110
593.8	2124
594.0	2126
594.2	2138
594.4	2151
594.6	2148
594.8	2167
595.0	2187
595.2	2214
595.4	2227
595.6	2229
595.8	2223
596.0	2222
596.2	2235
596.4	2249
596.6	2254
596.8	2260
597.0	2255
597.2	2269
597.4	2283
597.6	2305
597.8	2322
598.0	2325
598.2	2329
598.4	2332
598.6	2338
598.8	2360
599.0	2370
599.2	2380
599.4	2387
599.6	2386
599.8	2393
600.0	2392
600.2	2411
600.4	2424
600.6	2436
600.8	2454
601.0	2458
601.2	2459
601.4	2470
601.6	2459
601.8	2464
602.0	2481
602.2	2497
602.4	2514
602.6	2519
602.8	2521
603.0	2510
603.2	2510
603.4	2521
603.6	2533
603.8	2544
604.0	2570
604.2	2572
604.4	2572
604.6	2578
604.8	2590
605.0	2583
605.2	2584
605.4	2572
605.6	2575
605.8	2581
606.0	2600
606.2	2610
606.4	2620
606.6	2622
606.8	2636
607.0	2647
607.2	2649
607.4	2654
607.6	2649
607.8	2651
608.0	2660
608.2	2668
608.4	2669
608.6	2672
608.8	2674
609.0	2679
609.2	2689
609.4	2693
609.6	2697
609.8	2700
610.0	2709
610.2	2720
610.4	2730
610.6	2731
610.8	2728
611.0	2722
611.2	2725
611.4	2738
611.6	2741
611.8	2752
612.0	2750
612.2	2739
612.4	2739
612.6	2733
612.8	2722
613.0	2736
613.2	2744
613.4	2751
613.6	2765
613.8	2774
614.0	2770
614.2	2771
614.4	2769
614.6	2761
614.8	2758
615.0	2769
615.2	2772
615.4	2774
615.6	2773
615.8	2768
616.0	2767
616.2	2773
616.4	2768
616.6	2780
616.8	2780
617.0	2768
617.2	2756
617.4	2771
617.6	2765
617.8	2781
618.0	2782
618.2	2771
618.4	2755
618.6	2767
618.8	2770
619.0	2764
619.2	2764
619.4	2760
619.6	2757
619.8	2765
620.0	2777
620.2	2760
620.4	2753
620.6	2756
620.8	2757
621.0	2756
621.2	2752
621.4	2745
621.6	2744
621.8	2758
622.0	2755
622.2	2746
622.4	2735
622.6	2726
622.8	2718
623.0	2718
623.2	2717
623.4	2713
623.6	2713
623.8	2702
624.0	2700
624.2	2706
624.4	2711
624.6	2713
624.8	2718
625.0	2708
625.2	2700
625.4	2700
625.6	2698
625.8	2699
626.0	2696
626.2	2682
626.4	2662
626.6	2649
626.8	2647
627.0	2651
627.2	2656
627.4	2655
627.6	2651
627.8	2637
628.0	2631
628.2	2632
628.4	2628
628.6	2616
628.8	2615
629.0	2606
629.2	2600
629.4	2603
629.6	2599
629.8	2591
630.0	2591
630.2	2599
630.4	2590
630.6	2585
630.8	2570
631.0	2557
631.2	2552
631.4	2555
631.6	2542
631.8	2535
632.0	2523
632.2	2520
632.4	2517
632.6	2520
632.8	2508
633.0	2497
633.2	2491
633.4	2490
633.6	2496
633.8	2503
634.0	2493
634.2	2476
634.4	2460
634.6	2451
634.8	2454
635.0	2454
635.2	2451
635.4	2436
635.6	2422
635.8	2411
636.0	2405
636.2	2400
636.4	2394
636.6	2392
636.8	2384
637.0	2381
637.2	2373
637.4	2360
637.6	2344
637.8	2344
638.0	2339
638.2	2342
638.4	2342
638.6	2327
638.8	2315
639.0	2308
639.2	2296
639.4	2285
639.6	2288
639.8	2285
640.0	2284
640.2	2278
640.4	2262
640.6	2249
640.8	2236
641.0	2232
641.2	2219
641.4	2217
641.6	2210
641.8	2209
642.0	2209
642.2	2205
642.4	2200
642.6	2189
642.8	2178
643.0	2166
643.2	2165
643.4	2150
643.6	2141
643.8	2126
644.0	2122
644.2	2122
644.4	2122
644.6	2120
644.8	2106
645.0	2091
645.2	2079
645.4	2070
645.6	2055
645.8	2052
646.0	2047
646.2	2049
646.4	2042
646.6	2036
646.8	2023
647.0	2015
647.2	2014
647.4	2013
647.6	2000
647.8	1989
648.0	1972
648.2	1955
648.4	1946
648.6	1941
648.8	1940
649.0	1935
649.2	1934
649.4	1920
649.6	1917
649.8	1910
650.0	1896
650.2	1891
650.4	1883
650.6	1871
650.8	1872
651.0	1866
651.2	1858
651.4	1849
651.6	1837
651.8	1827
652.0	1821
652.2	1817
652.4	1813
652.6	1789
652.8	1787
653.0	1777
653.2	1779
653.4	1774
653.6	1766
653.8	1755
654.0	1753
654.2	1744
654.4	1740
654.6	1730
654.8	1725
655.0	1721
655.2	1705
655.4	1688
655.6	1684
655.8	1674
656.0	1671
656.2	1657
656.4	1647
656.6	1640
656.8	1651
657.0	1640
657.2	1636
657.4	1620
657.6	1617
657.8	1613
658.0	1612
658.2	1591
658.4	1577
658.6	1565
658.8	1565
659.0	1564
659.2	1560
659.4	1552
659.6	1549
659.8	1535
660.0	1527
660.2	1522
660.4	1519
660.6	1521
660.8	1519
661.0	1500
661.2	1484
661.4	1474
661.6	1468
661.8	1467
662.0	1457
662.2	1445
662.4	1434
662.6	1428
662.8	1425
663.0	1432
663.2	1422
663.4	1413
663.6	1405
663.8	1398
664.0	1388
664.2	1373
664.4	1361
664.6	1356
664.8	1359
665.0	1362
665.2	1353
665.4	1333
665.6	1330
665.8	1323
666.0	1324
666.2	1321
666.4	1318
666.6	1307
666.8	1308
667.0	1295
667.2	1291
667.4	1278
667.6	1275
667.8	1266
668.0	1264
668.2	1252
668.4	1247
668.6	1236
668.8	1228
669.0	1222
669.2	1217
669.4	1208
669.6	1204
669.8	1204
670.0	1201
670.2	1200
670.4	1194
670.6	1183
670.8	1177
671.0	1167
671.2	1156
671.4	1150
671.6	1141
671.8	1134
672.0	1133
672.2	1127
672.4	1117
672.6	1112
672.8	1104
673.0	1095
673.2	1100
673.4	1108
673.6	1104
673.8	1100
674.0	1093
674.2	1083
674.4	1073
674.6	1062
674.8	1049
675.0	1042
675.2	1038
675.4	1038
675.6	1034
675.8	1028
676.0	1017
676.2	1012
676.4	1009
676.6	1004
676.8	1003
677.0	997.5
677.2	982.7
677.4	980.8
677.6	973.4
677.8	964.7
678.0	957.7
678.2	952.2
678.4	945.1
678.6	948.7
678.8	948.7
679.0	942.9
679.2	939.5
679.4	934.3
679.6	924.3
679.8	920.8
680.0	921.3
680.2	915.4
680.4	912.9
680.6	901.2
680.8	885.8
681.0	871.8
681.2	874.2
681.4	873.1
681.6	873.1
681.8	866.9
682.0	861.0
682.2	849.9
682.4	853.6
682.6	846.3
682.8	847.9
683.0	838.5
683.2	836.8
683.4	831.1
683.6	834.7
683.8	827.8
684.0	824.5
684.2	821.1
684.4	816.7
684.6	806.3
684.8	801.0
685.0	792.9
685.2	788.2
685.4	787.8
685.6	786.1
685.8	774.5
686.0	770.6
686.2	766.7
686.4	768.9
686.6	764.7
686.8	759.1
687.0	752.1
687.2	745.8
687.4	739.8
687.6	742.4
687.8	736.8
688.0	729.2
688.2	728.3
688.4	721.1
688.6	720.4
688.8	720.8
689.0	712.9
689.2	707.9
689.4	706.1
689.6	700.7
689.8	693.9
690.0	685.0
690.2	676.2
690.4	671.1
690.6	665.7
690.8	668.0
691.0	666.6
691.2	665.5
691.4	665.5
691.6	662.0
691.8	656.2
692.0	653.1
692.2	645.3
692.4	641.4
692.6	637.6
692.8	638.9
693.0	638.8
693.2	635.8
693.4	630.4
693.6	624.8
693.8	625.8
694.0	624.6
694.2	615.8
694.4	609.8
694.6	601.2
694.8	597.4
695.0	599.8
695.2	596.4
695.4	594.2
695.6	593.6
695.8	589.5
696.0	591.1
696.2	586.3
696.4	580.5
696.6	582.3
696.8	578.5
697.0	570.6
697.2	566.3
697.4	563.9
697.6	561.1
697.8	562.8
698.0	560.2
698.2	553.6
698.4	547.1
698.6	545.8
698.8	544.7
699.0	540.7
699.2	539.3
699.4	531.3
699.6	528.1
699.8	526.5
700.0	528.9
700.2	525.9
700.4	527.3
700.6	523.5
700.8	520.0
701.0	512.4
701.2	510.7
701.4	506.7
701.6	511.8
701.8	513.7
702.0	512.0
702.2	508.7
702.4	504.6
702.6	497.2
702.8	494.3
703.0	486.0
703.2	482.7
703.4	478.2
703.6	477.8
703.8	476.9
704.0	477.0
704.2	476.1
704.4	470.7
704.6	464.7
704.8	465.7
705.0	461.1
705.2	457.7
705.4	457.3
705.6	454.5
705.8	453.0
706.0	448.3
706.2	443.1
706.4	439.3
706.6	441.0
706.8	440.9
707.0	440.2
707.2	434.0
707.4	431.6
707.6	429.9
707.8	429.1
708.0	426.5
708.2	424.1
708.4	421.3
708.6	422.7
708.8	422.2
709.0	418.7
709.2	417.4
709.4	408.2
709.6	400.2
709.8	399.5
710.0	399.8
710.2	401.8
710.4	406.5
710.6	402.5
710.8	395.8
711.0	389.6
711.2	386.8
711.4	386.1
711.6	386.2
711.8	385.1
712.0	382.7
712.2	377.0
712.4	373.1
712.6	371.4
712.8	371.1
713.0	368.4
713.2	367.0
713.4	361.3
713.6	355.6
713.8	357.8
714.0	362.8
714.2	361.6
714.4	362.3
714.6	354.8
714.8	345.5
715.0	343.6
715.2	342.3
715.4	340.8
715.6	341.7
715.8	341.4
716.0	339.4
716.2	337.6
716.4	333.8
716.6	329.7
716.8	324.8
717.0	325.0
717.2	324.9
717.4	322.3
717.6	319.3
717.8	316.9
718.0	314.0
718.2	313.8
718.4	313.8
718.6	311.3
718.8	306.1
719.0	300.8
719.2	299.9
719.4	300.2
719.6	302.9
719.8	303.5
720.0	297.6
720.2	291.6
720.4	287.4
720.6	283.8
720.8	284.0
721.0	288.5
721.2	290.0
721.4	287.1
721.6	282.0
721.8	279.8
722.0	278.5
722.2	277.2
722.4	274.4
722.6	267.5
722.8	264.5
723.0	267.3
723.2	268.3
723.4	263.9
723.6	261.0
723.8	255.9
724.0	254.1
724.2	255.5
724.4	254.4
724.6	251.3
724.8	248.8
725.0	248.9
725.2	246.9
725.4	246.1
725.6	241.9
725.8	240.5
726.0	239.0
726.2	239.1
726.4	235.9
726.6	230.9
726.8	227.5
727.0	227.8
727.2	228.1
727.4	225.3
727.6	221.8
727.8	221.8
728.0	222.7
728.2	221.1
728.4	219.9
728.6	216.0
728.8	213.9
729.0	218.1
729.2	214.5
729.4	210.7
729.6	205.5
729.8	202.8
730.0	205.0
730.2	209.4
730.4	208.5
730.6	205.6
730.8	200.2
731.0	198.6
731.2	196.3
731.4	197.1
731.6	197.9
731.8	195.8
732.0	195.1
732.2	192.6
732.4	189.5
732.6	188.2
732.8	187.9
733.0	185.0
733.2	186.7
733.4	180.0
733.6	178.7
733.8	175.9
734.0	173.9
734.2	172.0
734.4	174.0
734.6	172.1
734.8	173.5
735.0	172.2
735.2	171.1
735.4	170.1
735.6	166.2
735.8	164.3
736.0	162.0
736.2	159.9
736.4	162.0
736.6	162.8
736.8	160.8
737.0	159.7
737.2	157.1
737.4	155.0
737.6	156.5
737.8	154.2
738.0	153.4
738.2	154.0
738.4	153.5
738.6	153.6
738.8	152.2
739.0	147.9
739.2	145.6
739.4	147.8
739.6	150.9
739.8	151.8
740.0	149.0
740.2	145.0
740.4	140.3
740.6	138.7
740.8	140.7
741.0	141.4
741.2	140.4
741.4	139.3
741.6	136.6
741.8	133.4
742.0	132.2
742.2	131.9
742.4	133.9
742.6	136.0
742.8	138.1
743.0	136.2
743.2	131.8
743.4	128.7
743.6	128.9
743.8	127.2
744.0	126.6
744.2	124.6
744.4	122.7
744.6	122.7
744.8	124.2
745.0	122.5
745.2	121.2
745.4	120.8
745.6	120.5
745.8	119.9
746.0	119.3
746.2	116.6
746.4	115.4
746.6	115.8
746.8	115.4
747.0	113.7
747.2	112.0
747.4	108.4
747.6	107.8
747.8	109.5
748.0	112.6
748.2	112.8
748.4	112.1
748.6	108.0
748.8	104.7
749.0	103.4
749.2	105.6
749.4	105.7
749.6	107.5
749.8	110.5
750.0	110.0
750.2	106.2
750.4	102.9
750.6	98.24
750.8	95.61
751.0	97.79
751.2	98.94
751.4	100.3
751.6	103.2
751.8	103.9
752.0	101.7
752.2	99.51
752.4	96.92
752.6	95.80
752.8	93.88
753.0	92.27
753.2	92.46
753.4	92.20
753.6	93.24
753.8	92.35
754.0	89.84
754.2	87.70
754.4	88.62
754.6	86.40
754.8	86.06
755.0	85.82
755.2	85.53
755.4	86.49
755.6	88.23
755.8	88.06
756.0	86.79
756.2	85.48
756.4	83.72
756.6	83.56
756.8	84.09
757.0	84.70
757.2	83.17
757.4	81.76
757.6	80.46
757.8	80.47
758.0	80.72
758.2	81.39
758.4	80.37
758.6	78.67
758.8	76.76
759.0	76.36
759.2	74.32
759.4	76.39
759.6	76.62
759.8	76.30
760.0	75.70
760.2	74.78
760.4	72.09
760.6	72.05
760.8	70.61
761.0	70.69
761.2	69.94
761.4	70.41
761.6	70.59
761.8	69.91
762.0	68.90
762.2	68.10
762.4	66.80
762.6	66.64
762.8	67.41
763.0	67.24
763.2	67.00
763.4	66.09
763.6	65.83
763.8	65.28
764.0	65.61
764.2	64.59
764.4	64.01
764.6	63.61
764.8	63.32
765.0	63.13
765.2	62.18
765.4	60.69
765.6	59.71
765.8	59.00
766.0	59.75
766.2	60.70
766.4	60.17
766.6	58.70
766.8	56.39
767.0	54.20
767.2	55.59
767.4	56.36
767.6	56.94
767.8	57.12
768.0	56.40
768.2	54.99
768.4	55.33
768.6	54.62
768.8	55.06
769.0	54.29
769.2	53.08
769.4	52.26
769.6	52.09
769.8	50.96
770.0	50.28
770.2	49.90
770.4	49.47
770.6	50.25
770.8	50.06
771.0	49.72
771.2	48.53
771.4	48.67
771.6	47.68
771.8	47.59
772.0	45.84
772.2	45.54
772.4	46.21
772.6	46.88
772.8	48.67
773.0	49.52
773.2	49.39
773.4	48.22
773.6	46.07
773.8	44.10
774.0	43.81
774.2	44.24
774.4	44.98
774.6	46.41
774.8	45.78
775.0	46.33
775.2	44.78
775.4	45.51
775.6	44.45
775.8	44.80
776.0	42.83
776.2	42.13
776.4	41.33
776.6	42.22
776.8	42.66
777.0	43.11
777.2	42.14
777.4	41.74
777.6	42.06
777.8	40.68
778.0	39.46
778.2	40.10
778.4	39.36
778.6	38.19
778.8	37.59
779.0	35.83
779.2	35.16
779.4	38.54
779.6	39.99
779.8	39.82
780.0	39.42
780.2	38.19
780.4	36.81
780.6	37.40
780.8	37.02
781.0	36.25
781.2	35.19
781.4	34.99
781.6	35.24
781.8	35.42
782.0	34.72
782.2	34.15
782.4	34.02
782.6	34.94
782.8	36.11
783.0	35.82
783.2	35.38
783.4	35.88
783.6	36.79
783.8	36.74
784.0	35.45
784.2	33.64
784.4	32.64
784.6	32.99
784.8	32.28
785.0	31.29
785.2	30.09
785.4	31.55
785.6	32.69
785.8	33.32
786.0	32.73
786.2	32.07
786.4	31.20
786.6	31.61
786.8	31.85
787.0	31.16
787.2	30.99
787.4	31.02
787.6	30.50
787.8	30.81
788.0	31.00
788.2	29.94
788.4	30.85
788.6	30.96
788.8	30.49
789.0	30.85
789.2	31.40
789.4	30.59
789.6	31.14
789.8	30.75
790.0	30.56
790.2	30.15
790.4	31.19
790.6	30.73
790.8	31.47
791.0	30.22
791.2	29.16
791.4	28.02
791.6	28.22
791.8	28.00
792.0	28.55
792.2	27.85
792.4	26.42
792.6	25.53
792.8	27.29
793.0	27.62
793.2	28.46
793.4	28.87
793.6	27.74
793.8	27.51
794.0	29.06
794.2	28.36
794.4	27.85
794.6	27.24
794.8	26.31
795.0	27.28
795.2	28.19
795.4	28.44
795.6	27.41
795.8	27.00
796.0	26.89
796.2	26.23
796.4	25.67
796.6	25.58
796.8	25.07
797.0	27.13
797.2	28.19
797.4	26.99
797.6	26.50
797.8	25.92
798.0	25.68
798.2	26.05
798.4	25.00
798.6	24.69
798.8	24.83
799.0	25.44
799.2	26.04
799.4	25.20
799.6	24.60
799.8	25.19
800.0	27.87

