Sample:	'20211010A(EM)
File name:	R-CDs 6 600uM.FDS
Run date:	'10:10:23, 06/09/2023
Operator:	Administrator
Comment:	'

Instrument
Model:	F-4700 FL Spectrophotometer
Serial number:	2019-001
ROM Version:	5J24010 00

Instrument parameters
Measurement type:	Wavelength scan
Scan mode:	Emission
Data mode:	Fluorescence
EX WL:	520.0 nm
EM  Start WL:	540.0 nm
EM  End WL:	800.0 nm
Scan speed:	1200 nm/min
Delay:	0.0 s
EX Slit:	10.0 nm
EM Slit:	10.0 nm
PMT Voltage:	640 V
Response:	0.002 s
Corrected spectra:	Off
Shutter control:	On

Processing performed
Savitsky-Golay smoothed
Smoothing order:	3
Number of points:	7
Number of times:	1

Peak integration
Integration method:	Rectangular
Sensitivity:	1
Threshold:	1.000

Peaks
No.	Start(nm)	Apex(nm)	End(nm)	Height(Data)	Valley(nm)	Valley(Data)
1	540.0	541.6	542.6	383.3	542.6	372.2
2	542.6	610.0	610.8	2140	610.8	2113
3	610.8	615.6	616.6	2203	616.6	2165
4	616.6	617.4	618.4	2192	618.4	2178
5	618.4	620.0	620.8	2222	620.8	2163
6	620.8	621.8	624.6	2182	624.6	2138
7	624.6	625.4	741.2	2170	741.2	113.0
8	741.2	742.2	746.8	117.2	746.8	95.87
9	746.8	747.2	757.2	100.2	757.2	67.90
10	757.2	757.6	769.4	69.23	769.4	42.95
11	769.4	770.4	776.6	46.12	776.6	34.67
12	776.6	777.4	780.4	36.98	780.4	31.56
13	780.4	781.8	783.2	33.73	783.2	29.65
14	783.2	784.2	785.8	32.62	785.8	26.66
15	785.8	786.4	788.6	29.09	788.6	24.69
16	788.6	789.6	792.2	27.13	792.2	22.77
17	792.2	794.4	796.2	25.97	796.2	21.60

Data points
nm	Data
540.0	347.7
540.2	356.3
540.4	357.5
540.6	356.0
540.8	359.5
541.0	366.1
541.2	375.3
541.4	380.6
541.6	383.3
541.8	381.1
542.0	378.4
542.2	375.1
542.4	374.2
542.6	372.2
542.8	379.4
543.0	385.3
543.2	390.6
543.4	401.0
543.6	401.8
543.8	395.0
544.0	396.1
544.2	396.0
544.4	401.6
544.6	410.4
544.8	415.7
545.0	411.6
545.2	412.2
545.4	413.5
545.6	418.7
545.8	421.7
546.0	427.0
546.2	427.2
546.4	430.9
546.6	433.3
546.8	434.0
547.0	434.8
547.2	436.1
547.4	435.6
547.6	438.0
547.8	442.0
548.0	445.2
548.2	448.6
548.4	450.4
548.6	449.6
548.8	449.3
549.0	451.1
549.2	452.7
549.4	456.7
549.6	460.9
549.8	463.7
550.0	468.6
550.2	472.5
550.4	471.3
550.6	480.3
550.8	484.1
551.0	484.1
551.2	481.2
551.4	484.2
551.6	484.5
551.8	492.4
552.0	496.4
552.2	496.5
552.4	496.8
552.6	499.1
552.8	501.3
553.0	502.4
553.2	504.9
553.4	504.6
553.6	510.1
553.8	515.4
554.0	521.4
554.2	517.8
554.4	517.4
554.6	518.5
554.8	520.9
555.0	530.1
555.2	536.9
555.4	533.4
555.6	533.1
555.8	538.0
556.0	541.8
556.2	547.4
556.4	547.5
556.6	545.4
556.8	544.9
557.0	552.2
557.2	557.2
557.4	565.1
557.6	564.0
557.8	564.8
558.0	564.1
558.2	569.3
558.4	572.8
558.6	579.3
558.8	579.9
559.0	580.5
559.2	580.3
559.4	583.6
559.6	587.8
559.8	590.9
560.0	594.8
560.2	599.4
560.4	603.6
560.6	608.4
560.8	614.8
561.0	616.5
561.2	618.0
561.4	619.3
561.6	619.4
561.8	624.5
562.0	633.1
562.2	640.5
562.4	647.0
562.6	649.9
562.8	649.5
563.0	648.4
563.2	646.1
563.4	647.2
563.6	654.0
563.8	660.3
564.0	666.5
564.2	671.2
564.4	675.9
564.6	681.2
564.8	684.2
565.0	685.4
565.2	686.2
565.4	691.8
565.6	698.4
565.8	707.9
566.0	707.5
566.2	713.8
566.4	719.3
566.6	729.7
566.8	739.1
567.0	752.3
567.2	755.1
567.4	757.8
567.6	756.2
567.8	753.0
568.0	751.9
568.2	761.0
568.4	769.0
568.6	781.1
568.8	789.7
569.0	790.9
569.2	787.4
569.4	788.1
569.6	791.2
569.8	798.5
570.0	803.8
570.2	812.8
570.4	816.7
570.6	821.7
570.8	825.4
571.0	828.7
571.2	837.1
571.4	846.5
571.6	848.7
571.8	856.3
572.0	857.3
572.2	870.2
572.4	878.8
572.6	883.4
572.8	885.2
573.0	889.3
573.2	894.6
573.4	908.6
573.6	912.8
573.8	921.2
574.0	926.6
574.2	927.2
574.4	932.7
574.6	940.2
574.8	941.9
575.0	955.4
575.2	961.7
575.4	965.1
575.6	970.4
575.8	974.1
576.0	974.7
576.2	987.1
576.4	994.6
576.6	1002
576.8	1009
577.0	1021
577.2	1026
577.4	1033
577.6	1049
577.8	1057
578.0	1059
578.2	1065
578.4	1063
578.6	1069
578.8	1085
579.0	1096
579.2	1097
579.4	1100
579.6	1108
579.8	1119
580.0	1128
580.2	1142
580.4	1145
580.6	1154
580.8	1159
581.0	1161
581.2	1170
581.4	1184
581.6	1191
581.8	1201
582.0	1204
582.2	1209
582.4	1216
582.6	1224
582.8	1227
583.0	1237
583.2	1241
583.4	1248
583.6	1258
583.8	1265
584.0	1270
584.2	1280
584.4	1289
584.6	1295
584.8	1307
585.0	1314
585.2	1322
585.4	1335
585.6	1353
585.8	1362
586.0	1369
586.2	1370
586.4	1373
586.6	1386
586.8	1396
587.0	1405
587.2	1405
587.4	1409
587.6	1417
587.8	1425
588.0	1433
588.2	1439
588.4	1446
588.6	1448
588.8	1458
589.0	1463
589.2	1469
589.4	1477
589.6	1492
589.8	1498
590.0	1516
590.2	1531
590.4	1535
590.6	1535
590.8	1538
591.0	1538
591.2	1554
591.4	1573
591.6	1584
591.8	1588
592.0	1590
592.2	1594
592.4	1612
592.6	1614
592.8	1617
593.0	1627
593.2	1635
593.4	1649
593.6	1668
593.8	1666
594.0	1658
594.2	1669
594.4	1674
594.6	1678
594.8	1692
595.0	1699
595.2	1696
595.4	1702
595.6	1718
595.8	1729
596.0	1745
596.2	1750
596.4	1752
596.6	1753
596.8	1762
597.0	1774
597.2	1780
597.4	1785
597.6	1785
597.8	1790
598.0	1797
598.2	1813
598.4	1822
598.6	1832
598.8	1832
599.0	1835
599.2	1840
599.4	1849
599.6	1864
599.8	1875
600.0	1879
600.2	1882
600.4	1882
600.6	1886
600.8	1895
601.0	1909
601.2	1917
601.4	1921
601.6	1927
601.8	1929
602.0	1938
602.2	1950
602.4	1954
602.6	1965
602.8	1967
603.0	1970
603.2	1977
603.4	1973
603.6	1983
603.8	2002
604.0	1996
604.2	2009
604.4	2007
604.6	2010
604.8	2019
605.0	2024
605.2	2019
605.4	2034
605.6	2042
605.8	2054
606.0	2057
606.2	2057
606.4	2044
606.6	2043
606.8	2047
607.0	2053
607.2	2076
607.4	2081
607.6	2075
607.8	2071
608.0	2074
608.2	2073
608.4	2082
608.6	2079
608.8	2082
609.0	2083
609.2	2097
609.4	2108
609.6	2120
609.8	2137
610.0	2140
610.2	2134
610.4	2124
610.6	2118
610.8	2113
611.0	2125
611.2	2136
611.4	2141
611.6	2145
611.8	2144
612.0	2146
612.2	2159
612.4	2167
612.6	2169
612.8	2168
613.0	2157
613.2	2161
613.4	2167
613.6	2170
613.8	2180
614.0	2180
614.2	2175
614.4	2175
614.6	2169
614.8	2171
615.0	2176
615.2	2180
615.4	2191
615.6	2203
615.8	2201
616.0	2194
616.2	2183
616.4	2174
616.6	2165
616.8	2172
617.0	2181
617.2	2184
617.4	2192
617.6	2185
617.8	2181
618.0	2188
618.2	2186
618.4	2178
618.6	2181
618.8	2182
619.0	2190
619.2	2194
619.4	2194
619.6	2196
619.8	2212
620.0	2222
620.2	2217
620.4	2203
620.6	2185
620.8	2163
621.0	2163
621.2	2165
621.4	2177
621.6	2186
621.8	2182
622.0	2176
622.2	2174
622.4	2169
622.6	2178
622.8	2182
623.0	2177
623.2	2177
623.4	2171
623.6	2159
623.8	2163
624.0	2163
624.2	2152
624.4	2139
624.6	2138
624.8	2141
625.0	2154
625.2	2160
625.4	2170
625.6	2159
625.8	2148
626.0	2143
626.2	2135
626.4	2125
626.6	2122
626.8	2118
627.0	2116
627.2	2121
627.4	2133
627.6	2122
627.8	2108
628.0	2106
628.2	2107
628.4	2106
628.6	2118
628.8	2105
629.0	2105
629.2	2099
629.4	2094
629.6	2088
629.8	2092
630.0	2083
630.2	2067
630.4	2052
630.6	2047
630.8	2051
631.0	2067
631.2	2065
631.4	2057
631.6	2043
631.8	2040
632.0	2045
632.2	2043
632.4	2025
632.6	2017
632.8	2001
633.0	1999
633.2	2006
633.4	2006
633.6	1998
633.8	1995
634.0	1994
634.2	1996
634.4	1997
634.6	1991
634.8	1980
635.0	1973
635.2	1971
635.4	1975
635.6	1968
635.8	1955
636.0	1936
636.2	1932
636.4	1916
636.6	1921
636.8	1912
637.0	1917
637.2	1911
637.4	1917
637.6	1908
637.8	1906
638.0	1896
638.2	1889
638.4	1887
638.6	1878
638.8	1871
639.0	1863
639.2	1854
639.4	1850
639.6	1847
639.8	1836
640.0	1835
640.2	1823
640.4	1810
640.6	1807
640.8	1791
641.0	1790
641.2	1797
641.4	1797
641.6	1801
641.8	1792
642.0	1780
642.2	1772
642.4	1765
642.6	1763
642.8	1772
643.0	1765
643.2	1761
643.4	1744
643.6	1734
643.8	1727
644.0	1734
644.2	1735
644.4	1720
644.6	1710
644.8	1704
645.0	1696
645.2	1687
645.4	1678
645.6	1660
645.8	1654
646.0	1656
646.2	1658
646.4	1656
646.6	1653
646.8	1643
647.0	1629
647.2	1620
647.4	1612
647.6	1608
647.8	1606
648.0	1605
648.2	1600
648.4	1598
648.6	1593
648.8	1590
649.0	1583
649.2	1570
649.4	1561
649.6	1565
649.8	1561
650.0	1551
650.2	1543
650.4	1528
650.6	1524
650.8	1527
651.0	1523
651.2	1509
651.4	1497
651.6	1488
651.8	1480
652.0	1471
652.2	1468
652.4	1458
652.6	1455
652.8	1459
653.0	1451
653.2	1439
653.4	1437
653.6	1427
653.8	1425
654.0	1426
654.2	1423
654.4	1413
654.6	1409
654.8	1398
655.0	1388
655.2	1383
655.4	1376
655.6	1368
655.8	1372
656.0	1370
656.2	1363
656.4	1356
656.6	1333
656.8	1319
657.0	1320
657.2	1320
657.4	1319
657.6	1319
657.8	1309
658.0	1303
658.2	1299
658.4	1291
658.6	1286
658.8	1280
659.0	1277
659.2	1276
659.4	1271
659.6	1262
659.8	1257
660.0	1249
660.2	1242
660.4	1233
660.6	1221
660.8	1219
661.0	1216
661.2	1221
661.4	1218
661.6	1206
661.8	1192
662.0	1186
662.2	1185
662.4	1189
662.6	1188
662.8	1181
663.0	1170
663.2	1164
663.4	1152
663.6	1143
663.8	1141
664.0	1138
664.2	1134
664.4	1133
664.6	1123
664.8	1122
665.0	1123
665.2	1124
665.4	1113
665.6	1102
665.8	1090
666.0	1087
666.2	1083
666.4	1080
666.6	1068
666.8	1059
667.0	1059
667.2	1061
667.4	1059
667.6	1048
667.8	1038
668.0	1033
668.2	1033
668.4	1026
668.6	1017
668.8	1003
669.0	991.0
669.2	988.4
669.4	991.8
669.6	995.1
669.8	993.2
670.0	988.5
670.2	984.8
670.4	980.0
670.6	981.7
670.8	971.8
671.0	959.3
671.2	949.1
671.4	942.0
671.6	938.8
671.8	934.8
672.0	922.9
672.2	919.4
672.4	920.7
672.6	917.8
672.8	914.9
673.0	903.7
673.2	896.1
673.4	888.6
673.6	892.5
673.8	895.6
674.0	891.2
674.2	881.5
674.4	875.8
674.6	858.9
674.8	856.6
675.0	860.0
675.2	854.6
675.4	848.5
675.6	844.3
675.8	833.3
676.0	830.7
676.2	835.0
676.4	836.0
676.6	832.5
676.8	825.9
677.0	815.6
677.2	801.8
677.4	799.6
677.6	803.2
677.8	802.2
678.0	797.0
678.2	797.4
678.4	787.2
678.6	782.4
678.8	781.3
679.0	773.1
679.2	766.0
679.4	770.3
679.6	773.4
679.8	769.9
680.0	763.0
680.2	742.4
680.4	729.7
680.6	723.9
680.8	730.6
681.0	731.3
681.2	733.2
681.4	724.6
681.6	718.5
681.8	711.8
682.0	708.2
682.2	700.3
682.4	699.1
682.6	693.0
682.8	692.7
683.0	692.6
683.2	691.7
683.4	684.1
683.6	680.4
683.8	676.3
684.0	674.8
684.2	669.7
684.4	670.9
684.6	666.7
684.8	665.3
685.0	659.6
685.2	650.6
685.4	647.0
685.6	645.7
685.8	635.6
686.0	631.1
686.2	626.0
686.4	621.7
686.6	626.4
686.8	623.0
687.0	610.9
687.2	606.9
687.4	606.6
687.6	607.0
687.8	607.2
688.0	605.6
688.2	600.4
688.4	598.2
688.6	599.0
688.8	593.4
689.0	581.6
689.2	576.0
689.4	569.9
689.6	568.5
689.8	574.1
690.0	570.2
690.2	565.3
690.4	562.7
690.6	559.4
690.8	553.7
691.0	548.8
691.2	541.0
691.4	535.7
691.6	532.5
691.8	538.2
692.0	540.6
692.2	542.2
692.4	540.7
692.6	534.5
692.8	523.1
693.0	519.6
693.2	516.3
693.4	518.1
693.6	516.3
693.8	513.4
694.0	506.7
694.2	503.7
694.4	502.5
694.6	501.4
694.8	496.4
695.0	491.2
695.2	486.3
695.4	487.4
695.6	489.2
695.8	487.4
696.0	486.6
696.2	479.3
696.4	480.0
696.6	480.3
696.8	475.6
697.0	474.9
697.2	474.6
697.4	468.2
697.6	466.2
697.8	462.1
698.0	458.1
698.2	459.3
698.4	459.3
698.6	454.3
698.8	448.2
699.0	446.2
699.2	443.7
699.4	443.4
699.6	443.2
699.8	440.7
700.0	441.4
700.2	440.7
700.4	438.2
700.6	432.9
700.8	428.3
701.0	428.6
701.2	425.3
701.4	422.5
701.6	420.6
701.8	415.6
702.0	414.8
702.2	416.4
702.4	412.5
702.6	407.2
702.8	402.9
703.0	401.5
703.2	403.4
703.4	404.1
703.6	407.4
703.8	405.1
704.0	399.2
704.2	395.3
704.4	388.8
704.6	381.6
704.8	381.1
705.0	381.7
705.2	380.5
705.4	380.6
705.6	376.9
705.8	372.2
706.0	372.4
706.2	372.1
706.4	370.9
706.6	367.7
706.8	366.3
707.0	364.7
707.2	362.1
707.4	356.8
707.6	353.4
707.8	352.5
708.0	355.9
708.2	355.3
708.4	351.9
708.6	348.3
708.8	344.5
709.0	343.2
709.2	345.0
709.4	344.5
709.6	343.7
709.8	342.5
710.0	339.4
710.2	336.9
710.4	333.9
710.6	329.5
710.8	326.6
711.0	325.0
711.2	325.5
711.4	324.4
711.6	321.6
711.8	316.3
712.0	314.6
712.2	311.4
712.4	309.4
712.6	307.3
712.8	310.9
713.0	311.6
713.2	314.9
713.4	312.2
713.6	306.2
713.8	299.6
714.0	301.3
714.2	299.6
714.4	296.0
714.6	291.4
714.8	286.6
715.0	284.0
715.2	286.4
715.4	286.3
715.6	284.8
715.8	283.4
716.0	279.6
716.2	280.7
716.4	282.4
716.6	280.9
716.8	280.0
717.0	276.1
717.2	267.2
717.4	267.4
717.6	267.5
717.8	267.0
718.0	265.6
718.2	263.3
718.4	257.5
718.6	259.4
718.8	257.3
719.0	257.6
719.2	259.3
719.4	260.9
719.6	254.4
719.8	249.0
720.0	239.2
720.2	234.4
720.4	235.6
720.6	234.5
720.8	232.3
721.0	230.6
721.2	229.6
721.4	230.6
721.6	230.7
721.8	227.3
722.0	227.5
722.2	229.8
722.4	229.6
722.6	229.6
722.8	223.2
723.0	218.2
723.2	216.9
723.4	215.8
723.6	214.5
723.8	217.9
724.0	215.0
724.2	214.5
724.4	213.4
724.6	208.3
724.8	205.1
725.0	204.2
725.2	201.8
725.4	201.2
725.6	199.7
725.8	197.2
726.0	193.3
726.2	192.6
726.4	189.8
726.6	189.5
726.8	188.5
727.0	188.7
727.2	187.8
727.4	191.3
727.6	190.0
727.8	188.4
728.0	185.7
728.2	183.9
728.4	179.9
728.6	177.8
728.8	177.6
729.0	174.5
729.2	177.4
729.4	175.7
729.6	175.5
729.8	173.5
730.0	174.4
730.2	172.5
730.4	172.2
730.6	165.9
730.8	166.1
731.0	164.3
731.2	164.5
731.4	167.0
731.6	167.3
731.8	163.8
732.0	161.5
732.2	159.1
732.4	155.7
732.6	156.8
732.8	156.1
733.0	155.1
733.2	153.6
733.4	153.3
733.6	152.1
733.8	153.2
734.0	151.4
734.2	149.1
734.4	147.7
734.6	144.6
734.8	144.5
735.0	144.9
735.2	144.7
735.4	142.0
735.6	142.7
735.8	141.5
736.0	140.2
736.2	140.8
736.4	139.2
736.6	135.9
736.8	135.2
737.0	135.0
737.2	134.6
737.4	135.5
737.6	134.3
737.8	131.8
738.0	128.1
738.2	126.4
738.4	127.9
738.6	127.5
738.8	129.7
739.0	128.3
739.2	125.9
739.4	125.5
739.6	124.9
739.8	122.9
740.0	121.7
740.2	120.3
740.4	120.9
740.6	120.7
740.8	116.7
741.0	115.3
741.2	113.0
741.4	113.4
741.6	115.3
741.8	116.3
742.0	116.6
742.2	117.2
742.4	115.7
742.6	115.1
742.8	112.1
743.0	110.9
743.2	110.7
743.4	108.8
743.6	108.8
743.8	112.4
744.0	111.8
744.2	111.9
744.4	110.1
744.6	105.7
744.8	103.7
745.0	103.0
745.2	101.4
745.4	101.6
745.6	100.7
745.8	100.6
746.0	100.7
746.2	98.68
746.4	98.20
746.6	96.95
746.8	95.87
747.0	98.59
747.2	100.2
747.4	98.90
747.6	98.77
747.8	97.41
748.0	95.21
748.2	95.45
748.4	95.89
748.6	93.83
748.8	92.10
749.0	92.38
749.2	88.63
749.4	88.32
749.6	87.81
749.8	87.23
750.0	86.90
750.2	86.80
750.4	84.17
750.6	84.73
750.8	85.57
751.0	86.42
751.2	87.06
751.4	86.61
751.6	82.97
751.8	79.26
752.0	78.96
752.2	79.46
752.4	79.74
752.6	79.69
752.8	77.78
753.0	75.21
753.2	74.94
753.4	75.76
753.6	77.34
753.8	78.04
754.0	77.49
754.2	76.59
754.4	74.45
754.6	72.09
754.8	72.24
755.0	73.08
755.2	72.66
755.4	74.33
755.6	74.60
755.8	73.52
756.0	71.57
756.2	70.62
756.4	69.11
756.6	69.22
756.8	68.09
757.0	68.14
757.2	67.90
757.4	69.07
757.6	69.23
757.8	68.69
758.0	68.24
758.2	69.14
758.4	68.60
758.6	68.49
758.8	67.21
759.0	65.20
759.2	64.32
759.4	64.67
759.6	63.30
759.8	62.82
760.0	61.12
760.2	60.34
760.4	59.99
760.6	61.27
760.8	61.54
761.0	61.14
761.2	60.02
761.4	58.88
761.6	58.21
761.8	58.78
762.0	58.36
762.2	57.58
762.4	56.70
762.6	55.47
762.8	55.49
763.0	55.34
763.2	54.51
763.4	53.61
763.6	52.79
763.8	52.66
764.0	53.32
764.2	51.79
764.4	51.36
764.6	51.59
764.8	52.02
765.0	51.85
765.2	51.13
765.4	49.64
765.6	48.88
765.8	50.10
766.0	50.05
766.2	50.37
766.4	50.18
766.6	50.08
766.8	48.51
767.0	49.31
767.2	48.42
767.4	47.85
767.6	47.09
767.8	46.60
768.0	47.56
768.2	48.79
768.4	48.99
768.6	47.80
768.8	45.49
769.0	43.83
769.2	43.81
769.4	42.95
769.6	43.44
769.8	44.34
770.0	44.47
770.2	46.10
770.4	46.12
770.6	45.50
770.8	44.01
771.0	43.70
771.2	41.90
771.4	42.09
771.6	43.22
771.8	42.87
772.0	40.67
772.2	40.08
772.4	39.32
772.6	39.69
772.8	42.23
773.0	42.19
773.2	41.36
773.4	40.56
773.6	38.64
773.8	37.63
774.0	37.60
774.2	38.17
774.4	38.99
774.6	39.38
774.8	36.60
775.0	35.71
775.2	35.31
775.4	36.05
775.6	36.56
775.8	36.63
776.0	35.03
776.2	35.21
776.4	34.73
776.6	34.67
776.8	34.72
777.0	35.36
777.2	36.44
777.4	36.98
777.6	35.58
777.8	35.21
778.0	34.10
778.2	33.35
778.4	33.15
778.6	33.51
778.8	33.84
779.0	34.46
779.2	34.07
779.4	33.11
779.6	32.36
779.8	33.00
780.0	32.68
780.2	32.43
780.4	31.56
780.6	32.06
780.8	32.61
781.0	32.93
781.2	32.76
781.4	33.04
781.6	33.02
781.8	33.73
782.0	33.32
782.2	32.50
782.4	31.56
782.6	30.78
782.8	31.26
783.0	30.77
783.2	29.65
783.4	30.20
783.6	30.21
783.8	31.27
784.0	32.29
784.2	32.62
784.4	30.52
784.6	29.25
784.8	27.63
785.0	27.13
785.2	26.95
785.4	27.71
785.6	26.72
785.8	26.66
786.0	27.80
786.2	28.00
786.4	29.09
786.6	28.13
786.8	26.85
787.0	26.62
787.2	27.51
787.4	27.54
787.6	28.68
787.8	27.22
788.0	26.52
788.2	25.31
788.4	25.07
788.6	24.69
788.8	25.44
789.0	25.75
789.2	26.45
789.4	26.62
789.6	27.13
789.8	26.10
790.0	26.58
790.2	25.94
790.4	25.78
790.6	25.50
790.8	25.34
791.0	24.17
791.2	25.31
791.4	25.56
791.6	25.94
791.8	24.56
792.0	23.43
792.2	22.77
792.4	23.24
792.6	24.29
792.8	25.18
793.0	24.04
793.2	23.82
793.4	23.65
793.6	24.17
793.8	25.01
794.0	25.50
794.2	25.71
794.4	25.97
794.6	25.00
794.8	25.41
795.0	23.65
795.2	22.88
795.4	23.87
795.6	23.55
795.8	23.61
796.0	22.90
796.2	21.60
796.4	21.75
796.6	22.55
796.8	22.36
797.0	22.57
797.2	22.10
797.4	23.49
797.6	23.72
797.8	23.01
798.0	22.16
798.2	21.54
798.4	21.54
798.6	21.63
798.8	21.39
799.0	20.98
799.2	20.71
799.4	20.99
799.6	21.06
799.8	21.65
800.0	23.16

