Sample:	'20211010A(EM)
File name:	R-CDs 10 1000.FDS
Run date:	'10:30:34, 06/09/2023
Operator:	Administrator
Comment:	'

Instrument
Model:	F-4700 FL Spectrophotometer
Serial number:	2019-001
ROM Version:	5J24010 00

Instrument parameters
Measurement type:	Wavelength scan
Scan mode:	Emission
Data mode:	Fluorescence
EX WL:	520.0 nm
EM  Start WL:	540.0 nm
EM  End WL:	800.0 nm
Scan speed:	1200 nm/min
Delay:	0.0 s
EX Slit:	10.0 nm
EM Slit:	10.0 nm
PMT Voltage:	660 V
Response:	0.002 s
Corrected spectra:	Off
Shutter control:	On

Processing performed
Savitsky-Golay smoothed
Smoothing order:	3
Number of points:	7
Number of times:	1

Peak integration
Integration method:	Rectangular
Sensitivity:	1
Threshold:	1.000

Peaks
No.	Start(nm)	Apex(nm)	End(nm)	Height(Data)	Valley(nm)	Valley(Data)
1	540.0	612.2	612.8	2014	612.8	1991
2	612.8	615.4	616.6	2039	616.6	2018
3	616.6	617.6	618.4	2032	618.4	2011
4	618.4	619.2	620.2	2020	620.2	2007
5	620.2	621.0	621.8	2040	621.8	2008
6	621.8	622.2	738.8	2030	738.8	113.5
7	738.8	739.6	742.2	120.3	742.2	103.0
8	742.2	742.8	744.2	109.1	744.2	96.45
9	744.2	745.0	746.8	100.8	746.8	87.13
10	746.8	747.4	750.2	91.97	750.2	76.24
11	750.2	751.4	752.0	80.56	752.0	71.98
12	752.0	753.4	763.0	78.33	763.0	51.00
13	763.0	763.8	765.8	56.62	765.8	46.93
14	765.8	766.6	772.4	48.70	772.4	37.41
15	772.4	773.4	777.8	41.32	777.8	32.18
16	777.8	778.4	787.0	34.78	787.0	24.07
17	787.0	787.8	789.4	27.16	789.4	23.87
18	789.4	790.8	792.2	25.48	792.2	22.82
19	792.2	793.6	800.0	26.20	800.0	20.46

Data points
nm	Data
540.0	228.0
540.2	223.8
540.4	230.7
540.6	242.1
540.8	246.7
541.0	246.3
541.2	244.5
541.4	243.2
541.6	240.2
541.8	244.8
542.0	248.0
542.2	251.2
542.4	252.4
542.6	251.6
542.8	248.7
543.0	248.7
543.2	252.1
543.4	257.4
543.6	261.5
543.8	265.4
544.0	268.6
544.2	269.2
544.4	271.1
544.6	274.7
544.8	270.4
545.0	267.8
545.2	271.5
545.4	277.0
545.6	285.2
545.8	290.5
546.0	287.3
546.2	284.6
546.4	283.5
546.6	283.4
546.8	287.4
547.0	288.6
547.2	291.2
547.4	294.9
547.6	295.3
547.8	300.4
548.0	308.4
548.2	312.3
548.4	311.9
548.6	313.4
548.8	309.7
549.0	312.6
549.2	314.0
549.4	317.4
549.6	319.2
549.8	322.9
550.0	324.4
550.2	326.7
550.4	327.8
550.6	330.5
550.8	334.0
551.0	334.6
551.2	338.2
551.4	337.9
551.6	341.7
551.8	344.4
552.0	352.1
552.2	352.2
552.4	353.4
552.6	351.6
552.8	356.0
553.0	359.3
553.2	366.4
553.4	368.4
553.6	372.4
553.8	371.6
554.0	373.7
554.2	372.6
554.4	375.3
554.6	382.0
554.8	385.8
555.0	388.2
555.2	386.8
555.4	383.1
555.6	387.8
555.8	394.2
556.0	397.3
556.2	405.1
556.4	409.0
556.6	404.8
556.8	408.8
557.0	409.6
557.2	411.2
557.4	416.8
557.6	424.7
557.8	418.3
558.0	421.2
558.2	424.3
558.4	424.5
558.6	424.6
558.8	430.5
559.0	430.3
559.2	437.6
559.4	444.2
559.6	450.6
559.8	448.0
560.0	450.1
560.2	455.1
560.4	462.7
560.6	465.4
560.8	469.7
561.0	468.2
561.2	470.2
561.4	476.6
561.6	483.7
561.8	487.9
562.0	486.4
562.2	490.8
562.4	491.1
562.6	495.1
562.8	501.0
563.0	505.1
563.2	506.8
563.4	510.1
563.6	511.3
563.8	518.0
564.0	526.2
564.2	534.4
564.4	543.6
564.6	541.7
564.8	545.0
565.0	546.6
565.2	554.1
565.4	561.7
565.6	568.9
565.8	573.3
566.0	577.4
566.2	577.9
566.4	582.5
566.6	581.1
566.8	582.4
567.0	591.7
567.2	596.4
567.4	598.9
567.6	602.4
567.8	598.2
568.0	603.2
568.2	615.9
568.4	627.0
568.6	635.2
568.8	643.6
569.0	641.2
569.2	643.3
569.4	648.2
569.6	648.3
569.8	654.0
570.0	658.3
570.2	663.5
570.4	665.9
570.6	673.5
570.8	674.9
571.0	681.0
571.2	678.3
571.4	688.6
571.6	697.0
571.8	710.4
572.0	721.1
572.2	729.0
572.4	721.1
572.6	730.5
572.8	736.8
573.0	749.2
573.2	758.9
573.4	775.6
573.6	777.1
573.8	778.9
574.0	779.9
574.2	781.4
574.4	783.2
574.6	798.4
574.8	804.1
575.0	807.1
575.2	816.2
575.4	822.5
575.6	826.7
575.8	830.5
576.0	829.4
576.2	834.4
576.4	846.6
576.6	859.5
576.8	868.1
577.0	873.1
577.2	877.2
577.4	880.9
577.6	886.8
577.8	892.9
578.0	908.6
578.2	916.7
578.4	923.0
578.6	926.8
578.8	932.2
579.0	942.4
579.2	958.5
579.4	969.6
579.6	976.7
579.8	977.7
580.0	981.0
580.2	977.6
580.4	982.5
580.6	997.8
580.8	1010
581.0	1020
581.2	1032
581.4	1032
581.6	1040
581.8	1046
582.0	1052
582.2	1065
582.4	1071
582.6	1076
582.8	1082
583.0	1082
583.2	1088
583.4	1098
583.6	1107
583.8	1119
584.0	1131
584.2	1142
584.4	1153
584.6	1159
584.8	1164
585.0	1167
585.2	1172
585.4	1179
585.6	1196
585.8	1203
586.0	1209
586.2	1215
586.4	1220
586.6	1229
586.8	1244
587.0	1254
587.2	1255
587.4	1257
587.6	1253
587.8	1255
588.0	1265
588.2	1277
588.4	1279
588.6	1297
588.8	1313
589.0	1327
589.2	1334
589.4	1335
589.6	1329
589.8	1338
590.0	1353
590.2	1370
590.4	1380
590.6	1385
590.8	1385
591.0	1383
591.2	1396
591.4	1417
591.6	1432
591.8	1439
592.0	1444
592.2	1442
592.4	1452
592.6	1463
592.8	1467
593.0	1468
593.2	1477
593.4	1478
593.6	1489
593.8	1501
594.0	1503
594.2	1506
594.4	1522
594.6	1522
594.8	1542
595.0	1554
595.2	1558
595.4	1562
595.6	1566
595.8	1570
596.0	1584
596.2	1595
596.4	1603
596.6	1604
596.8	1607
597.0	1625
597.2	1632
597.4	1635
597.6	1637
597.8	1637
598.0	1640
598.2	1658
598.4	1660
598.6	1663
598.8	1674
599.0	1682
599.2	1684
599.4	1694
599.6	1698
599.8	1711
600.0	1727
600.2	1740
600.4	1736
600.6	1732
600.8	1743
601.0	1744
601.2	1747
601.4	1755
601.6	1752
601.8	1759
602.0	1777
602.2	1778
602.4	1784
602.6	1792
602.8	1807
603.0	1827
603.2	1837
603.4	1831
603.6	1834
603.8	1832
604.0	1827
604.2	1837
604.4	1840
604.6	1846
604.8	1856
605.0	1855
605.2	1850
605.4	1859
605.6	1867
605.8	1888
606.0	1883
606.2	1876
606.4	1878
606.6	1887
606.8	1901
607.0	1913
607.2	1920
607.4	1920
607.6	1924
607.8	1932
608.0	1942
608.2	1936
608.4	1949
608.6	1947
608.8	1951
609.0	1949
609.2	1947
609.4	1943
609.6	1959
609.8	1964
610.0	1974
610.2	1968
610.4	1970
610.6	1969
610.8	1977
611.0	1981
611.2	1988
611.4	1987
611.6	1999
611.8	2008
612.0	2013
612.2	2014
612.4	2009
612.6	1998
612.8	1991
613.0	1998
613.2	2002
613.4	2001
613.6	2006
613.8	2005
614.0	1999
614.2	2009
614.4	2013
614.6	2012
614.8	2016
615.0	2024
615.2	2030
615.4	2039
615.6	2033
615.8	2035
616.0	2023
616.2	2023
616.4	2028
616.6	2018
616.8	2023
617.0	2026
617.2	2025
617.4	2028
617.6	2032
617.8	2020
618.0	2024
618.2	2014
618.4	2011
618.6	2014
618.8	2013
619.0	2014
619.2	2020
619.4	2020
619.6	2017
619.8	2016
620.0	2014
620.2	2007
620.4	2010
620.6	2014
620.8	2024
621.0	2040
621.2	2034
621.4	2027
621.6	2014
621.8	2008
622.0	2013
622.2	2030
622.4	2026
622.6	2029
622.8	2021
623.0	2016
623.2	2010
623.4	2004
623.6	1995
623.8	2001
624.0	1992
624.2	1997
624.4	1996
624.6	1998
624.8	1995
625.0	2002
625.2	1991
625.4	1985
625.6	1978
625.8	1974
626.0	1982
626.2	1979
626.4	1975
626.6	1966
626.8	1957
627.0	1950
627.2	1955
627.4	1949
627.6	1945
627.8	1949
628.0	1952
628.2	1949
628.4	1944
628.6	1938
628.8	1935
629.0	1934
629.2	1936
629.4	1930
629.6	1928
629.8	1918
630.0	1922
630.2	1911
630.4	1916
630.6	1919
630.8	1913
631.0	1894
631.2	1893
631.4	1886
631.6	1885
631.8	1883
632.0	1888
632.2	1878
632.4	1868
632.6	1866
632.8	1859
633.0	1846
633.2	1854
633.4	1846
633.6	1838
633.8	1833
634.0	1828
634.2	1817
634.4	1818
634.6	1813
634.8	1817
635.0	1817
635.2	1814
635.4	1813
635.6	1806
635.8	1791
636.0	1779
636.2	1788
636.4	1792
636.6	1800
636.8	1803
637.0	1781
637.2	1759
637.4	1756
637.6	1744
637.8	1743
638.0	1750
638.2	1739
638.4	1731
638.6	1734
638.8	1732
639.0	1721
639.2	1706
639.4	1688
639.6	1679
639.8	1685
640.0	1683
640.2	1686
640.4	1673
640.6	1667
640.8	1653
641.0	1654
641.2	1648
641.4	1660
641.6	1651
641.8	1642
642.0	1631
642.2	1624
642.4	1609
642.6	1606
642.8	1594
643.0	1580
643.2	1587
643.4	1584
643.6	1585
643.8	1589
644.0	1585
644.2	1578
644.4	1581
644.6	1573
644.8	1569
645.0	1556
645.2	1544
645.4	1540
645.6	1542
645.8	1539
646.0	1533
646.2	1522
646.4	1514
646.6	1509
646.8	1509
647.0	1512
647.2	1505
647.4	1493
647.6	1487
647.8	1475
648.0	1465
648.2	1459
648.4	1452
648.6	1443
648.8	1447
649.0	1444
649.2	1433
649.4	1425
649.6	1427
649.8	1418
650.0	1418
650.2	1418
650.4	1409
650.6	1403
650.8	1401
651.0	1389
651.2	1391
651.4	1389
651.6	1377
651.8	1370
652.0	1352
652.2	1336
652.4	1337
652.6	1343
652.8	1343
653.0	1345
653.2	1339
653.4	1321
653.6	1312
653.8	1312
654.0	1306
654.2	1308
654.4	1306
654.6	1295
654.8	1288
655.0	1283
655.2	1282
655.4	1276
655.6	1271
655.8	1264
656.0	1254
656.2	1246
656.4	1242
656.6	1240
656.8	1243
657.0	1241
657.2	1239
657.4	1233
657.6	1214
657.8	1202
658.0	1194
658.2	1188
658.4	1191
658.6	1198
658.8	1191
659.0	1186
659.2	1183
659.4	1170
659.6	1164
659.8	1162
660.0	1153
660.2	1143
660.4	1137
660.6	1123
660.8	1119
661.0	1110
661.2	1109
661.4	1115
661.6	1117
661.8	1113
662.0	1108
662.2	1098
662.4	1097
662.6	1098
662.8	1092
663.0	1074
663.2	1060
663.4	1050
663.6	1044
663.8	1042
664.0	1040
664.2	1035
664.4	1034
664.6	1035
664.8	1035
665.0	1027
665.2	1016
665.4	1014
665.6	1015
665.8	1010
666.0	1006
666.2	994.0
666.4	985.8
666.6	980.1
666.8	980.6
667.0	973.4
667.2	970.4
667.4	967.4
667.6	965.1
667.8	960.3
668.0	958.1
668.2	956.1
668.4	952.4
668.6	943.8
668.8	927.6
669.0	911.5
669.2	906.8
669.4	914.5
669.6	920.4
669.8	919.9
670.0	909.8
670.2	898.2
670.4	896.1
670.6	891.5
670.8	876.1
671.0	866.8
671.2	863.0
671.4	865.8
671.6	871.4
671.8	868.3
672.0	862.3
672.2	857.1
672.4	853.0
672.6	854.1
672.8	853.5
673.0	845.8
673.2	838.0
673.4	823.0
673.6	810.4
673.8	809.5
674.0	812.5
674.2	809.9
674.4	805.3
674.6	797.6
674.8	792.4
675.0	791.8
675.2	794.5
675.4	788.1
675.6	779.9
675.8	771.1
676.0	761.4
676.2	756.3
676.4	760.4
676.6	754.8
676.8	751.6
677.0	748.9
677.2	746.0
677.4	744.6
677.6	748.7
677.8	737.6
678.0	735.5
678.2	729.2
678.4	725.8
678.6	727.3
678.8	726.3
679.0	712.8
679.2	703.2
679.4	697.3
679.6	693.8
679.8	696.2
680.0	698.2
680.2	699.8
680.4	695.2
680.6	687.1
680.8	675.4
681.0	667.1
681.2	661.2
681.4	670.8
681.6	676.8
681.8	667.7
682.0	662.2
682.2	650.4
682.4	638.7
682.6	638.0
682.8	635.2
683.0	630.7
683.2	632.1
683.4	635.3
683.6	639.9
683.8	637.5
684.0	629.6
684.2	618.7
684.4	609.5
684.6	610.5
684.8	607.9
685.0	604.7
685.2	597.0
685.4	593.3
685.6	593.4
685.8	596.8
686.0	593.7
686.2	592.4
686.4	584.3
686.6	579.3
686.8	575.0
687.0	575.6
687.2	568.7
687.4	561.8
687.6	558.4
687.8	554.2
688.0	546.3
688.2	551.9
688.4	545.5
688.6	541.2
688.8	541.3
689.0	540.0
689.2	536.7
689.4	538.3
689.6	536.7
689.8	533.5
690.0	525.9
690.2	518.7
690.4	513.4
690.6	507.6
690.8	507.9
691.0	508.2
691.2	506.9
691.4	511.3
691.6	508.9
691.8	504.5
692.0	497.0
692.2	493.9
692.4	490.2
692.6	490.3
692.8	484.3
693.0	482.6
693.2	479.5
693.4	477.5
693.6	476.4
693.8	475.5
694.0	468.8
694.2	468.2
694.4	464.4
694.6	458.9
694.8	458.0
695.0	457.9
695.2	452.4
695.4	448.2
695.6	447.7
695.8	445.9
696.0	445.9
696.2	441.9
696.4	438.3
696.6	435.8
696.8	440.0
697.0	441.2
697.2	436.2
697.4	425.9
697.6	425.6
697.8	428.2
698.0	430.5
698.2	430.8
698.4	424.2
698.6	417.6
698.8	417.0
699.0	416.6
699.2	413.9
699.4	412.4
699.6	409.9
699.8	406.5
700.0	402.2
700.2	398.1
700.4	399.9
700.6	401.5
700.8	404.3
701.0	402.8
701.2	398.5
701.4	393.4
701.6	393.3
701.8	389.1
702.0	390.7
702.2	387.0
702.4	385.0
702.6	381.4
702.8	374.5
703.0	367.4
703.2	366.9
703.4	367.8
703.6	370.1
703.8	369.7
704.0	365.6
704.2	363.1
704.4	358.6
704.6	357.4
704.8	354.6
705.0	351.9
705.2	350.1
705.4	347.9
705.6	344.1
705.8	342.0
706.0	338.6
706.2	339.2
706.4	342.0
706.6	342.6
706.8	341.9
707.0	338.9
707.2	333.9
707.4	332.0
707.6	331.7
707.8	327.1
708.0	324.7
708.2	324.4
708.4	324.7
708.6	324.5
708.8	320.5
709.0	314.3
709.2	311.3
709.4	310.6
709.6	307.3
709.8	308.4
710.0	308.9
710.2	310.3
710.4	311.6
710.6	311.8
710.8	306.4
711.0	301.7
711.2	297.9
711.4	295.8
711.6	294.8
711.8	295.7
712.0	297.3
712.2	296.4
712.4	296.5
712.6	295.0
712.8	292.3
713.0	292.6
713.2	293.7
713.4	288.7
713.6	283.9
713.8	271.0
714.0	267.6
714.2	273.4
714.4	277.0
714.6	272.9
714.8	271.5
715.0	262.7
715.2	259.0
715.4	260.8
715.6	256.5
715.8	253.0
716.0	255.8
716.2	257.2
716.4	257.6
716.6	257.4
716.8	255.2
717.0	251.4
717.2	252.0
717.4	251.8
717.6	249.4
717.8	246.1
718.0	247.0
718.2	243.2
718.4	243.1
718.6	239.7
718.8	234.7
719.0	237.1
719.2	237.8
719.4	233.5
719.6	232.4
719.8	225.6
720.0	219.4
720.2	225.7
720.4	227.0
720.6	226.0
720.8	228.0
721.0	218.1
721.2	211.1
721.4	212.8
721.6	211.6
721.8	213.2
722.0	215.9
722.2	212.5
722.4	213.4
722.6	212.1
722.8	206.3
723.0	201.6
723.2	196.9
723.4	198.7
723.6	200.2
723.8	203.0
724.0	200.7
724.2	195.4
724.4	188.6
724.6	185.2
724.8	183.7
725.0	188.5
725.2	187.4
725.4	186.4
725.6	185.0
725.8	183.5
726.0	186.6
726.2	185.5
726.4	184.1
726.6	179.4
726.8	175.1
727.0	172.8
727.2	174.8
727.4	172.2
727.6	172.8
727.8	170.6
728.0	171.1
728.2	166.8
728.4	167.6
728.6	166.0
728.8	165.6
729.0	166.3
729.2	166.4
729.4	165.3
729.6	165.7
729.8	164.3
730.0	163.4
730.2	161.4
730.4	158.5
730.6	157.5
730.8	155.4
731.0	153.7
731.2	153.1
731.4	151.1
731.6	149.0
731.8	149.6
732.0	149.2
732.2	147.0
732.4	146.8
732.6	144.1
732.8	142.8
733.0	145.3
733.2	143.5
733.4	139.2
733.6	137.1
733.8	134.9
734.0	137.9
734.2	140.9
734.4	142.1
734.6	140.8
734.8	139.2
735.0	134.2
735.2	132.1
735.4	130.0
735.6	132.8
735.8	133.1
736.0	135.6
736.2	132.6
736.4	129.6
736.6	128.7
736.8	130.9
737.0	129.9
737.2	130.2
737.4	128.0
737.6	124.5
737.8	124.3
738.0	121.8
738.2	119.6
738.4	117.6
738.6	115.3
738.8	113.5
739.0	115.6
739.2	115.7
739.4	119.0
739.6	120.3
739.8	117.3
740.0	114.5
740.2	112.2
740.4	109.7
740.6	112.8
740.8	112.6
741.0	111.4
741.2	110.9
741.4	108.1
741.6	106.0
741.8	105.5
742.0	103.4
742.2	103.0
742.4	105.8
742.6	108.0
742.8	109.1
743.0	107.6
743.2	104.4
743.4	101.3
743.6	99.19
743.8	100.0
744.0	98.69
744.2	96.45
744.4	97.89
744.6	97.70
744.8	98.09
745.0	100.8
745.2	100.7
745.4	98.29
745.6	98.00
745.8	93.59
746.0	91.42
746.2	90.19
746.4	88.69
746.6	87.28
746.8	87.13
747.0	88.49
747.2	89.99
747.4	91.97
747.6	91.56
747.8	87.57
748.0	85.61
748.2	84.58
748.4	85.63
748.6	85.10
748.8	86.37
749.0	84.09
749.2	84.00
749.4	82.38
749.6	81.07
749.8	77.74
750.0	76.48
750.2	76.24
750.4	77.04
750.6	77.47
750.8	78.18
751.0	80.34
751.2	80.48
751.4	80.56
751.6	77.00
751.8	73.79
752.0	71.98
752.2	73.45
752.4	73.88
752.6	73.77
752.8	75.61
753.0	77.10
753.2	77.82
753.4	78.33
753.6	77.13
753.8	72.54
754.0	72.21
754.2	69.46
754.4	69.99
754.6	69.18
754.8	70.51
755.0	69.08
755.2	68.58
755.4	69.41
755.6	70.68
755.8	69.62
756.0	67.61
756.2	64.91
756.4	64.30
756.6	65.67
756.8	62.84
757.0	63.15
757.2	63.22
757.4	62.21
757.6	63.48
757.8	65.58
758.0	63.15
758.2	63.12
758.4	61.82
758.6	59.52
758.8	58.72
759.0	58.44
759.2	61.01
759.4	61.41
759.6	60.47
759.8	58.84
760.0	55.97
760.2	55.24
760.4	58.78
760.6	61.07
760.8	60.94
761.0	57.99
761.2	55.65
761.4	55.39
761.6	53.50
761.8	53.89
762.0	54.43
762.2	54.39
762.4	54.92
762.6	55.45
762.8	52.74
763.0	51.00
763.2	51.73
763.4	51.48
763.6	53.19
763.8	56.62
764.0	55.69
764.2	54.55
764.4	52.97
764.6	50.91
764.8	50.03
765.0	51.10
765.2	49.38
765.4	48.20
765.6	47.28
765.8	46.93
766.0	47.05
766.2	47.79
766.4	48.34
766.6	48.70
766.8	47.49
767.0	48.18
767.2	48.01
767.4	46.34
767.6	46.86
767.8	45.47
768.0	43.62
768.2	44.39
768.4	44.12
768.6	43.90
768.8	43.96
769.0	42.79
769.2	42.25
769.4	42.08
769.6	43.13
769.8	44.22
770.0	43.50
770.2	41.79
770.4	40.80
770.6	39.34
770.8	39.14
771.0	40.31
771.2	40.43
771.4	40.00
771.6	40.19
771.8	39.39
772.0	38.35
772.2	38.34
772.4	37.41
772.6	38.50
772.8	38.81
773.0	40.21
773.2	40.95
773.4	41.32
773.6	39.81
773.8	38.62
774.0	36.40
774.2	36.74
774.4	37.15
774.6	37.31
774.8	36.46
775.0	35.29
775.2	34.27
775.4	35.36
775.6	36.07
775.8	34.69
776.0	35.08
776.2	35.04
776.4	35.90
776.6	35.89
776.8	35.44
777.0	33.23
777.2	32.93
777.4	32.28
777.6	33.33
777.8	32.18
778.0	33.06
778.2	34.00
778.4	34.78
778.6	34.16
778.8	33.07
779.0	31.29
779.2	31.31
779.4	30.52
779.6	30.91
779.8	30.32
780.0	30.56
780.2	31.22
780.4	31.40
780.6	30.66
780.8	30.07
781.0	29.27
781.2	29.37
781.4	29.95
781.6	29.44
781.8	29.42
782.0	29.05
782.2	28.37
782.4	28.48
782.6	28.90
782.8	28.78
783.0	28.57
783.2	28.89
783.4	29.55
783.6	29.54
783.8	28.57
784.0	29.13
784.2	28.34
784.4	28.41
784.6	28.82
784.8	28.32
785.0	27.44
785.2	27.57
785.4	26.85
785.6	25.98
785.8	25.43
786.0	25.36
786.2	25.51
786.4	25.77
786.6	25.76
786.8	24.30
787.0	24.07
787.2	24.59
787.4	26.05
787.6	27.07
787.8	27.16
788.0	25.60
788.2	24.47
788.4	25.33
788.6	25.98
788.8	26.58
789.0	25.53
789.2	25.07
789.4	23.87
789.6	24.03
789.8	23.89
790.0	24.54
790.2	23.96
790.4	24.93
790.6	25.25
790.8	25.48
791.0	24.88
791.2	24.28
791.4	23.61
791.6	23.09
791.8	23.11
792.0	23.17
792.2	22.82
792.4	22.87
792.6	23.34
792.8	23.42
793.0	23.18
793.2	24.24
793.4	25.12
793.6	26.20
793.8	25.93
794.0	25.36
794.2	23.23
794.4	22.55
794.6	22.76
794.8	22.94
795.0	23.46
795.2	23.88
795.4	22.61
795.6	21.73
795.8	21.56
796.0	21.14
796.2	21.64
796.4	21.12
796.6	20.65
796.8	21.41
797.0	20.86
797.2	20.95
797.4	21.38
797.6	20.88
797.8	20.46
798.0	21.27
798.2	20.69
798.4	20.62
798.6	21.09
798.8	20.93
799.0	20.20
799.2	20.54
799.4	21.50
799.6	22.57
799.8	22.54
800.0	20.46

