Sample:	'20211010A(EM)
File name:	R-CDs 4.FDS
Run date:	'09:57:39, 06/09/2023
Operator:	Administrator
Comment:	'

Instrument
Model:	F-4700 FL Spectrophotometer
Serial number:	2019-001
ROM Version:	5J24010 00

Instrument parameters
Measurement type:	Wavelength scan
Scan mode:	Emission
Data mode:	Fluorescence
EX WL:	520.0 nm
EM  Start WL:	540.0 nm
EM  End WL:	800.0 nm
Scan speed:	1200 nm/min
Delay:	0.0 s
EX Slit:	10.0 nm
EM Slit:	10.0 nm
PMT Voltage:	630 V
Response:	0.002 s
Corrected spectra:	Off
Shutter control:	On

Processing performed
Savitsky-Golay smoothed
Smoothing order:	3
Number of points:	7
Number of times:	1

Peak integration
Integration method:	Rectangular
Sensitivity:	1
Threshold:	1.000

Peaks
No.	Start(nm)	Apex(nm)	End(nm)	Height(Data)	Valley(nm)	Valley(Data)
1	540.0	606.2	607.8	8382	607.8	8329
2	607.8	610.8	614.2	8452	614.2	8331
3	614.2	614.6	770.8	8358	770.8	94.40
4	770.8	772.2	773.8	97.12	773.8	85.19
5	773.8	775.0	780.4	87.19	780.4	68.87
6	780.4	781.6	792.0	72.30	792.0	51.00
7	792.0	792.6	795.0	52.68	795.0	48.62
8	795.0	795.6	800.0	51.87	800.0	44.98

Data points
nm	Data
540.0	743.1
540.2	736.8
540.4	746.3
540.6	764.5
540.8	783.8
541.0	792.8
541.2	800.0
541.4	812.4
541.6	822.4
541.8	835.8
542.0	847.2
542.2	848.9
542.4	862.4
542.6	878.5
542.8	890.3
543.0	903.0
543.2	913.1
543.4	917.2
543.6	934.1
543.8	951.0
544.0	955.6
544.2	964.5
544.4	970.6
544.6	980.1
544.8	999.6
545.0	1017
545.2	1022
545.4	1035
545.6	1040
545.8	1053
546.0	1072
546.2	1086
546.4	1100
546.6	1120
546.8	1132
547.0	1145
547.2	1156
547.4	1161
547.6	1164
547.8	1177
548.0	1191
548.2	1215
548.4	1235
548.6	1254
548.8	1262
549.0	1269
549.2	1276
549.4	1287
549.6	1297
549.8	1314
550.0	1326
550.2	1332
550.4	1342
550.6	1355
550.8	1376
551.0	1401
551.2	1426
551.4	1442
551.6	1460
551.8	1477
552.0	1490
552.2	1501
552.4	1511
552.6	1528
552.8	1553
553.0	1576
553.2	1594
553.4	1610
553.6	1621
553.8	1630
554.0	1651
554.2	1666
554.4	1686
554.6	1702
554.8	1721
555.0	1736
555.2	1756
555.4	1773
555.6	1791
555.8	1801
556.0	1822
556.2	1841
556.4	1852
556.6	1873
556.8	1893
557.0	1905
557.2	1923
557.4	1951
557.6	1967
557.8	1992
558.0	2012
558.2	2028
558.4	2053
558.6	2081
558.8	2111
559.0	2133
559.2	2144
559.4	2161
559.6	2184
559.8	2204
560.0	2234
560.2	2256
560.4	2268
560.6	2287
560.8	2299
561.0	2317
561.2	2339
561.4	2364
561.6	2397
561.8	2430
562.0	2455
562.2	2480
562.4	2500
562.6	2526
562.8	2555
563.0	2574
563.2	2598
563.4	2617
563.6	2651
563.8	2683
564.0	2716
564.2	2742
564.4	2768
564.6	2799
564.8	2833
565.0	2854
565.2	2883
565.4	2906
565.6	2926
565.8	2947
566.0	2955
566.2	2990
566.4	3015
566.6	3047
566.8	3067
567.0	3099
567.2	3126
567.4	3169
567.6	3201
567.8	3234
568.0	3259
568.2	3296
568.4	3318
568.6	3340
568.8	3365
569.0	3390
569.2	3425
569.4	3470
569.6	3507
569.8	3548
570.0	3578
570.2	3594
570.4	3611
570.6	3648
570.8	3672
571.0	3698
571.2	3735
571.4	3768
571.6	3804
571.8	3830
572.0	3855
572.2	3881
572.4	3917
572.6	3960
572.8	4001
573.0	4026
573.2	4057
573.4	4085
573.6	4119
573.8	4162
574.0	4204
574.2	4239
574.4	4260
574.6	4282
574.8	4319
575.0	4358
575.2	4389
575.4	4417
575.6	4439
575.8	4475
576.0	4521
576.2	4556
576.4	4586
576.6	4627
576.8	4657
577.0	4700
577.2	4736
577.4	4754
577.6	4763
577.8	4794
578.0	4822
578.2	4870
578.4	4920
578.6	4966
578.8	4997
579.0	5040
579.2	5052
579.4	5079
579.6	5118
579.8	5172
580.0	5226
580.2	5275
580.4	5284
580.6	5317
580.8	5350
581.0	5394
581.2	5444
581.4	5489
581.6	5503
581.8	5523
582.0	5533
582.2	5567
582.4	5611
582.6	5645
582.8	5678
583.0	5709
583.2	5734
583.4	5774
583.6	5805
583.8	5837
584.0	5882
584.2	5912
584.4	5954
584.6	5993
584.8	6025
585.0	6067
585.2	6094
585.4	6117
585.6	6147
585.8	6188
586.0	6210
586.2	6229
586.4	6258
586.6	6296
586.8	6328
587.0	6372
587.2	6406
587.4	6440
587.6	6470
587.8	6496
588.0	6524
588.2	6551
588.4	6578
588.6	6622
588.8	6650
589.0	6678
589.2	6702
589.4	6715
589.6	6727
589.8	6759
590.0	6802
590.2	6842
590.4	6887
590.6	6901
590.8	6914
591.0	6929
591.2	6956
591.4	7006
591.6	7065
591.8	7095
592.0	7118
592.2	7142
592.4	7153
592.6	7185
592.8	7210
593.0	7237
593.2	7277
593.4	7311
593.6	7330
593.8	7355
594.0	7378
594.2	7403
594.4	7431
594.6	7471
594.8	7478
595.0	7501
595.2	7540
595.4	7559
595.6	7569
595.8	7591
596.0	7592
596.2	7627
596.4	7662
596.6	7696
596.8	7725
597.0	7720
597.2	7749
597.4	7767
597.6	7779
597.8	7789
598.0	7816
598.2	7828
598.4	7866
598.6	7884
598.8	7909
599.0	7914
599.2	7944
599.4	7950
599.6	7960
599.8	7965
600.0	7980
600.2	8002
600.4	8029
600.6	8052
600.8	8079
601.0	8087
601.2	8100
601.4	8091
601.6	8089
601.8	8098
602.0	8117
602.2	8163
602.4	8192
602.6	8202
602.8	8219
603.0	8221
603.2	8238
603.4	8261
603.6	8262
603.8	8268
604.0	8259
604.2	8260
604.4	8268
604.6	8278
604.8	8305
605.0	8340
605.2	8343
605.4	8360
605.6	8341
605.8	8337
606.0	8360
606.2	8382
606.4	8373
606.6	8361
606.8	8331
607.0	8341
607.2	8355
607.4	8353
607.6	8342
607.8	8329
608.0	8355
608.2	8392
608.4	8399
608.6	8398
608.8	8406
609.0	8415
609.2	8433
609.4	8435
609.6	8430
609.8	8427
610.0	8429
610.2	8431
610.4	8421
610.6	8443
610.8	8452
611.0	8426
611.2	8405
611.4	8391
611.6	8382
611.8	8411
612.0	8412
612.2	8383
612.4	8372
612.6	8362
612.8	8356
613.0	8354
613.2	8349
613.4	8348
613.6	8343
613.8	8339
614.0	8332
614.2	8331
614.4	8350
614.6	8358
614.8	8346
615.0	8329
615.2	8310
615.4	8307
615.6	8307
615.8	8303
616.0	8279
616.2	8253
616.4	8236
616.6	8229
616.8	8210
617.0	8219
617.2	8231
617.4	8234
617.6	8232
617.8	8213
618.0	8199
618.2	8190
618.4	8198
618.6	8179
618.8	8174
619.0	8150
619.2	8149
619.4	8125
619.6	8119
619.8	8116
620.0	8135
620.2	8142
620.4	8122
620.6	8093
620.8	8085
621.0	8092
621.2	8105
621.4	8106
621.6	8084
621.8	8062
622.0	8051
622.2	8056
622.4	8055
622.6	8056
622.8	8069
623.0	8062
623.2	8047
623.4	8042
623.6	8025
623.8	8019
624.0	8022
624.2	8008
624.4	7987
624.6	7982
624.8	7977
625.0	7972
625.2	7971
625.4	7951
625.6	7928
625.8	7910
626.0	7895
626.2	7880
626.4	7860
626.6	7839
626.8	7814
627.0	7788
627.2	7760
627.4	7717
627.6	7669
627.8	7646
628.0	7644
628.2	7651
628.4	7650
628.6	7627
628.8	7589
629.0	7550
629.2	7525
629.4	7480
629.6	7413
629.8	7370
630.0	7335
630.2	7310
630.4	7280
630.6	7238
630.8	7184
631.0	7156
631.2	7125
631.4	7105
631.6	7066
631.8	7040
632.0	7017
632.2	6992
632.4	6961
632.6	6935
632.8	6886
633.0	6859
633.2	6836
633.4	6827
633.6	6816
633.8	6803
634.0	6764
634.2	6746
634.4	6726
634.6	6699
634.8	6671
635.0	6649
635.2	6625
635.4	6602
635.6	6575
635.8	6541
636.0	6516
636.2	6510
636.4	6496
636.6	6458
636.8	6435
637.0	6401
637.2	6366
637.4	6365
637.6	6344
637.8	6344
638.0	6334
638.2	6303
638.4	6264
638.6	6225
638.8	6190
639.0	6196
639.2	6175
639.4	6146
639.6	6122
639.8	6084
640.0	6073
640.2	6066
640.4	6049
640.6	6022
640.8	5992
641.0	5949
641.2	5924
641.4	5905
641.6	5893
641.8	5878
642.0	5843
642.2	5806
642.4	5777
642.6	5760
642.8	5756
643.0	5750
643.2	5728
643.4	5697
643.6	5660
643.8	5630
644.0	5612
644.2	5594
644.4	5563
644.6	5528
644.8	5499
645.0	5482
645.2	5469
645.4	5462
645.6	5433
645.8	5394
646.0	5364
646.2	5329
646.4	5306
646.6	5291
646.8	5255
647.0	5224
647.2	5198
647.4	5172
647.6	5171
647.8	5158
648.0	5137
648.2	5105
648.4	5065
648.6	5028
648.8	5008
649.0	4987
649.2	4962
649.4	4924
649.6	4891
649.8	4864
650.0	4848
650.2	4844
650.4	4831
650.6	4814
650.8	4782
651.0	4746
651.2	4718
651.4	4694
651.6	4677
651.8	4652
652.0	4634
652.2	4604
652.4	4586
652.6	4572
652.8	4558
653.0	4538
653.2	4514
653.4	4478
653.6	4449
653.8	4419
654.0	4410
654.2	4389
654.4	4375
654.6	4363
654.8	4338
655.0	4314
655.2	4293
655.4	4257
655.6	4236
655.8	4207
656.0	4171
656.2	4156
656.4	4140
656.6	4133
656.8	4114
657.0	4103
657.2	4074
657.4	4059
657.6	4044
657.8	4016
658.0	3990
658.2	3973
658.4	3944
658.6	3929
658.8	3918
659.0	3888
659.2	3875
659.4	3849
659.6	3825
659.8	3805
660.0	3790
660.2	3763
660.4	3754
660.6	3725
660.8	3701
661.0	3687
661.2	3670
661.4	3656
661.6	3650
661.8	3622
662.0	3589
662.2	3566
662.4	3540
662.6	3515
662.8	3504
663.0	3481
663.2	3466
663.4	3463
663.6	3458
663.8	3443
664.0	3422
664.2	3395
664.4	3364
664.6	3343
664.8	3337
665.0	3330
665.2	3324
665.4	3313
665.6	3281
665.8	3244
666.0	3225
666.2	3209
666.4	3208
666.6	3200
666.8	3184
667.0	3155
667.2	3129
667.4	3107
667.6	3087
667.8	3071
668.0	3055
668.2	3041
668.4	3024
668.6	3008
668.8	2987
669.0	2964
669.2	2937
669.4	2915
669.6	2896
669.8	2883
670.0	2875
670.2	2858
670.4	2838
670.6	2821
670.8	2813
671.0	2809
671.2	2803
671.4	2797
671.6	2771
671.8	2752
672.0	2741
672.2	2720
672.4	2702
672.6	2689
672.8	2663
673.0	2653
673.2	2651
673.4	2637
673.6	2621
673.8	2598
674.0	2568
674.2	2540
674.4	2531
674.6	2525
674.8	2518
675.0	2514
675.2	2493
675.4	2462
675.6	2438
675.8	2425
676.0	2422
676.2	2430
676.4	2423
676.6	2408
676.8	2388
677.0	2363
677.2	2349
677.4	2335
677.6	2320
677.8	2307
678.0	2293
678.2	2275
678.4	2261
678.6	2243
678.8	2224
679.0	2216
679.2	2195
679.4	2184
679.6	2166
679.8	2151
680.0	2137
680.2	2133
680.4	2122
680.6	2119
680.8	2114
681.0	2108
681.2	2095
681.4	2079
681.6	2069
681.8	2052
682.0	2041
682.2	2031
682.4	2014
682.6	1992
682.8	1975
683.0	1954
683.2	1944
683.4	1931
683.6	1923
683.8	1912
684.0	1910
684.2	1907
684.4	1902
684.6	1879
684.8	1861
685.0	1837
685.2	1826
685.4	1818
685.6	1811
685.8	1804
686.0	1789
686.2	1773
686.4	1761
686.6	1759
686.8	1747
687.0	1732
687.2	1714
687.4	1702
687.6	1692
687.8	1690
688.0	1679
688.2	1667
688.4	1659
688.6	1655
688.8	1641
689.0	1635
689.2	1626
689.4	1619
689.6	1609
689.8	1607
690.0	1591
690.2	1569
690.4	1554
690.6	1546
690.8	1540
691.0	1530
691.2	1526
691.4	1511
691.6	1500
691.8	1494
692.0	1485
692.2	1469
692.4	1470
692.6	1460
692.8	1450
693.0	1440
693.2	1430
693.4	1422
693.6	1428
693.8	1417
694.0	1409
694.2	1397
694.4	1379
694.6	1365
694.8	1366
695.0	1359
695.2	1354
695.4	1352
695.6	1343
695.8	1336
696.0	1321
696.2	1311
696.4	1301
696.6	1298
696.8	1297
697.0	1291
697.2	1276
697.4	1268
697.6	1253
697.8	1248
698.0	1252
698.2	1247
698.4	1250
698.6	1239
698.8	1221
699.0	1214
699.2	1212
699.4	1209
699.6	1212
699.8	1199
700.0	1183
700.2	1175
700.4	1162
700.6	1157
700.8	1150
701.0	1144
701.2	1140
701.4	1136
701.6	1132
701.8	1132
702.0	1121
702.2	1116
702.4	1108
702.6	1098
702.8	1095
703.0	1090
703.2	1076
703.4	1073
703.6	1068
703.8	1055
704.0	1055
704.2	1048
704.4	1037
704.6	1039
704.8	1041
705.0	1040
705.2	1037
705.4	1026
705.6	1012
705.8	1005
706.0	996.2
706.2	990.6
706.4	984.2
706.6	977.6
706.8	972.3
707.0	974.8
707.2	968.0
707.4	963.3
707.6	953.8
707.8	944.9
708.0	940.9
708.2	938.7
708.4	928.8
708.6	924.2
708.8	915.4
709.0	911.6
709.2	909.8
709.4	908.2
709.6	900.0
709.8	890.3
710.0	877.0
710.2	866.6
710.4	860.1
710.6	859.1
710.8	854.8
711.0	849.2
711.2	842.2
711.4	839.9
711.6	836.0
711.8	831.7
712.0	829.5
712.2	818.8
712.4	818.9
712.6	811.6
712.8	808.9
713.0	805.2
713.2	801.6
713.4	793.2
713.6	791.7
713.8	783.2
714.0	779.8
714.2	770.2
714.4	768.3
714.6	765.5
714.8	765.9
715.0	764.0
715.2	760.1
715.4	748.1
715.6	740.4
715.8	727.3
716.0	723.8
716.2	718.0
716.4	714.2
716.6	710.2
716.8	699.2
717.0	692.8
717.2	689.4
717.4	684.5
717.6	683.6
717.8	688.2
718.0	682.4
718.2	681.6
718.4	672.6
718.6	664.6
718.8	663.5
719.0	660.5
719.2	653.2
719.4	646.1
719.6	636.0
719.8	630.7
720.0	629.7
720.2	623.2
720.4	622.2
720.6	618.2
720.8	613.1
721.0	610.9
721.2	607.2
721.4	598.6
721.6	597.8
721.8	595.4
722.0	589.4
722.2	586.1
722.4	580.5
722.6	571.3
722.8	569.2
723.0	566.6
723.2	563.6
723.4	561.8
723.6	560.1
723.8	558.3
724.0	555.7
724.2	548.2
724.4	544.4
724.6	534.8
724.8	529.2
725.0	528.8
725.2	526.4
725.4	523.1
725.6	522.2
725.8	514.6
726.0	509.3
726.2	506.8
726.4	504.4
726.6	499.6
726.8	498.8
727.0	497.1
727.2	491.2
727.4	484.6
727.6	481.6
727.8	474.8
728.0	469.6
728.2	469.2
728.4	464.7
728.6	460.1
728.8	457.4
729.0	453.2
729.2	446.3
729.4	445.9
729.6	442.7
729.8	442.2
730.0	436.0
730.2	433.9
730.4	433.5
730.6	435.2
730.8	434.9
731.0	431.3
731.2	421.0
731.4	412.1
731.6	409.9
731.8	409.2
732.0	412.5
732.2	409.9
732.4	402.7
732.6	395.4
732.8	391.2
733.0	387.9
733.2	390.5
733.4	387.7
733.6	380.9
733.8	377.4
734.0	371.7
734.2	370.1
734.4	370.1
734.6	372.4
734.8	368.9
735.0	369.8
735.2	363.3
735.4	356.1
735.6	348.3
735.8	345.5
736.0	338.8
736.2	342.3
736.4	339.3
736.6	340.0
736.8	337.2
737.0	335.2
737.2	334.3
737.4	334.6
737.6	330.4
737.8	327.5
738.0	319.9
738.2	319.8
738.4	321.7
738.6	320.7
738.8	318.2
739.0	313.6
739.2	308.4
739.4	309.9
739.6	308.3
739.8	306.3
740.0	303.5
740.2	300.3
740.4	299.3
740.6	296.1
740.8	290.7
741.0	287.9
741.2	285.9
741.4	283.8
741.6	286.5
741.8	285.3
742.0	285.1
742.2	286.0
742.4	282.3
742.6	279.2
742.8	276.1
743.0	269.9
743.2	266.0
743.4	263.6
743.6	260.7
743.8	261.7
744.0	258.1
744.2	255.0
744.4	254.2
744.6	253.6
744.8	252.3
745.0	252.1
745.2	245.9
745.4	243.5
745.6	241.4
745.8	240.8
746.0	239.5
746.2	239.3
746.4	235.6
746.6	233.7
746.8	231.0
747.0	229.5
747.2	226.4
747.4	224.3
747.6	223.7
747.8	221.8
748.0	220.5
748.2	221.2
748.4	221.1
748.6	219.3
748.8	218.0
749.0	214.8
749.2	209.5
749.4	208.4
749.6	207.6
749.8	207.0
750.0	206.3
750.2	205.8
750.4	203.2
750.6	202.1
750.8	201.9
751.0	200.4
751.2	197.5
751.4	193.5
751.6	190.3
751.8	187.9
752.0	189.2
752.2	189.1
752.4	187.8
752.6	187.2
752.8	187.8
753.0	185.9
753.2	182.7
753.4	181.9
753.6	177.8
753.8	178.4
754.0	179.3
754.2	176.2
754.4	174.0
754.6	175.5
754.8	173.0
755.0	170.3
755.2	169.4
755.4	165.8
755.6	164.0
755.8	165.4
756.0	164.8
756.2	163.1
756.4	164.6
756.6	162.4
756.8	161.0
757.0	158.7
757.2	157.2
757.4	157.2
757.6	156.3
757.8	155.7
758.0	155.1
758.2	152.4
758.4	150.5
758.6	150.2
758.8	149.0
759.0	148.3
759.2	145.8
759.4	144.6
759.6	141.0
759.8	142.4
760.0	143.7
760.2	143.9
760.4	142.2
760.6	142.4
760.8	141.8
761.0	143.8
761.2	142.7
761.4	140.1
761.6	135.9
761.8	136.0
762.0	134.4
762.2	133.8
762.4	131.7
762.6	129.9
762.8	127.8
763.0	131.1
763.2	131.1
763.4	131.6
763.6	131.7
763.8	129.1
764.0	125.4
764.2	124.6
764.4	121.3
764.6	118.4
764.8	118.6
765.0	117.7
765.2	118.2
765.4	119.4
765.6	119.7
765.8	117.0
766.0	116.4
766.2	115.9
766.4	114.4
766.6	115.1
766.8	117.0
767.0	115.0
767.2	113.7
767.4	112.0
767.6	108.4
767.8	105.4
768.0	104.1
768.2	104.5
768.4	106.1
768.6	107.9
768.8	108.0
769.0	106.9
769.2	105.2
769.4	102.4
769.6	100.1
769.8	99.58
770.0	99.11
770.2	99.42
770.4	98.38
770.6	95.62
770.8	94.40
771.0	95.71
771.2	95.53
771.4	96.20
771.6	96.84
771.8	95.65
772.0	96.87
772.2	97.12
772.4	94.36
772.6	92.08
772.8	91.91
773.0	89.87
773.2	89.76
773.4	88.26
773.6	86.19
773.8	85.19
774.0	85.52
774.2	85.69
774.4	85.36
774.6	85.45
774.8	86.49
775.0	87.19
775.2	86.95
775.4	85.48
775.6	83.01
775.8	81.88
776.0	81.49
776.2	80.09
776.4	80.49
776.6	78.95
776.8	78.32
777.0	78.11
777.2	78.45
777.4	77.03
777.6	76.62
777.8	75.36
778.0	74.19
778.2	74.68
778.4	76.04
778.6	75.94
778.8	76.07
779.0	76.35
779.2	73.14
779.4	72.26
779.6	70.43
779.8	70.11
780.0	69.28
780.2	69.13
780.4	68.87
780.6	69.92
780.8	70.06
781.0	70.73
781.2	70.12
781.4	70.26
781.6	72.30
781.8	72.08
782.0	69.69
782.2	68.27
782.4	66.62
782.6	65.91
782.8	66.88
783.0	67.03
783.2	65.47
783.4	66.36
783.6	65.47
783.8	64.80
784.0	63.72
784.2	62.90
784.4	60.99
784.6	61.64
784.8	61.62
785.0	62.31
785.2	62.89
785.4	62.77
785.6	61.13
785.8	60.42
786.0	59.51
786.2	59.48
786.4	59.92
786.6	59.61
786.8	59.67
787.0	60.39
787.2	59.71
787.4	58.70
787.6	58.12
787.8	56.71
788.0	57.12
788.2	57.93
788.4	57.68
788.6	56.58
788.8	56.72
789.0	55.64
789.2	56.35
789.4	55.59
789.6	56.56
789.8	56.50
790.0	55.56
790.2	53.90
790.4	53.20
790.6	52.73
790.8	53.38
791.0	55.23
791.2	55.07
791.4	54.29
791.6	52.33
791.8	51.45
792.0	51.00
792.2	51.07
792.4	51.79
792.6	52.68
792.8	52.18
793.0	52.15
793.2	51.78
793.4	51.29
793.6	52.07
793.8	51.82
794.0	51.89
794.2	51.68
794.4	49.65
794.6	48.71
794.8	49.18
795.0	48.62
795.2	50.53
795.4	51.75
795.6	51.87
795.8	51.28
796.0	50.52
796.2	48.95
796.4	48.09
796.6	47.03
796.8	47.40
797.0	47.84
797.2	47.00
797.4	47.59
797.6	45.70
797.8	44.76
798.0	45.07
798.2	46.21
798.4	46.13
798.6	46.94
798.8	45.05
799.0	44.28
799.2	44.42
799.4	44.41
799.6	44.06
799.8	44.11
800.0	44.98

