Sample:	'20211010A(EM)
File name:	R-CDs 9.FDS
Run date:	'10:25:44, 06/09/2023
Operator:	Administrator
Comment:	'

Instrument
Model:	F-4700 FL Spectrophotometer
Serial number:	2019-001
ROM Version:	5J24010 00

Instrument parameters
Measurement type:	Wavelength scan
Scan mode:	Emission
Data mode:	Fluorescence
EX WL:	520.0 nm
EM  Start WL:	540.0 nm
EM  End WL:	800.0 nm
Scan speed:	1200 nm/min
Delay:	0.0 s
EX Slit:	10.0 nm
EM Slit:	10.0 nm
PMT Voltage:	660 V
Response:	0.002 s
Corrected spectra:	Off
Shutter control:	On

Processing performed
Savitsky-Golay smoothed
Smoothing order:	3
Number of points:	7
Number of times:	1

Peak integration
Integration method:	Rectangular
Sensitivity:	1
Threshold:	1.000

Peaks
No.	Start(nm)	Apex(nm)	End(nm)	Height(Data)	Valley(nm)	Valley(Data)
1	540.0	610.2	610.8	8164	610.8	8115
2	610.8	611.8	613.2	8155	613.2	8065
3	613.2	613.8	763.6	8115	763.6	114.7
4	763.6	764.4	767.2	121.5	767.2	103.9
5	767.2	767.8	772.8	111.9	772.8	82.35
6	772.8	773.8	775.4	91.17	775.4	76.90
7	775.4	776.2	781.4	81.32	781.4	63.98
8	781.4	783.0	783.8	69.49	783.8	60.19
9	783.8	785.0	792.4	64.16	792.4	48.99
10	792.4	793.0	793.8	52.57	793.8	49.54
11	793.8	795.0	800.0	52.74	800.0	46.29

Data points
nm	Data
540.0	713.7
540.2	702.8
540.4	705.2
540.6	715.6
540.8	726.4
541.0	735.3
541.2	744.2
541.4	746.2
541.6	746.9
541.8	760.6
542.0	771.1
542.2	782.3
542.4	784.0
542.6	791.5
542.8	797.7
543.0	811.3
543.2	822.6
543.4	832.8
543.6	837.0
543.8	851.3
544.0	857.3
544.2	869.2
544.4	881.2
544.6	891.5
544.8	905.7
545.0	921.9
545.2	936.7
545.4	951.3
545.6	959.9
545.8	967.1
546.0	975.1
546.2	978.8
546.4	994.6
546.6	1010
546.8	1021
547.0	1037
547.2	1057
547.4	1068
547.6	1078
547.8	1088
548.0	1092
548.2	1102
548.4	1121
548.6	1140
548.8	1153
549.0	1167
549.2	1180
549.4	1193
549.6	1203
549.8	1211
550.0	1218
550.2	1229
550.4	1246
550.6	1268
550.8	1291
551.0	1302
551.2	1312
551.4	1318
551.6	1329
551.8	1340
552.0	1355
552.2	1373
552.4	1404
552.6	1423
552.8	1445
553.0	1461
553.2	1471
553.4	1479
553.6	1493
553.8	1493
554.0	1521
554.2	1547
554.4	1574
554.6	1595
554.8	1616
555.0	1626
555.2	1649
555.4	1658
555.6	1677
555.8	1696
556.0	1721
556.2	1736
556.4	1752
556.6	1762
556.8	1783
557.0	1796
557.2	1825
557.4	1848
557.6	1871
557.8	1898
558.0	1922
558.2	1925
558.4	1950
558.6	1960
558.8	1973
559.0	2003
559.2	2029
559.4	2059
559.6	2085
559.8	2096
560.0	2108
560.2	2128
560.4	2161
560.6	2199
560.8	2222
561.0	2234
561.2	2243
561.4	2253
561.6	2290
561.8	2317
562.0	2353
562.2	2371
562.4	2388
562.6	2402
562.8	2426
563.0	2451
563.2	2489
563.4	2526
563.6	2560
563.8	2586
564.0	2610
564.2	2629
564.4	2653
564.6	2677
564.8	2694
565.0	2719
565.2	2747
565.4	2777
565.6	2815
565.8	2842
566.0	2863
566.2	2907
566.4	2921
566.6	2940
566.8	2966
567.0	2984
567.2	3010
567.4	3056
567.6	3074
567.8	3103
568.0	3136
568.2	3173
568.4	3217
568.6	3254
568.8	3277
569.0	3304
569.2	3319
569.4	3352
569.6	3382
569.8	3427
570.0	3478
570.2	3512
570.4	3527
570.6	3542
570.8	3546
571.0	3580
571.2	3628
571.4	3654
571.6	3686
571.8	3721
572.0	3738
572.2	3780
572.4	3825
572.6	3859
572.8	3899
573.0	3941
573.2	3950
573.4	3971
573.6	3995
573.8	4020
574.0	4044
574.2	4082
574.4	4110
574.6	4147
574.8	4187
575.0	4232
575.2	4266
575.4	4291
575.6	4314
575.8	4343
576.0	4378
576.2	4416
576.4	4447
576.6	4490
576.8	4526
577.0	4555
577.2	4585
577.4	4611
577.6	4635
577.8	4687
578.0	4725
578.2	4777
578.4	4806
578.6	4825
578.8	4843
579.0	4887
579.2	4915
579.4	4961
579.6	4988
579.8	5018
580.0	5056
580.2	5118
580.4	5151
580.6	5162
580.8	5188
581.0	5212
581.2	5252
581.4	5286
581.6	5325
581.8	5375
582.0	5413
582.2	5441
582.4	5457
582.6	5466
582.8	5492
583.0	5548
583.2	5582
583.4	5633
583.6	5659
583.8	5683
584.0	5704
584.2	5737
584.4	5769
584.6	5807
584.8	5843
585.0	5868
585.2	5877
585.4	5911
585.6	5954
585.8	5999
586.0	6057
586.2	6095
586.4	6112
586.6	6150
586.8	6185
587.0	6208
587.2	6244
587.4	6244
587.6	6273
587.8	6296
588.0	6322
588.2	6341
588.4	6377
588.6	6406
588.8	6443
589.0	6485
589.2	6527
589.4	6552
589.6	6579
589.8	6607
590.0	6611
590.2	6648
590.4	6696
590.6	6735
590.8	6772
591.0	6783
591.2	6788
591.4	6785
591.6	6812
591.8	6853
592.0	6885
592.2	6926
592.4	6989
592.6	7032
592.8	7070
593.0	7100
593.2	7109
593.4	7130
593.6	7151
593.8	7171
594.0	7181
594.2	7186
594.4	7211
594.6	7229
594.8	7246
595.0	7278
595.2	7311
595.4	7342
595.6	7371
595.8	7394
596.0	7407
596.2	7428
596.4	7442
596.6	7450
596.8	7468
597.0	7496
597.2	7527
597.4	7551
597.6	7564
597.8	7562
598.0	7578
598.2	7605
598.4	7639
598.6	7654
598.8	7675
599.0	7686
599.2	7713
599.4	7732
599.6	7739
599.8	7746
600.0	7748
600.2	7760
600.4	7790
600.6	7793
600.8	7804
601.0	7828
601.2	7835
601.4	7863
601.6	7898
601.8	7916
602.0	7923
602.2	7945
602.4	7945
602.6	7939
602.8	7969
603.0	7987
603.2	7974
603.4	7963
603.6	7960
603.8	7948
604.0	7995
604.2	8030
604.4	8033
604.6	8023
604.8	8031
605.0	8040
605.2	8045
605.4	8047
605.6	8040
605.8	8058
606.0	8089
606.2	8124
606.4	8120
606.6	8113
606.8	8097
607.0	8104
607.2	8101
607.4	8107
607.6	8122
607.8	8129
608.0	8136
608.2	8143
608.4	8132
608.6	8124
608.8	8139
609.0	8129
609.2	8135
609.4	8142
609.6	8141
609.8	8160
610.0	8163
610.2	8164
610.4	8161
610.6	8147
610.8	8115
611.0	8120
611.2	8117
611.4	8133
611.6	8142
611.8	8155
612.0	8145
612.2	8153
612.4	8134
612.6	8113
612.8	8083
613.0	8065
613.2	8065
613.4	8093
613.6	8099
613.8	8115
614.0	8092
614.2	8066
614.4	8060
614.6	8060
614.8	8040
615.0	8021
615.2	8004
615.4	8000
615.6	7998
615.8	8006
616.0	7991
616.2	7978
616.4	7973
616.6	7944
616.8	7949
617.0	7942
617.2	7950
617.4	7941
617.6	7910
617.8	7874
618.0	7866
618.2	7827
618.4	7827
618.6	7822
618.8	7818
619.0	7833
619.2	7827
619.4	7781
619.6	7759
619.8	7728
620.0	7724
620.2	7731
620.4	7739
620.6	7726
620.8	7726
621.0	7695
621.2	7668
621.4	7635
621.6	7632
621.8	7624
622.0	7629
622.2	7593
622.4	7555
622.6	7544
622.8	7530
623.0	7520
623.2	7516
623.4	7464
623.6	7440
623.8	7433
624.0	7404
624.2	7395
624.4	7368
624.6	7349
624.8	7343
625.0	7318
625.2	7282
625.4	7245
625.6	7210
625.8	7211
626.0	7207
626.2	7196
626.4	7173
626.6	7146
626.8	7127
627.0	7120
627.2	7090
627.4	7072
627.6	7057
627.8	7037
628.0	7012
628.2	7000
628.4	6963
628.6	6943
628.8	6937
629.0	6909
629.2	6898
629.4	6908
629.6	6882
629.8	6850
630.0	6807
630.2	6734
630.4	6709
630.6	6729
630.8	6711
631.0	6694
631.2	6666
631.4	6625
631.6	6599
631.8	6601
632.0	6561
632.2	6536
632.4	6525
632.6	6515
632.8	6499
633.0	6484
633.2	6454
633.4	6443
633.6	6431
633.8	6407
634.0	6374
634.2	6335
634.4	6289
634.6	6269
634.8	6243
635.0	6227
635.2	6219
635.4	6197
635.6	6173
635.8	6161
636.0	6125
636.2	6102
636.4	6083
636.6	6054
636.8	6053
637.0	6033
637.2	6009
637.4	5983
637.6	5959
637.8	5935
638.0	5926
638.2	5900
638.4	5885
638.6	5862
638.8	5827
639.0	5801
639.2	5766
639.4	5735
639.6	5716
639.8	5710
640.0	5688
640.2	5687
640.4	5651
640.6	5608
640.8	5588
641.0	5561
641.2	5531
641.4	5521
641.6	5493
641.8	5474
642.0	5469
642.2	5441
642.4	5392
642.6	5365
642.8	5352
643.0	5333
643.2	5313
643.4	5290
643.6	5251
643.8	5220
644.0	5196
644.2	5184
644.4	5161
644.6	5145
644.8	5129
645.0	5085
645.2	5052
645.4	5052
645.6	5029
645.8	5001
646.0	4991
646.2	4978
646.4	4956
646.6	4929
646.8	4891
647.0	4860
647.2	4847
647.4	4833
647.6	4816
647.8	4785
648.0	4760
648.2	4748
648.4	4729
648.6	4693
648.8	4675
649.0	4637
649.2	4607
649.4	4592
649.6	4580
649.8	4572
650.0	4562
650.2	4542
650.4	4521
650.6	4477
650.8	4455
651.0	4441
651.2	4411
651.4	4385
651.6	4383
651.8	4349
652.0	4335
652.2	4311
652.4	4283
652.6	4258
652.8	4260
653.0	4240
653.2	4225
653.4	4203
653.6	4192
653.8	4167
654.0	4151
654.2	4122
654.4	4112
654.6	4099
654.8	4092
655.0	4062
655.2	4038
655.4	4018
655.6	3994
655.8	3976
656.0	3944
656.2	3917
656.4	3905
656.6	3891
656.8	3879
657.0	3852
657.2	3806
657.4	3778
657.6	3762
657.8	3750
658.0	3764
658.2	3743
658.4	3718
658.6	3690
658.8	3651
659.0	3619
659.2	3614
659.4	3598
659.6	3588
659.8	3569
660.0	3542
660.2	3512
660.4	3503
660.6	3483
660.8	3480
661.0	3465
661.2	3442
661.4	3421
661.6	3394
661.8	3360
662.0	3346
662.2	3329
662.4	3330
662.6	3319
662.8	3300
663.0	3275
663.2	3255
663.4	3242
663.6	3248
663.8	3225
664.0	3201
664.2	3175
664.4	3150
664.6	3131
664.8	3127
665.0	3111
665.2	3096
665.4	3081
665.6	3065
665.8	3040
666.0	3027
666.2	3007
666.4	2996
666.6	2982
666.8	2965
667.0	2945
667.2	2923
667.4	2910
667.6	2904
667.8	2879
668.0	2844
668.2	2827
668.4	2813
668.6	2811
668.8	2808
669.0	2795
669.2	2768
669.4	2759
669.6	2734
669.8	2715
670.0	2692
670.2	2678
670.4	2663
670.6	2658
670.8	2636
671.0	2620
671.2	2606
671.4	2588
671.6	2582
671.8	2565
672.0	2555
672.2	2550
672.4	2544
672.6	2521
672.8	2505
673.0	2480
673.2	2459
673.4	2445
673.6	2434
673.8	2414
674.0	2403
674.2	2389
674.4	2383
674.6	2367
674.8	2360
675.0	2339
675.2	2313
675.4	2291
675.6	2287
675.8	2277
676.0	2275
676.2	2255
676.4	2237
676.6	2226
676.8	2213
677.0	2200
677.2	2199
677.4	2179
677.6	2168
677.8	2159
678.0	2146
678.2	2132
678.4	2124
678.6	2115
678.8	2093
679.0	2081
679.2	2068
679.4	2048
679.6	2029
679.8	2022
680.0	1998
680.2	1984
680.4	1974
680.6	1971
680.8	1969
681.0	1974
681.2	1971
681.4	1955
681.6	1933
681.8	1915
682.0	1889
682.2	1871
682.4	1861
682.6	1851
682.8	1837
683.0	1835
683.2	1830
683.4	1820
683.6	1808
683.8	1801
684.0	1789
684.2	1782
684.4	1780
684.6	1768
684.8	1746
685.0	1731
685.2	1720
685.4	1713
685.6	1722
685.8	1720
686.0	1701
686.2	1674
686.4	1652
686.6	1631
686.8	1637
687.0	1633
687.2	1617
687.4	1602
687.6	1585
687.8	1572
688.0	1577
688.2	1573
688.4	1559
688.6	1551
688.8	1536
689.0	1523
689.2	1506
689.4	1497
689.6	1481
689.8	1473
690.0	1472
690.2	1471
690.4	1467
690.6	1465
690.8	1457
691.0	1447
691.2	1440
691.4	1427
691.6	1418
691.8	1402
692.0	1395
692.2	1392
692.4	1398
692.6	1386
692.8	1373
693.0	1351
693.2	1337
693.4	1329
693.6	1331
693.8	1324
694.0	1313
694.2	1304
694.4	1298
694.6	1289
694.8	1282
695.0	1277
695.2	1259
695.4	1251
695.6	1250
695.8	1253
696.0	1251
696.2	1246
696.4	1237
696.6	1236
696.8	1225
697.0	1216
697.2	1199
697.4	1188
697.6	1182
697.8	1185
698.0	1184
698.2	1183
698.4	1176
698.6	1170
698.8	1156
699.0	1146
699.2	1144
699.4	1140
699.6	1142
699.8	1134
700.0	1119
700.2	1107
700.4	1104
700.6	1105
700.8	1110
701.0	1103
701.2	1086
701.4	1070
701.6	1061
701.8	1051
702.0	1048
702.2	1047
702.4	1039
702.6	1035
702.8	1024
703.0	1014
703.2	1011
703.4	1013
703.6	1006
703.8	1004
704.0	996.1
704.2	992.1
704.4	985.6
704.6	979.8
704.8	967.2
705.0	964.9
705.2	966.0
705.4	970.0
705.6	961.1
705.8	949.3
706.0	934.9
706.2	920.1
706.4	914.8
706.6	918.2
706.8	915.5
707.0	910.1
707.2	903.7
707.4	891.7
707.6	886.2
707.8	887.9
708.0	884.7
708.2	874.8
708.4	867.9
708.6	862.1
708.8	854.8
709.0	853.3
709.2	849.3
709.4	843.9
709.6	836.2
709.8	829.7
710.0	820.6
710.2	818.3
710.4	817.4
710.6	814.1
710.8	810.9
711.0	806.3
711.2	799.6
711.4	797.0
711.6	792.6
711.8	792.2
712.0	792.0
712.2	782.5
712.4	774.4
712.6	765.4
712.8	759.3
713.0	767.7
713.2	773.9
713.4	768.3
713.6	757.6
713.8	743.7
714.0	728.0
714.2	719.2
714.4	720.1
714.6	711.4
714.8	700.6
715.0	699.2
715.2	697.9
715.4	698.6
715.6	698.7
715.8	687.9
716.0	679.2
716.2	676.2
716.4	671.4
716.6	671.3
716.8	666.7
717.0	656.2
717.2	650.6
717.4	644.7
717.6	641.0
717.8	644.0
718.0	644.6
718.2	640.2
718.4	632.7
718.6	625.1
718.8	621.1
719.0	619.5
719.2	618.0
719.4	612.9
719.6	606.5
719.8	603.6
720.0	595.3
720.2	586.4
720.4	581.8
720.6	578.6
720.8	582.3
721.0	580.9
721.2	578.1
721.4	570.9
721.6	559.5
721.8	556.6
722.0	552.0
722.2	547.7
722.4	546.7
722.6	544.6
722.8	536.8
723.0	537.3
723.2	530.2
723.4	525.4
723.6	520.2
723.8	520.0
724.0	516.2
724.2	516.2
724.4	513.8
724.6	508.2
724.8	501.0
725.0	494.8
725.2	487.1
725.4	483.8
725.6	487.4
725.8	486.7
726.0	485.4
726.2	483.1
726.4	480.5
726.6	474.1
726.8	470.6
727.0	469.3
727.2	462.5
727.4	460.3
727.6	457.3
727.8	451.2
728.0	447.9
728.2	445.2
728.4	436.5
728.6	433.8
728.8	432.2
729.0	431.9
729.2	431.6
729.4	429.6
729.6	426.7
729.8	421.4
730.0	411.3
730.2	405.7
730.4	399.6
730.6	399.0
730.8	401.1
731.0	399.4
731.2	397.9
731.4	397.8
731.6	390.1
731.8	385.8
732.0	383.4
732.2	374.9
732.4	372.9
732.6	370.6
732.8	367.6
733.0	368.8
733.2	370.8
733.4	366.2
733.6	362.8
733.8	357.3
734.0	357.1
734.2	355.7
734.4	358.4
734.6	355.0
734.8	346.4
735.0	337.6
735.2	334.8
735.4	327.9
735.6	332.5
735.8	335.9
736.0	333.8
736.2	330.9
736.4	329.2
736.6	321.7
736.8	317.2
737.0	314.8
737.2	306.9
737.4	302.2
737.6	303.6
737.8	305.4
738.0	306.8
738.2	307.9
738.4	304.3
738.6	300.9
738.8	295.9
739.0	292.4
739.2	289.2
739.4	288.1
739.6	291.6
739.8	290.4
740.0	288.1
740.2	286.3
740.4	281.3
740.6	278.1
740.8	276.2
741.0	273.9
741.2	272.7
741.4	273.8
741.6	270.0
741.8	264.4
742.0	266.8
742.2	266.5
742.4	266.0
742.6	263.8
742.8	257.5
743.0	252.7
743.2	257.2
743.4	253.8
743.6	254.8
743.8	252.5
744.0	248.9
744.2	245.4
744.4	242.2
744.6	236.5
744.8	237.9
745.0	239.5
745.2	234.9
745.4	233.3
745.6	228.6
745.8	224.5
746.0	224.9
746.2	222.2
746.4	215.7
746.6	215.6
746.8	213.6
747.0	213.4
747.2	213.3
747.4	214.6
747.6	216.6
747.8	215.6
748.0	210.3
748.2	206.1
748.4	199.2
748.6	198.3
748.8	198.8
749.0	201.6
749.2	201.3
749.4	204.2
749.6	203.7
749.8	202.7
750.0	197.6
750.2	197.1
750.4	192.8
750.6	190.8
750.8	189.1
751.0	188.4
751.2	185.6
751.4	185.3
751.6	183.3
751.8	181.5
752.0	181.9
752.2	181.6
752.4	180.2
752.6	176.6
752.8	175.1
753.0	171.9
753.2	173.1
753.4	173.6
753.6	172.6
753.8	169.7
754.0	170.0
754.2	166.8
754.4	167.1
754.6	167.3
754.8	164.3
755.0	161.6
755.2	163.6
755.4	159.6
755.6	159.6
755.8	158.7
756.0	155.6
756.2	156.4
756.4	157.7
756.6	157.0
756.8	155.9
757.0	155.9
757.2	153.5
757.4	150.2
757.6	146.9
757.8	148.2
758.0	146.6
758.2	148.6
758.4	148.8
758.6	144.8
758.8	146.1
759.0	147.5
759.2	145.3
759.4	141.0
759.6	136.9
759.8	134.7
760.0	136.9
760.2	139.0
760.4	139.0
760.6	137.7
760.8	135.5
761.0	135.2
761.2	134.5
761.4	132.2
761.6	131.8
761.8	131.4
762.0	132.1
762.2	131.2
762.4	130.6
762.6	127.5
762.8	126.9
763.0	122.8
763.2	120.7
763.4	117.2
763.6	114.7
763.8	116.2
764.0	119.9
764.2	121.2
764.4	121.5
764.6	119.2
764.8	117.4
765.0	119.5
765.2	118.8
765.4	115.2
765.6	110.8
765.8	109.7
766.0	110.4
766.2	111.8
766.4	110.2
766.6	107.3
766.8	104.0
767.0	104.0
767.2	103.9
767.4	106.6
767.6	109.6
767.8	111.9
768.0	110.9
768.2	107.0
768.4	103.4
768.6	101.7
768.8	101.3
769.0	99.79
769.2	98.49
769.4	96.43
769.6	97.75
769.8	100.2
770.0	100.3
770.2	98.57
770.4	94.74
770.6	92.08
770.8	92.65
771.0	93.94
771.2	94.53
771.4	94.26
771.6	91.68
771.8	90.88
772.0	91.22
772.2	89.68
772.4	86.25
772.6	83.63
772.8	82.35
773.0	84.34
773.2	86.11
773.4	89.72
773.6	90.19
773.8	91.17
774.0	90.53
774.2	89.24
774.4	85.74
774.6	85.60
774.8	83.89
775.0	82.81
775.2	79.94
775.4	76.90
775.6	76.98
775.8	79.26
776.0	79.63
776.2	81.32
776.4	79.11
776.6	76.96
776.8	78.14
777.0	79.65
777.2	76.78
777.4	75.14
777.6	72.74
777.8	73.47
778.0	76.54
778.2	76.90
778.4	73.77
778.6	72.67
778.8	72.12
779.0	72.60
779.2	73.34
779.4	71.25
779.6	69.85
779.8	71.07
780.0	70.83
780.2	70.43
780.4	71.15
780.6	68.55
780.8	67.96
781.0	66.60
781.2	65.58
781.4	63.98
781.6	65.38
781.8	65.82
782.0	66.71
782.2	66.60
782.4	66.90
782.6	64.64
782.8	68.06
783.0	69.49
783.2	68.82
783.4	66.66
783.6	62.99
783.8	60.19
784.0	61.07
784.2	62.09
784.4	62.74
784.6	62.35
784.8	62.14
785.0	64.16
785.2	62.41
785.4	62.69
785.6	60.68
785.8	59.64
786.0	58.84
786.2	59.69
786.4	59.11
786.6	60.50
786.8	59.94
787.0	58.44
787.2	56.40
787.4	56.70
787.6	56.56
787.8	57.57
788.0	57.31
788.2	55.87
788.4	55.49
788.6	56.31
788.8	55.68
789.0	55.78
789.2	56.32
789.4	55.51
789.6	55.07
789.8	53.59
790.0	54.28
790.2	55.36
790.4	55.24
790.6	53.96
790.8	53.53
791.0	52.80
791.2	53.75
791.4	55.04
791.6	53.48
791.8	52.26
792.0	50.20
792.2	49.02
792.4	48.99
792.6	50.39
792.8	51.94
793.0	52.57
793.2	52.18
793.4	51.15
793.6	49.88
793.8	49.54
794.0	49.85
794.2	49.84
794.4	50.43
794.6	51.42
794.8	52.06
795.0	52.74
795.2	52.01
795.4	50.91
795.6	50.29
795.8	51.16
796.0	50.15
796.2	47.98
796.4	46.75
796.6	46.53
796.8	47.02
797.0	48.10
797.2	47.69
797.4	46.36
797.6	47.75
797.8	48.32
798.0	46.25
798.2	45.99
798.4	45.39
798.6	43.61
798.8	43.72
799.0	44.60
799.2	43.26
799.4	44.90
799.6	45.96
799.8	46.56
800.0	46.29

