Sample:	'20211010A(EM)
File name:	G-NI 8 800.FDS
Run date:	'17:53:16, 06/19/2023
Operator:	Administrator
Comment:	'

Instrument
Model:	F-4700 FL Spectrophotometer
Serial number:	2019-001
ROM Version:	5J24010 00

Instrument parameters
Measurement type:	Wavelength scan
Scan mode:	Emission
Data mode:	Fluorescence
EX WL:	400.0 nm
EM  Start WL:	420.0 nm
EM  End WL:	800.0 nm
Scan speed:	1200 nm/min
Delay:	0.0 s
EX Slit:	10.0 nm
EM Slit:	10.0 nm
PMT Voltage:	500 V
Response:	0.002 s
Corrected spectra:	Off
Shutter control:	On

Processing performed
Savitsky-Golay smoothed
Smoothing order:	3
Number of points:	7
Number of times:	1

Peak integration
Integration method:	Rectangular
Sensitivity:	1
Threshold:	1.000

Peaks
No.	Start(nm)	Apex(nm)	End(nm)	Height(Data)	Valley(nm)	Valley(Data)
1	420.0	545.8	547.2	2973	547.2	2963
2	547.2	548.2	548.8	2997	548.8	2978
3	548.8	549.6	721.6	3002	721.6	33.75
4	721.6	722.2	741.8	35.51	741.8	16.29
5	741.8	742.8	754.2	17.62	754.2	10.66
6	754.2	755.6	768.8	11.75	768.8	6.200
7	768.8	769.6	782.2	7.307	782.2	4.732

Data points
nm	Data
420.0	1.800
420.2	1.604
420.4	1.590
420.6	1.668
420.8	1.726
421.0	1.701
421.2	1.410
421.4	1.300
421.6	1.233
421.8	1.372
422.0	1.569
422.2	1.566
422.4	1.508
422.6	1.329
422.8	1.364
423.0	1.434
423.2	1.421
423.4	1.570
423.6	1.827
423.8	1.757
424.0	1.843
424.2	1.728
424.4	1.483
424.6	1.375
424.8	1.267
425.0	1.162
425.2	1.452
425.4	1.665
425.6	1.920
425.8	1.794
426.0	1.645
426.2	1.400
426.4	1.421
426.6	1.360
426.8	1.421
427.0	1.445
427.2	1.537
427.4	1.459
427.6	1.410
427.8	1.350
428.0	1.395
428.2	1.457
428.4	1.439
428.6	1.292
428.8	1.396
429.0	1.377
429.2	1.497
429.4	1.535
429.6	1.557
429.8	1.468
430.0	1.541
430.2	1.598
430.4	1.661
430.6	1.644
430.8	1.623
431.0	1.466
431.2	1.284
431.4	1.382
431.6	1.515
431.8	1.551
432.0	1.649
432.2	1.779
432.4	1.714
432.6	1.767
432.8	1.734
433.0	1.665
433.2	1.717
433.4	1.930
433.6	1.903
433.8	2.072
434.0	2.000
434.2	1.862
434.4	1.789
434.6	1.827
434.8	1.679
435.0	1.742
435.2	1.736
435.4	1.635
435.6	1.570
435.8	1.512
436.0	1.514
436.2	1.542
436.4	1.666
436.6	1.621
436.8	1.597
437.0	1.577
437.2	1.562
437.4	1.728
437.6	1.844
437.8	1.636
438.0	1.674
438.2	1.662
438.4	1.758
438.6	2.062
438.8	2.175
439.0	2.025
439.2	2.045
439.4	1.851
439.6	1.722
439.8	1.687
440.0	1.752
440.2	1.669
440.4	1.797
440.6	1.853
440.8	1.811
441.0	1.902
441.2	1.922
441.4	1.782
441.6	1.779
441.8	1.833
442.0	1.788
442.2	1.697
442.4	1.503
442.6	1.494
442.8	1.630
443.0	1.818
443.2	1.932
443.4	2.011
443.6	2.041
443.8	2.081
444.0	2.035
444.2	1.909
444.4	1.825
444.6	1.791
444.8	1.818
445.0	1.817
445.2	1.874
445.4	2.004
445.6	2.086
445.8	2.180
446.0	2.256
446.2	2.117
446.4	2.088
446.6	2.140
446.8	2.030
447.0	2.121
447.2	2.199
447.4	2.256
447.6	2.225
447.8	2.326
448.0	2.126
448.2	2.015
448.4	2.012
448.6	2.114
448.8	2.100
449.0	2.253
449.2	2.184
449.4	2.071
449.6	2.015
449.8	1.950
450.0	1.984
450.2	1.989
450.4	2.225
450.6	2.396
450.8	2.328
451.0	2.259
451.2	2.286
451.4	2.151
451.6	2.368
451.8	2.540
452.0	2.382
452.2	2.393
452.4	2.400
452.6	2.289
452.8	2.261
453.0	2.660
453.2	2.770
453.4	2.949
453.6	2.902
453.8	2.682
454.0	2.613
454.2	2.936
454.4	3.101
454.6	3.247
454.8	3.307
455.0	3.230
455.2	3.186
455.4	3.091
455.6	3.063
455.8	3.072
456.0	3.167
456.2	3.197
456.4	3.250
456.6	3.293
456.8	3.223
457.0	3.166
457.2	3.112
457.4	3.071
457.6	3.216
457.8	3.304
458.0	3.395
458.2	3.503
458.4	3.501
458.6	3.684
458.8	3.885
459.0	3.812
459.2	3.854
459.4	3.737
459.6	3.667
459.8	3.817
460.0	4.059
460.2	4.163
460.4	4.338
460.6	4.304
460.8	4.558
461.0	4.617
461.2	4.873
461.4	4.914
461.6	4.798
461.8	4.755
462.0	4.915
462.2	5.047
462.4	5.365
462.6	5.397
462.8	5.201
463.0	5.021
463.2	4.811
463.4	5.133
463.6	5.341
463.8	5.322
464.0	5.629
464.2	5.696
464.4	5.882
464.6	6.490
464.8	6.524
465.0	6.434
465.2	6.703
465.4	6.979
465.6	6.956
465.8	6.967
466.0	6.960
466.2	7.169
466.4	7.707
466.6	8.367
466.8	8.413
467.0	8.299
467.2	8.479
467.4	8.461
467.6	8.842
467.8	9.036
468.0	9.467
468.2	9.485
468.4	9.605
468.6	9.684
468.8	9.689
469.0	10.11
469.2	10.50
469.4	10.69
469.6	10.94
469.8	11.69
470.0	11.79
470.2	12.08
470.4	12.20
470.6	12.60
470.8	13.01
471.0	13.54
471.2	13.57
471.4	13.48
471.6	14.20
471.8	14.75
472.0	14.87
472.2	15.19
472.4	15.62
472.6	16.01
472.8	16.90
473.0	17.64
473.2	17.84
473.4	18.60
473.6	19.62
473.8	19.95
474.0	20.63
474.2	21.04
474.4	21.37
474.6	21.80
474.8	21.94
475.0	21.95
475.2	22.62
475.4	23.41
475.6	24.66
475.8	26.15
476.0	27.01
476.2	27.35
476.4	27.74
476.6	28.49
476.8	29.02
477.0	29.93
477.2	31.08
477.4	31.42
477.6	32.42
477.8	33.33
478.0	34.81
478.2	35.85
478.4	37.55
478.6	38.05
478.8	38.88
479.0	39.53
479.2	41.41
479.4	42.79
479.6	45.19
479.8	46.49
480.0	48.20
480.2	49.63
480.4	50.66
480.6	51.55
480.8	53.00
481.0	54.04
481.2	55.86
481.4	56.79
481.6	58.08
481.8	59.71
482.0	61.33
482.2	63.04
482.4	65.20
482.6	67.18
482.8	69.82
483.0	71.94
483.2	73.39
483.4	74.64
483.6	75.69
483.8	76.80
484.0	79.45
484.2	81.96
484.4	86.00
484.6	89.50
484.8	91.47
485.0	93.35
485.2	96.17
485.4	98.92
485.6	102.6
485.8	105.1
486.0	106.6
486.2	108.3
486.4	110.5
486.6	114.5
486.8	116.8
487.0	119.3
487.2	123.4
487.4	126.5
487.6	129.2
487.8	132.3
488.0	134.3
488.2	138.2
488.4	144.1
488.6	147.9
488.8	152.2
489.0	155.1
489.2	159.2
489.4	162.1
489.6	165.9
489.8	170.5
490.0	176.8
490.2	181.2
490.4	186.8
490.6	189.4
490.8	192.9
491.0	198.0
491.2	203.5
491.4	207.2
491.6	213.0
491.8	216.5
492.0	222.2
492.2	227.9
492.4	234.9
492.6	240.2
492.8	246.3
493.0	250.6
493.2	256.3
493.4	261.4
493.6	269.0
493.8	273.7
494.0	279.4
494.2	284.7
494.4	290.9
494.6	297.9
494.8	306.3
495.0	312.1
495.2	317.8
495.4	323.0
495.6	328.4
495.8	336.0
496.0	344.2
496.2	354.6
496.4	362.0
496.6	369.5
496.8	374.9
497.0	381.6
497.2	388.0
497.4	396.3
497.6	404.5
497.8	413.4
498.0	420.7
498.2	429.6
498.4	438.9
498.6	447.2
498.8	456.3
499.0	464.0
499.2	472.0
499.4	479.2
499.6	490.7
499.8	501.1
500.0	512.1
500.2	523.4
500.4	533.4
500.6	541.3
500.8	551.3
501.0	557.8
501.2	568.2
501.4	579.0
501.6	590.5
501.8	600.4
502.0	611.2
502.2	619.3
502.4	629.0
502.6	639.3
502.8	650.6
503.0	661.9
503.2	675.5
503.4	688.4
503.6	699.3
503.8	710.9
504.0	718.4
504.2	730.1
504.4	740.4
504.6	752.5
504.8	763.5
505.0	774.0
505.2	782.3
505.4	797.4
505.6	811.4
505.8	828.8
506.0	841.9
506.2	852.7
506.4	862.6
506.6	874.8
506.8	888.1
507.0	904.4
507.2	919.5
507.4	931.8
507.6	939.5
507.8	950.9
508.0	965.6
508.2	976.0
508.4	989.4
508.6	1001
508.8	1016
509.0	1035
509.2	1057
509.4	1067
509.6	1080
509.8	1092
510.0	1106
510.2	1119
510.4	1136
510.6	1148
510.8	1163
511.0	1177
511.2	1192
511.4	1208
511.6	1222
511.8	1238
512.0	1247
512.2	1260
512.4	1269
512.6	1285
512.8	1301
513.0	1315
513.2	1330
513.4	1346
513.6	1361
513.8	1378
514.0	1396
514.2	1407
514.4	1420
514.6	1431
514.8	1445
515.0	1458
515.2	1476
515.4	1494
515.6	1510
515.8	1525
516.0	1544
516.2	1560
516.4	1578
516.6	1593
516.8	1609
517.0	1621
517.2	1635
517.4	1649
517.6	1663
517.8	1676
518.0	1689
518.2	1697
518.4	1710
518.6	1730
518.8	1746
519.0	1763
519.2	1777
519.4	1791
519.6	1809
519.8	1830
520.0	1844
520.2	1860
520.4	1871
520.6	1885
520.8	1898
521.0	1915
521.2	1931
521.4	1947
521.6	1960
521.8	1974
522.0	1984
522.2	2002
522.4	2013
522.6	2025
522.8	2044
523.0	2058
523.2	2069
523.4	2087
523.6	2095
523.8	2109
524.0	2124
524.2	2132
524.4	2149
524.6	2170
524.8	2183
525.0	2195
525.2	2199
525.4	2209
525.6	2224
525.8	2244
526.0	2261
526.2	2272
526.4	2280
526.6	2293
526.8	2295
527.0	2308
527.2	2321
527.4	2334
527.6	2349
527.8	2365
528.0	2373
528.2	2384
528.4	2396
528.6	2409
528.8	2424
529.0	2439
529.2	2448
529.4	2451
529.6	2458
529.8	2467
530.0	2480
530.2	2496
530.4	2505
530.6	2513
530.8	2521
531.0	2536
531.2	2546
531.4	2568
531.6	2578
531.8	2587
532.0	2597
532.2	2604
532.4	2606
532.6	2613
532.8	2617
533.0	2627
533.2	2641
533.4	2652
533.6	2663
533.8	2668
534.0	2677
534.2	2688
534.4	2694
534.6	2701
534.8	2711
535.0	2721
535.2	2734
535.4	2751
535.6	2749
535.8	2747
536.0	2749
536.2	2759
536.4	2769
536.6	2786
536.8	2790
537.0	2793
537.2	2795
537.4	2801
537.6	2807
537.8	2816
538.0	2823
538.2	2824
538.4	2828
538.6	2835
538.8	2848
539.0	2862
539.2	2873
539.4	2876
539.6	2877
539.8	2878
540.0	2883
540.2	2891
540.4	2894
540.6	2896
540.8	2898
541.0	2902
541.2	2909
541.4	2918
541.6	2919
541.8	2922
542.0	2924
542.2	2926
542.4	2928
542.6	2935
542.8	2943
543.0	2946
543.2	2945
543.4	2939
543.6	2936
543.8	2941
544.0	2947
544.2	2957
544.4	2960
544.6	2958
544.8	2954
545.0	2959
545.2	2959
545.4	2968
545.6	2969
545.8	2973
546.0	2969
546.2	2972
546.4	2969
546.6	2971
546.8	2968
547.0	2969
547.2	2963
547.4	2966
547.6	2972
547.8	2983
548.0	2993
548.2	2997
548.4	2992
548.6	2981
548.8	2978
549.0	2979
549.2	2988
549.4	2996
549.6	3002
549.8	2996
550.0	2988
550.2	2983
550.4	2978
550.6	2982
550.8	2984
551.0	2982
551.2	2977
551.4	2972
551.6	2967
551.8	2972
552.0	2973
552.2	2973
552.4	2971
552.6	2969
552.8	2965
553.0	2971
553.2	2972
553.4	2965
553.6	2962
553.8	2959
554.0	2951
554.2	2949
554.4	2945
554.6	2936
554.8	2937
555.0	2937
555.2	2937
555.4	2935
555.6	2931
555.8	2927
556.0	2920
556.2	2919
556.4	2920
556.6	2914
556.8	2907
557.0	2897
557.2	2893
557.4	2893
557.6	2894
557.8	2889
558.0	2880
558.2	2873
558.4	2878
558.6	2876
558.8	2871
559.0	2864
559.2	2850
559.4	2848
559.6	2846
559.8	2841
560.0	2832
560.2	2832
560.4	2833
560.6	2836
560.8	2832
561.0	2823
561.2	2814
561.4	2807
561.6	2803
561.8	2798
562.0	2786
562.2	2778
562.4	2770
562.6	2766
562.8	2763
563.0	2760
563.2	2758
563.4	2755
563.6	2749
563.8	2746
564.0	2738
564.2	2736
564.4	2737
564.6	2731
564.8	2720
565.0	2721
565.2	2712
565.4	2702
565.6	2695
565.8	2686
566.0	2671
566.2	2675
566.4	2667
566.6	2658
566.8	2648
567.0	2646
567.2	2638
567.4	2636
567.6	2627
567.8	2618
568.0	2608
568.2	2601
568.4	2598
568.6	2592
568.8	2588
569.0	2586
569.2	2585
569.4	2576
569.6	2570
569.8	2563
570.0	2557
570.2	2549
570.4	2540
570.6	2528
570.8	2516
571.0	2514
571.2	2515
571.4	2507
571.6	2502
571.8	2497
572.0	2489
572.2	2479
572.4	2473
572.6	2461
572.8	2454
573.0	2451
573.2	2444
573.4	2433
573.6	2423
573.8	2413
574.0	2401
574.2	2393
574.4	2383
574.6	2378
574.8	2371
575.0	2370
575.2	2370
575.4	2365
575.6	2359
575.8	2351
576.0	2342
576.2	2336
576.4	2329
576.6	2320
576.8	2313
577.0	2307
577.2	2300
577.4	2292
577.6	2283
577.8	2274
578.0	2265
578.2	2255
578.4	2245
578.6	2240
578.8	2238
579.0	2235
579.2	2224
579.4	2209
579.6	2198
579.8	2189
580.0	2186
580.2	2185
580.4	2181
580.6	2174
580.8	2168
581.0	2163
581.2	2157
581.4	2146
581.6	2139
581.8	2129
582.0	2122
582.2	2113
582.4	2103
582.6	2091
582.8	2084
583.0	2082
583.2	2078
583.4	2073
583.6	2065
583.8	2064
584.0	2056
584.2	2052
584.4	2041
584.6	2033
584.8	2024
585.0	2024
585.2	2016
585.4	2007
585.6	1994
585.8	1982
586.0	1971
586.2	1964
586.4	1959
586.6	1959
586.8	1956
587.0	1949
587.2	1940
587.4	1929
587.6	1922
587.8	1918
588.0	1915
588.2	1911
588.4	1905
588.6	1897
588.8	1885
589.0	1875
589.2	1868
589.4	1863
589.6	1850
589.8	1844
590.0	1832
590.2	1823
590.4	1817
590.6	1814
590.8	1805
591.0	1798
591.2	1790
591.4	1779
591.6	1772
591.8	1768
592.0	1763
592.2	1755
592.4	1747
592.6	1739
592.8	1732
593.0	1727
593.2	1718
593.4	1718
593.6	1716
593.8	1709
594.0	1702
594.2	1688
594.4	1672
594.6	1664
594.8	1658
595.0	1656
595.2	1655
595.4	1651
595.6	1645
595.8	1634
596.0	1621
596.2	1611
596.4	1604
596.6	1601
596.8	1598
597.0	1592
597.2	1583
597.4	1574
597.6	1572
597.8	1566
598.0	1558
598.2	1552
598.4	1545
598.6	1534
598.8	1536
599.0	1528
599.2	1525
599.4	1523
599.6	1514
599.8	1501
600.0	1494
600.2	1483
600.4	1478
600.6	1475
600.8	1467
601.0	1461
601.2	1454
601.4	1451
601.6	1445
601.8	1438
602.0	1426
602.2	1418
602.4	1415
602.6	1412
602.8	1409
603.0	1398
603.2	1388
603.4	1381
603.6	1381
603.8	1376
604.0	1374
604.2	1365
604.4	1356
604.6	1348
604.8	1338
605.0	1332
605.2	1329
605.4	1322
605.6	1316
605.8	1312
606.0	1303
606.2	1298
606.4	1292
606.6	1283
606.8	1275
607.0	1268
607.2	1265
607.4	1259
607.6	1255
607.8	1251
608.0	1244
608.2	1239
608.4	1238
608.6	1228
608.8	1222
609.0	1215
609.2	1208
609.4	1200
609.6	1198
609.8	1190
610.0	1186
610.2	1182
610.4	1175
610.6	1165
610.8	1159
611.0	1151
611.2	1146
611.4	1142
611.6	1138
611.8	1138
612.0	1134
612.2	1125
612.4	1114
612.6	1102
612.8	1099
613.0	1097
613.2	1091
613.4	1083
613.6	1078
613.8	1074
614.0	1075
614.2	1069
614.4	1062
614.6	1051
614.8	1044
615.0	1038
615.2	1037
615.4	1032
615.6	1029
615.8	1025
616.0	1018
616.2	1012
616.4	1010
616.6	1005
616.8	1002
617.0	996.6
617.2	989.3
617.4	982.9
617.6	975.0
617.8	970.6
618.0	968.2
618.2	964.1
618.4	956.8
618.6	952.3
618.8	945.6
619.0	939.5
619.2	938.1
619.4	932.6
619.6	923.6
619.8	920.0
620.0	916.0
620.2	910.2
620.4	905.6
620.6	897.5
620.8	892.3
621.0	887.6
621.2	884.2
621.4	882.3
621.6	875.9
621.8	869.8
622.0	869.4
622.2	862.6
622.4	858.3
622.6	852.5
622.8	846.1
623.0	839.3
623.2	837.1
623.4	832.5
623.6	829.0
623.8	825.8
624.0	820.4
624.2	816.5
624.4	809.1
624.6	805.1
624.8	799.7
625.0	796.7
625.2	788.8
625.4	783.9
625.6	779.1
625.8	777.4
626.0	772.8
626.2	771.8
626.4	765.3
626.6	759.4
626.8	757.6
627.0	756.8
627.2	751.4
627.4	746.1
627.6	737.3
627.8	734.0
628.0	731.8
628.2	730.0
628.4	724.2
628.6	718.2
628.8	712.8
629.0	708.4
629.2	704.2
629.4	698.9
629.6	696.3
629.8	692.8
630.0	689.8
630.2	682.0
630.4	676.3
630.6	674.8
630.8	675.1
631.0	669.7
631.2	664.0
631.4	657.9
631.6	652.1
631.8	652.6
632.0	649.5
632.2	642.7
632.4	638.0
632.6	637.5
632.8	636.4
633.0	633.0
633.2	628.0
633.4	622.2
633.6	615.2
633.8	614.2
634.0	614.7
634.2	612.4
634.4	610.8
634.6	606.8
634.8	599.2
635.0	593.4
635.2	590.1
635.4	584.6
635.6	580.5
635.8	579.5
636.0	577.2
636.2	574.9
636.4	575.5
636.6	569.9
636.8	565.5
637.0	560.0
637.2	552.6
637.4	547.4
637.6	546.3
637.8	546.1
638.0	547.5
638.2	544.5
638.4	540.3
638.6	536.3
638.8	533.5
639.0	530.9
639.2	527.6
639.4	522.8
639.6	517.0
639.8	515.3
640.0	512.2
640.2	509.7
640.4	506.3
640.6	502.8
640.8	499.5
641.0	497.5
641.2	492.8
641.4	489.1
641.6	483.9
641.8	480.3
642.0	478.2
642.2	475.4
642.4	472.5
642.6	470.0
642.8	469.6
643.0	468.0
643.2	466.5
643.4	463.0
643.6	460.1
643.8	457.1
644.0	455.7
644.2	451.2
644.4	449.6
644.6	446.0
644.8	443.7
645.0	439.5
645.2	435.5
645.4	431.0
645.6	429.1
645.8	426.8
646.0	426.7
646.2	425.0
646.4	426.6
646.6	423.4
646.8	419.1
647.0	416.7
647.2	413.2
647.4	410.0
647.6	407.9
647.8	402.1
648.0	399.1
648.2	398.0
648.4	395.7
648.6	390.3
648.8	385.2
649.0	383.4
649.2	385.0
649.4	384.5
649.6	381.7
649.8	375.3
650.0	374.2
650.2	374.0
650.4	374.6
650.6	369.6
650.8	361.3
651.0	355.0
651.2	355.7
651.4	357.6
651.6	360.9
651.8	359.4
652.0	356.1
652.2	350.8
652.4	347.7
652.6	344.4
652.8	343.7
653.0	342.2
653.2	341.6
653.4	339.9
653.6	336.1
653.8	332.2
654.0	330.8
654.2	329.9
654.4	329.4
654.6	326.6
654.8	321.8
655.0	318.5
655.2	317.0
655.4	316.2
655.6	316.7
655.8	313.9
656.0	312.6
656.2	311.1
656.4	307.9
656.6	304.4
656.8	301.6
657.0	298.5
657.2	298.1
657.4	298.2
657.6	297.1
657.8	295.1
658.0	291.1
658.2	286.5
658.4	283.1
658.6	281.3
658.8	280.0
659.0	279.1
659.2	278.0
659.4	276.8
659.6	276.1
659.8	274.3
660.0	272.7
660.2	269.8
660.4	267.2
660.6	265.1
660.8	263.6
661.0	263.8
661.2	265.5
661.4	263.9
661.6	262.2
661.8	259.2
662.0	255.2
662.2	252.7
662.4	249.1
662.6	246.4
662.8	245.5
663.0	245.6
663.2	244.9
663.4	245.4
663.6	243.1
663.8	241.7
664.0	238.2
664.2	237.0
664.4	235.2
664.6	235.1
664.8	233.1
665.0	230.6
665.2	227.6
665.4	226.9
665.6	227.5
665.8	227.2
666.0	225.5
666.2	223.7
666.4	221.9
666.6	219.1
666.8	219.0
667.0	215.0
667.2	213.2
667.4	212.6
667.6	212.4
667.8	211.4
668.0	209.8
668.2	204.8
668.4	201.9
668.6	201.1
668.8	202.2
669.0	202.7
669.2	201.5
669.4	200.0
669.6	198.6
669.8	198.4
670.0	197.5
670.2	195.1
670.4	192.3
670.6	190.4
670.8	188.9
671.0	187.5
671.2	185.5
671.4	184.2
671.6	183.8
671.8	183.3
672.0	181.9
672.2	179.6
672.4	177.1
672.6	176.6
672.8	176.2
673.0	176.0
673.2	175.5
673.4	173.9
673.6	172.2
673.8	170.3
674.0	168.1
674.2	167.6
674.4	166.8
674.6	165.0
674.8	165.2
675.0	163.7
675.2	161.8
675.4	160.8
675.6	159.3
675.8	159.0
676.0	158.9
676.2	157.5
676.4	156.1
676.6	155.2
676.8	153.4
677.0	153.3
677.2	151.3
677.4	148.5
677.6	147.7
677.8	147.6
678.0	146.3
678.2	147.1
678.4	145.5
678.6	143.9
678.8	144.2
679.0	144.5
679.2	143.3
679.4	141.9
679.6	139.3
679.8	138.8
680.0	139.7
680.2	139.8
680.4	139.7
680.6	138.1
680.8	135.9
681.0	134.0
681.2	132.8
681.4	130.9
681.6	130.0
681.8	129.1
682.0	127.6
682.2	126.3
682.4	126.4
682.6	126.0
682.8	124.6
683.0	123.0
683.2	121.9
683.4	121.0
683.6	119.9
683.8	120.2
684.0	120.7
684.2	119.8
684.4	119.8
684.6	118.8
684.8	116.4
685.0	116.6
685.2	117.3
685.4	115.7
685.6	113.8
685.8	113.2
686.0	111.8
686.2	112.4
686.4	112.4
686.6	111.3
686.8	109.6
687.0	109.3
687.2	107.0
687.4	107.0
687.6	106.9
687.8	106.9
688.0	105.1
688.2	104.3
688.4	102.8
688.6	103.4
688.8	103.5
689.0	103.5
689.2	101.4
689.4	99.65
689.6	97.66
689.8	95.77
690.0	96.29
690.2	97.82
690.4	98.63
690.6	98.06
690.8	96.94
691.0	94.99
691.2	94.38
691.4	93.72
691.6	92.26
691.8	91.05
692.0	90.21
692.2	89.97
692.4	90.68
692.6	90.39
692.8	89.68
693.0	89.41
693.2	89.06
693.4	88.28
693.6	88.72
693.8	87.62
694.0	86.86
694.2	86.58
694.4	85.84
694.6	84.31
694.8	82.78
695.0	82.14
695.2	82.04
695.4	82.32
695.6	81.75
695.8	82.36
696.0	81.73
696.2	81.43
696.4	81.23
696.6	80.51
696.8	79.55
697.0	79.04
697.2	77.48
697.4	76.53
697.6	76.64
697.8	76.07
698.0	76.22
698.2	75.54
698.4	73.96
698.6	73.41
698.8	73.76
699.0	74.15
699.2	74.02
699.4	72.82
699.6	71.14
699.8	70.03
700.0	70.02
700.2	71.12
700.4	70.83
700.6	70.09
700.8	69.78
701.0	69.36
701.2	69.65
701.4	69.87
701.6	68.57
701.8	67.95
702.0	67.41
702.2	66.94
702.4	67.00
702.6	66.37
702.8	65.55
703.0	64.66
703.2	64.10
703.4	63.52
703.6	62.79
703.8	62.62
704.0	63.15
704.2	63.31
704.4	63.39
704.6	63.31
704.8	61.75
705.0	62.36
705.2	61.97
705.4	61.21
705.6	59.88
705.8	58.42
706.0	57.41
706.2	58.35
706.4	59.06
706.6	58.66
706.8	58.33
707.0	57.46
707.2	56.57
707.4	55.55
707.6	55.58
707.8	55.62
708.0	56.59
708.2	57.07
708.4	56.05
708.6	55.24
708.8	54.55
709.0	55.01
709.2	55.86
709.4	55.30
709.6	54.24
709.8	53.88
710.0	53.48
710.2	54.34
710.4	54.82
710.6	53.32
710.8	52.13
711.0	51.31
711.2	50.56
711.4	51.13
711.6	51.43
711.8	50.94
712.0	50.23
712.2	49.66
712.4	48.24
712.6	47.82
712.8	48.06
713.0	48.43
713.2	48.28
713.4	48.45
713.6	47.81
713.8	46.93
714.0	46.85
714.2	45.89
714.4	45.09
714.6	44.93
714.8	44.55
715.0	43.90
715.2	43.92
715.4	43.71
715.6	43.91
715.8	44.38
716.0	43.94
716.2	43.78
716.4	43.14
716.6	42.55
716.8	42.03
717.0	41.62
717.2	41.27
717.4	40.87
717.6	40.16
717.8	39.53
718.0	39.26
718.2	40.47
718.4	41.04
718.6	41.20
