Sample:	'20211010A(EM)
File name:	G-NI 1.FDS
Run date:	'17:10:22, 06/19/2023
Operator:	Administrator
Comment:	'

Instrument
Model:	F-4700 FL Spectrophotometer
Serial number:	2019-001
ROM Version:	5J24010 00

Instrument parameters
Measurement type:	Wavelength scan
Scan mode:	Emission
Data mode:	Fluorescence
EX WL:	400.0 nm
EM  Start WL:	420.0 nm
EM  End WL:	800.0 nm
Scan speed:	1200 nm/min
Delay:	0.0 s
EX Slit:	10.0 nm
EM Slit:	10.0 nm
PMT Voltage:	500 V
Response:	0.002 s
Corrected spectra:	Off
Shutter control:	On

Processing performed
Savitsky-Golay smoothed
Smoothing order:	3
Number of points:	7
Number of times:	1

Peak integration
Integration method:	Rectangular
Sensitivity:	1
Threshold:	1.000

Peaks
No.	Start(nm)	Apex(nm)	End(nm)	Height(Data)	Valley(nm)	Valley(Data)
1	420.0	535.6	537.2	379.6	537.2	376.2
2	537.2	537.8	538.4	379.4	538.4	376.0
3	538.4	539.8	540.4	382.1	540.4	377.7
4	540.4	541.8	543.8	382.8	543.8	371.6
5	543.8	544.6	555.0	380.4	555.0	344.4
6	555.0	555.8	664.4	348.7	664.4	25.28
7	664.4	665.2	697.6	26.49	697.6	8.808
8	697.6	698.2	775.6	9.838	775.6	0.730

Data points
nm	Data
420.0	0.631
420.2	0.463
420.4	0.406
420.6	0.431
420.8	0.583
421.0	0.554
421.2	0.476
421.4	0.459
421.6	0.530
421.8	0.500
422.0	0.637
422.2	0.549
422.4	0.470
422.6	0.339
422.8	0.389
423.0	0.385
423.2	0.471
423.4	0.427
423.6	0.398
423.8	0.287
424.0	0.424
424.2	0.469
424.4	0.520
424.6	0.613
424.8	0.588
425.0	0.579
425.2	0.603
425.4	0.563
425.6	0.515
425.8	0.545
426.0	0.520
426.2	0.470
426.4	0.356
426.6	0.340
426.8	0.328
427.0	0.366
427.2	0.387
427.4	0.398
427.6	0.449
427.8	0.494
428.0	0.609
428.2	0.662
428.4	0.637
428.6	0.621
428.8	0.620
429.0	0.553
429.2	0.622
429.4	0.563
429.6	0.563
429.8	0.565
430.0	0.542
430.2	0.465
430.4	0.466
430.6	0.429
430.8	0.613
431.0	0.610
431.2	0.545
431.4	0.525
431.6	0.590
431.8	0.614
432.0	0.818
432.2	0.852
432.4	0.688
432.6	0.656
432.8	0.624
433.0	0.568
433.2	0.582
433.4	0.631
433.6	0.606
433.8	0.600
434.0	0.599
434.2	0.574
434.4	0.640
434.6	0.613
434.8	0.638
435.0	0.580
435.2	0.571
435.4	0.536
435.6	0.714
435.8	0.751
436.0	0.726
436.2	0.661
436.4	0.550
436.6	0.424
436.8	0.425
437.0	0.371
437.2	0.499
437.4	0.624
437.6	0.679
437.8	0.589
438.0	0.525
438.2	0.451
438.4	0.534
438.6	0.595
438.8	0.671
439.0	0.587
439.2	0.624
439.4	0.675
439.6	0.632
439.8	0.607
440.0	0.654
440.2	0.569
440.4	0.487
440.6	0.465
440.8	0.381
441.0	0.398
441.2	0.467
441.4	0.394
441.6	0.350
441.8	0.425
442.0	0.458
442.2	0.607
442.4	0.662
442.6	0.561
442.8	0.532
443.0	0.505
443.2	0.555
443.4	0.690
443.6	0.685
443.8	0.609
444.0	0.536
444.2	0.513
444.4	0.549
444.6	0.607
444.8	0.565
445.0	0.474
445.2	0.456
445.4	0.440
445.6	0.448
445.8	0.504
446.0	0.525
446.2	0.442
446.4	0.560
446.6	0.621
446.8	0.632
447.0	0.614
447.2	0.561
447.4	0.453
447.6	0.462
447.8	0.509
448.0	0.457
448.2	0.452
448.4	0.433
448.6	0.437
448.8	0.431
449.0	0.491
449.2	0.439
449.4	0.515
449.6	0.567
449.8	0.560
450.0	0.581
450.2	0.552
450.4	0.437
450.6	0.408
450.8	0.381
451.0	0.369
451.2	0.514
451.4	0.516
451.6	0.594
451.8	0.573
452.0	0.448
452.2	0.362
452.4	0.403
452.6	0.404
452.8	0.490
453.0	0.532
453.2	0.430
453.4	0.427
453.6	0.553
453.8	0.689
454.0	0.661
454.2	0.567
454.4	0.374
454.6	0.297
454.8	0.356
455.0	0.462
455.2	0.516
455.4	0.503
455.6	0.463
455.8	0.437
456.0	0.412
456.2	0.430
456.4	0.526
456.6	0.599
456.8	0.710
457.0	0.662
457.2	0.574
457.4	0.575
457.6	0.550
457.8	0.576
458.0	0.615
458.2	0.545
458.4	0.487
458.6	0.607
458.8	0.648
459.0	0.724
459.2	0.795
459.4	0.771
459.6	0.624
459.8	0.548
460.0	0.533
460.2	0.505
460.4	0.567
460.6	0.602
460.8	0.581
461.0	0.581
461.2	0.693
461.4	0.684
461.6	0.630
461.8	0.577
462.0	0.636
462.2	0.693
462.4	0.781
462.6	0.820
462.8	0.724
463.0	0.532
463.2	0.547
463.4	0.562
463.6	0.657
463.8	0.779
464.0	0.793
464.2	0.620
464.4	0.567
464.6	0.480
464.8	0.537
465.0	0.669
465.2	0.787
465.4	0.765
465.6	0.783
465.8	0.746
466.0	0.706
466.2	0.743
466.4	0.790
466.6	0.787
466.8	0.804
467.0	0.842
467.2	0.793
467.4	0.751
467.6	0.742
467.8	0.725
468.0	0.757
468.2	0.836
468.4	0.944
468.6	1.018
468.8	1.094
469.0	1.036
469.2	0.966
469.4	0.934
469.6	0.902
469.8	0.889
470.0	0.863
470.2	1.024
470.4	1.152
470.6	1.333
470.8	1.334
471.0	1.222
471.2	1.070
471.4	1.040
471.6	1.091
471.8	1.188
472.0	1.348
472.2	1.413
472.4	1.461
472.6	1.378
472.8	1.406
473.0	1.399
473.2	1.554
473.4	1.566
473.6	1.706
473.8	1.777
474.0	1.776
474.2	1.849
474.4	1.945
474.6	1.929
474.8	2.178
475.0	2.278
475.2	2.172
475.4	2.264
475.6	2.284
475.8	2.412
476.0	2.646
476.2	2.740
476.4	2.593
476.6	2.781
476.8	2.746
477.0	2.920
477.2	2.963
477.4	2.937
477.6	2.856
477.8	2.997
478.0	3.187
478.2	3.609
478.4	3.937
478.6	4.209
478.8	4.225
479.0	3.990
479.2	3.738
479.4	3.775
479.6	3.851
479.8	4.356
480.0	4.712
480.2	4.826
480.4	4.979
480.6	4.886
480.8	4.776
481.0	4.918
481.2	5.325
481.4	5.510
481.6	6.046
481.8	6.192
482.0	6.363
482.2	6.442
482.4	6.841
482.6	6.826
482.8	7.343
483.0	7.653
483.2	7.961
483.4	8.260
483.6	8.433
483.8	8.427
484.0	8.784
484.2	8.960
484.4	9.860
484.6	10.36
484.8	10.41
485.0	10.72
485.2	10.90
485.4	11.30
485.6	11.92
485.8	12.34
486.0	12.18
486.2	12.71
486.4	12.82
486.6	13.35
486.8	13.54
487.0	13.98
487.2	14.36
487.4	15.29
487.6	15.93
487.8	16.47
488.0	17.08
488.2	17.31
488.4	17.95
488.6	18.70
488.8	19.64
489.0	20.43
489.2	21.28
489.4	21.47
489.6	22.01
489.8	22.49
490.0	23.30
490.2	24.27
490.4	24.97
490.6	25.35
490.8	26.10
491.0	26.51
491.2	27.47
491.4	28.57
491.6	29.03
491.8	29.43
492.0	30.23
492.2	31.10
492.4	32.43
492.6	33.70
492.8	34.91
493.0	35.87
493.2	37.03
493.4	38.42
493.6	39.55
493.8	40.81
494.0	41.44
494.2	41.74
494.4	41.81
494.6	42.91
494.8	43.77
495.0	45.74
495.2	47.45
495.4	49.09
495.6	50.89
495.8	52.53
496.0	52.84
496.2	53.78
496.4	55.77
496.6	57.26
496.8	58.82
497.0	60.35
497.2	60.96
497.4	62.19
497.6	64.28
497.8	65.18
498.0	65.56
498.2	67.30
498.4	68.34
498.6	70.39
498.8	71.77
499.0	72.85
499.2	74.50
499.4	77.52
499.6	79.57
499.8	81.61
500.0	83.08
500.2	84.18
500.4	85.82
500.6	87.44
500.8	88.64
501.0	91.13
501.2	94.00
501.4	95.73
501.6	97.14
501.8	98.50
502.0	99.85
502.2	102.6
502.4	105.4
502.6	108.4
502.8	111.2
503.0	113.5
503.2	115.7
503.4	116.4
503.6	117.0
503.8	117.4
504.0	119.2
504.2	121.0
504.4	125.0
504.6	127.6
504.8	130.8
505.0	131.8
505.2	133.6
505.4	136.2
505.6	138.9
505.8	140.4
506.0	142.3
506.2	144.0
506.4	146.7
506.6	151.3
506.8	154.3
507.0	156.5
507.2	157.3
507.4	158.9
507.6	160.5
507.8	163.3
508.0	166.3
508.2	169.0
508.4	170.4
508.6	172.4
508.8	173.7
509.0	176.8
509.2	181.3
509.4	184.6
509.6	186.6
509.8	188.6
510.0	188.6
510.2	191.5
510.4	195.0
510.6	198.5
510.8	202.4
511.0	205.9
511.2	208.0
511.4	208.6
511.6	210.5
511.8	211.0
512.0	213.8
512.2	217.3
512.4	220.1
512.6	221.4
512.8	223.6
513.0	224.5
513.2	226.2
513.4	229.0
513.6	231.5
513.8	234.0
514.0	235.9
514.2	238.2
514.4	242.2
514.6	245.4
514.8	249.2
515.0	250.9
515.2	251.2
515.4	251.6
515.6	256.1
515.8	256.3
516.0	258.2
516.2	260.7
516.4	262.6
516.6	265.2
516.8	270.8
517.0	272.6
517.2	273.1
517.4	273.7
517.6	274.9
517.8	275.8
518.0	278.8
518.2	280.6
518.4	281.4
518.6	281.1
518.8	283.4
519.0	284.6
519.2	287.0
519.4	289.0
519.6	290.2
519.8	291.1
520.0	294.8
520.2	296.4
520.4	300.3
520.6	301.6
520.8	301.2
521.0	303.2
521.2	304.5
521.4	307.8
521.6	310.2
521.8	312.5
522.0	314.2
522.2	317.9
522.4	319.1
522.6	320.6
522.8	320.6
523.0	321.1
523.2	322.7
523.4	325.8
523.6	327.7
523.8	329.9
524.0	331.8
524.2	330.1
524.4	329.7
524.6	329.5
524.8	331.2
525.0	333.6
525.2	335.9
525.4	338.2
525.6	339.0
525.8	341.4
526.0	346.6
526.2	347.3
526.4	347.4
526.6	347.4
526.8	347.6
527.0	350.8
527.2	353.2
527.4	353.1
527.6	353.5
527.8	353.0
528.0	354.5
528.2	357.0
528.4	357.1
528.6	358.6
528.8	357.3
529.0	356.5
529.2	357.1
529.4	358.5
529.6	361.9
529.8	364.7
530.0	364.1
530.2	364.6
530.4	364.9
530.6	365.4
530.8	369.2
531.0	368.7
531.2	370.1
531.4	368.1
531.6	366.4
531.8	367.6
532.0	369.5
532.2	370.6
532.4	372.3
532.6	370.6
532.8	369.5
533.0	371.2
533.2	370.2
533.4	371.7
533.6	372.0
533.8	372.1
534.0	372.7
534.2	372.7
534.4	373.4
534.6	374.9
534.8	377.4
535.0	378.8
535.2	378.1
535.4	377.5
535.6	379.6
535.8	378.3
536.0	377.5
536.2	378.1
536.4	376.5
536.6	378.5
536.8	379.6
537.0	378.1
537.2	376.2
537.4	378.8
537.6	379.0
537.8	379.4
538.0	377.9
538.2	378.1
538.4	376.0
538.6	378.0
538.8	377.7
539.0	377.9
539.2	377.6
539.4	381.0
539.6	382.1
539.8	382.1
540.0	381.2
540.2	378.7
540.4	377.7
540.6	380.5
540.8	381.5
541.0	381.0
541.2	379.6
541.4	378.6
541.6	381.7
541.8	382.8
542.0	382.8
542.2	382.4
542.4	378.6
542.6	377.0
542.8	378.7
543.0	377.8
543.2	378.4
543.4	377.6
543.6	374.9
543.8	371.6
544.0	373.7
544.2	376.3
544.4	379.2
544.6	380.4
544.8	378.8
545.0	375.9
545.2	376.0
545.4	374.8
545.6	372.5
545.8	371.0
546.0	369.2
546.2	367.7
546.4	369.9
546.6	369.2
546.8	369.0
547.0	369.6
547.2	369.0
547.4	368.9
547.6	370.4
547.8	368.1
548.0	368.7
548.2	367.7
548.4	367.0
548.6	367.5
548.8	369.7
549.0	370.3
549.2	370.0
549.4	367.5
549.6	365.1
549.8	363.1
550.0	364.3
550.2	364.6
550.4	363.5
550.6	361.6
550.8	359.6
551.0	360.3
551.2	360.4
551.4	359.3
551.6	359.9
551.8	357.8
552.0	356.6
552.2	357.0
552.4	356.9
552.6	356.8
552.8	356.3
553.0	354.5
553.2	353.2
553.4	350.9
553.6	350.4
553.8	350.8
554.0	350.5
554.2	349.7
554.4	349.5
554.6	346.1
554.8	344.9
555.0	344.4
555.2	346.1
555.4	347.1
555.6	348.0
555.8	348.7
556.0	348.5
556.2	347.7
556.4	344.9
556.6	341.2
556.8	339.2
557.0	339.3
557.2	338.8
557.4	338.7
557.6	337.3
557.8	336.2
558.0	335.4
558.2	334.1
558.4	332.9
558.6	331.4
558.8	331.5
559.0	331.6
559.2	329.9
559.4	331.5
559.6	331.0
559.8	328.7
560.0	329.1
560.2	328.5
560.4	326.5
560.6	327.6
560.8	325.7
561.0	326.0
561.2	327.5
561.4	326.6
561.6	324.3
561.8	322.9
562.0	319.8
562.2	321.3
562.4	320.5
562.6	317.9
562.8	315.4
563.0	315.8
563.2	313.7
563.4	313.7
563.6	312.9
563.8	311.4
564.0	310.6
564.2	310.5
564.4	309.4
564.6	308.4
564.8	307.4
565.0	305.8
565.2	307.0
565.4	304.9
565.6	304.0
565.8	302.6
566.0	301.3
566.2	300.4
566.4	301.5
566.6	299.1
566.8	298.8
567.0	296.4
567.2	295.1
567.4	294.1
567.6	293.2
567.8	291.7
568.0	292.2
568.2	293.8
568.4	295.6
568.6	294.4
568.8	290.7
569.0	287.2
569.2	287.3
569.4	288.9
569.6	289.9
569.8	288.0
570.0	285.3
570.2	286.3
570.4	286.8
570.6	284.1
570.8	280.9
571.0	277.6
571.2	274.5
571.4	276.7
571.6	277.9
571.8	277.8
572.0	277.7
572.2	274.9
572.4	271.4
572.6	269.1
572.8	269.5
573.0	269.9
573.2	271.3
573.4	270.6
573.6	269.9
573.8	266.8
574.0	265.6
574.2	265.1
574.4	264.7
574.6	265.7
574.8	264.7
575.0	262.5
575.2	261.9
575.4	262.0
575.6	261.0
575.8	260.5
576.0	259.9
576.2	257.9
576.4	257.4
576.6	257.3
576.8	255.9
577.0	253.6
577.2	254.4
577.4	253.1
577.6	251.2
577.8	250.3
578.0	248.3
578.2	246.8
578.4	247.2
578.6	246.8
578.8	247.3
579.0	247.3
579.2	246.2
579.4	246.0
579.6	245.0
579.8	243.9
580.0	243.3
580.2	241.0
580.4	238.1
580.6	237.0
580.8	235.2
581.0	233.8
581.2	232.2
581.4	231.5
581.6	232.0
581.8	234.4
582.0	234.5
582.2	232.4
582.4	229.6
582.6	227.9
582.8	227.2
583.0	228.1
583.2	226.8
583.4	225.0
583.6	223.7
583.8	223.3
584.0	223.4
584.2	222.4
584.4	220.5
584.6	219.5
584.8	218.0
585.0	217.6
585.2	218.5
585.4	217.6
585.6	217.3
585.8	215.5
586.0	212.0
586.2	211.6
586.4	211.9
586.6	213.1
586.8	212.6
587.0	211.3
587.2	206.9
587.4	205.8
587.6	204.9
587.8	205.4
588.0	204.5
588.2	205.7
588.4	204.9
588.6	205.9
588.8	205.3
589.0	203.5
589.2	201.8
589.4	200.6
589.6	199.4
589.8	198.4
590.0	197.1
590.2	195.7
590.4	194.8
590.6	194.8
590.8	193.7
591.0	192.2
591.2	190.8
591.4	189.6
591.6	187.4
591.8	187.2
592.0	186.8
592.2	185.8
592.4	183.9
592.6	184.4
592.8	184.2
593.0	183.5
593.2	183.1
593.4	183.0
593.6	182.2
593.8	182.5
594.0	182.8
594.2	181.5
594.4	179.7
594.6	177.9
594.8	177.7
595.0	175.8
595.2	175.0
595.4	175.4
595.6	174.9
595.8	174.6
596.0	174.8
596.2	174.0
596.4	172.0
596.6	170.8
596.8	168.9
597.0	168.0
597.2	167.9
597.4	167.8
597.6	168.5
597.8	168.4
598.0	167.4
598.2	165.8
598.4	165.2
598.6	163.4
598.8	162.5
599.0	160.9
599.2	159.4
599.4	159.1
599.6	160.0
599.8	160.2
600.0	158.8
600.2	158.7
600.4	157.6
600.6	156.2
600.8	156.5
601.0	155.5
601.2	153.9
601.4	153.4
601.6	152.7
601.8	152.2
602.0	153.0
602.2	152.1
602.4	151.5
602.6	150.8
602.8	149.5
603.0	149.4
603.2	147.6
603.4	145.7
603.6	146.2
603.8	147.0
604.0	146.9
604.2	146.4
604.4	143.4
604.6	141.9
604.8	142.3
605.0	142.2
605.2	141.8
605.4	141.9
605.6	140.2
605.8	138.4
606.0	137.3
606.2	137.4
606.4	138.1
606.6	138.5
606.8	138.3
607.0	136.1
607.2	134.0
607.4	133.8
607.6	133.0
607.8	131.7
608.0	130.0
608.2	130.0
608.4	129.9
608.6	130.8
608.8	130.8
609.0	130.6
609.2	128.7
609.4	128.4
609.6	126.8
609.8	125.1
610.0	124.3
610.2	124.2
610.4	124.7
610.6	125.0
610.8	124.4
611.0	123.5
611.2	122.5
611.4	121.2
611.6	120.7
611.8	120.5
612.0	120.0
612.2	120.2
612.4	119.5
612.6	118.1
612.8	116.4
613.0	115.9
613.2	114.9
613.4	114.3
613.6	114.1
613.8	113.5
614.0	113.4
614.2	112.7
614.4	112.2
614.6	112.3
614.8	113.1
615.0	112.0
615.2	111.8
615.4	109.6
615.6	107.9
615.8	106.9
616.0	107.4
616.2	107.0
616.4	107.8
616.6	107.7
616.8	108.2
617.0	107.8
617.2	107.3
617.4	105.7
617.6	103.8
617.8	102.6
618.0	102.6
618.2	102.5
618.4	102.8
618.6	102.9
618.8	102.5
619.0	102.3
619.2	100.7
619.4	99.48
619.6	99.06
619.8	98.40
620.0	97.50
620.2	97.67
620.4	97.53
620.6	97.43
620.8	97.13
621.0	95.69
621.2	94.06
621.4	94.10
621.6	94.43
621.8	94.88
622.0	94.70
622.2	93.31
622.4	92.69
622.6	92.34
622.8	91.88
623.0	92.35
623.2	91.59
623.4	90.66
623.6	89.86
623.8	90.08
624.0	89.54
624.2	89.57
624.4	88.80
624.6	88.08
624.8	87.94
625.0	88.91
625.2	88.17
625.4	87.34
625.6	85.46
625.8	82.96
626.0	82.79
626.2	82.62
626.4	82.81
626.6	82.92
626.8	82.76
627.0	81.65
627.2	81.48
627.4	80.26
627.6	79.75
627.8	78.88
628.0	78.08
628.2	78.29
628.4	78.64
628.6	78.47
628.8	78.05
629.0	76.92
629.2	75.64
629.4	74.75
629.6	74.01
629.8	74.84
630.0	74.89
630.2	75.47
630.4	76.10
630.6	75.11
630.8	73.69
631.0	71.93
631.2	70.05
631.4	69.86
631.6	69.99
631.8	70.85
632.0	70.99
632.2	71.21
632.4	71.12
632.6	70.60
632.8	69.27
633.0	67.96
633.2	67.91
633.4	68.49
633.6	68.41
633.8	68.27
634.0	67.68
634.2	66.02
634.4	66.22
634.6	66.30
634.8	66.24
635.0	65.66
635.2	65.08
635.4	63.86
635.6	62.96
635.8	62.81
636.0	62.67
636.2	62.23
636.4	63.08
636.6	62.80
636.8	62.00
637.0	60.28
637.2	59.66
637.4	59.23
637.6	59.96
637.8	60.07
638.0	59.63
638.2	59.19
638.4	60.02
638.6	59.77
638.8	59.37
639.0	57.96
639.2	56.41
639.4	55.97
639.6	56.01
639.8	55.95
640.0	55.60
640.2	54.86
640.4	54.69
640.6	54.52
640.8	54.20
641.0	54.53
641.2	54.26
641.4	53.81
641.6	54.23
641.8	54.13
642.0	53.21
642.2	52.71
642.4	51.76
642.6	51.57
642.8	52.11
643.0	51.63
643.2	50.35
643.4	49.58
643.6	49.45
643.8	49.64
644.0	49.86
644.2	49.09
644.4	47.89
644.6	47.07
644.8	47.02
645.0	46.73
645.2	47.78
645.4	48.17
645.6	47.75
645.8	47.22
646.0	46.56
646.2	46.28
646.4	46.27
646.6	46.50
646.8	46.06
647.0	45.64
647.2	44.98
647.4	44.39
647.6	44.20
647.8	44.68
648.0	45.09
648.2	45.43
648.4	44.93
648.6	43.63
648.8	43.62
649.0	43.59
649.2	44.00
649.4	43.79
649.6	42.56
649.8	41.65
650.0	41.58
650.2	41.78
650.4	41.83
650.6	41.31
650.8	40.45
651.0	40.21
651.2	40.09
651.4	39.93
651.6	39.24
651.8	38.82
652.0	38.04
652.2	38.05
652.4	38.60
652.6	38.38
652.8	38.11
653.0	38.09
653.2	37.32
653.4	37.18
653.6	37.28
653.8	37.01
654.0	36.83
654.2	36.69
654.4	36.55
654.6	36.47
654.8	36.12
655.0	35.28
655.2	34.57
655.4	34.13
655.6	33.80
655.8	34.10
656.0	34.41
656.2	34.69
656.4	34.88
656.6	34.65
656.8	33.42
657.0	32.59
657.2	32.25
657.4	32.53
657.6	32.87
657.8	32.59
658.0	32.23
658.2	32.04
658.4	31.95
658.6	31.96
658.8	31.94
659.0	31.10
659.2	30.98
659.4	30.96
659.6	30.95
659.8	30.78
660.0	30.49
660.2	30.24
660.4	29.91
660.6	29.48
660.8	29.19
661.0	28.40
661.2	28.22
661.4	28.45
661.6	28.77
661.8	29.02
662.0	29.13
662.2	28.11
662.4	27.43
662.6	26.89
662.8	26.93
663.0	27.16
663.2	27.65
663.4	27.48
663.6	27.61
663.8	26.94
664.0	26.23
664.2	25.82
664.4	25.28
664.6	25.60
664.8	26.17
665.0	26.28
665.2	26.49
665.4	26.16
665.6	25.40
665.8	25.78
666.0	25.68
666.2	25.45
666.4	25.17
666.6	24.65
666.8	24.42
667.0	24.60
667.2	24.38
667.4	23.96
667.6	24.12
667.8	23.89
668.0	23.58
668.2	23.27
668.4	23.32
668.6	23.07
668.8	23.07
669.0	22.46
669.2	22.04
669.4	22.29
669.6	22.19
669.8	21.97
670.0	21.69
670.2	21.61
670.4	21.84
670.6	22.45
670.8	22.32
671.0	21.95
671.2	21.43
671.4	21.08
671.6	21.02
671.8	21.06
672.0	20.92
672.2	20.80
672.4	20.57
672.6	20.84
672.8	20.56
673.0	20.46
673.2	20.07
673.4	19.88
673.6	19.62
673.8	19.77
674.0	19.53
674.2	20.03
674.4	19.81
674.6	19.53
674.8	19.19
675.0	18.98
675.2	18.95
675.4	19.39
675.6	19.03
675.8	18.72
676.0	18.36
676.2	18.08
676.4	17.52
676.6	17.55
676.8	17.55
677.0	17.00
677.2	16.87
677.4	17.00
677.6	16.43
677.8	16.84
678.0	17.46
678.2	16.84
678.4	16.85
678.6	16.44
678.8	16.22
679.0	16.35
679.2	16.73
679.4	17.01
679.6	17.11
679.8	16.69
680.0	16.92
680.2	16.48
680.4	16.20
680.6	16.41
680.8	16.03
681.0	15.66
681.2	15.60
681.4	15.43
681.6	15.45
681.8	15.46
682.0	15.20
682.2	14.73
682.4	14.12
682.6	13.93
682.8	14.16
683.0	14.23
683.2	14.68
683.4	14.43
683.6	14.22
683.8	14.23
684.0	14.45
684.2	14.46
684.4	14.01
684.6	13.45
684.8	13.29
685.0	13.20
685.2	13.35
685.4	13.42
685.6	12.99
685.8	13.30
686.0	13.08
686.2	12.99
686.4	12.64
686.6	12.29
686.8	12.49
687.0	12.72
687.2	12.52
687.4	12.22
687.6	12.07
687.8	12.14
688.0	12.56
688.2	12.28
688.4	12.32
688.6	12.00
688.8	12.14
689.0	12.29
689.2	12.32
689.4	11.84
689.6	11.76
689.8	11.44
690.0	11.18
690.2	11.42
690.4	11.40
690.6	11.33
690.8	11.23
691.0	11.01
691.2	11.04
691.4	11.51
691.6	11.34
691.8	11.04
692.0	10.72
692.2	10.63
692.4	10.60
692.6	10.63
692.8	10.30
693.0	10.22
693.2	10.46
693.4	10.75
693.6	10.50
693.8	10.56
694.0	10.30
694.2	10.29
694.4	10.39
694.6	10.56
694.8	10.12
695.0	10.21
695.2	10.08
695.4	9.920
695.6	9.877
695.8	9.734
696.0	9.310
696.2	9.285
696.4	9.252
696.6	9.411
696.8	9.575
697.0	9.386
697.2	9.032
697.4	8.992
697.6	8.808
697.8	8.985
698.0	9.495
698.2	9.838
698.4	9.713
698.6	9.534
698.8	9.060
699.0	8.715
699.2	9.126
699.4	9.198
699.6	9.474
699.8	9.517
700.0	9.194
700.2	8.839
700.4	8.675
700.6	8.512
700.8	8.802
701.0	9.088
701.2	8.760
701.4	8.732
701.6	8.791
701.8	8.779
702.0	8.723
702.2	8.768
702.4	8.327
702.6	8.086
702.8	7.956
703.0	7.655
703.2	7.620
703.4	7.479
703.6	7.677
703.8	7.675
704.0	7.745
704.2	7.742
704.4	7.632
704.6	7.359
704.8	7.641
705.0	7.370
705.2	7.433
705.4	7.227
705.6	7.041
705.8	7.114
706.0	7.182
706.2	7.011
706.4	7.342
706.6	7.224
706.8	7.239
707.0	7.208
707.2	6.862
707.4	6.684
707.6	6.951
707.8	6.789
708.0	7.228
708.2	7.175
708.4	6.997
708.6	6.874
708.8	6.844
709.0	6.722
709.2	7.078
709.4	6.893
709.6	6.962
