Sample:	'20211010A(EM)
File name:	G-NI 3.FDS
Run date:	'17:14:38, 06/19/2023
Operator:	Administrator
Comment:	'

Instrument
Model:	F-4700 FL Spectrophotometer
Serial number:	2019-001
ROM Version:	5J24010 00

Instrument parameters
Measurement type:	Wavelength scan
Scan mode:	Emission
Data mode:	Fluorescence
EX WL:	400.0 nm
EM  Start WL:	420.0 nm
EM  End WL:	800.0 nm
Scan speed:	1200 nm/min
Delay:	0.0 s
EX Slit:	10.0 nm
EM Slit:	10.0 nm
PMT Voltage:	500 V
Response:	0.002 s
Corrected spectra:	Off
Shutter control:	On

Processing performed
Savitsky-Golay smoothed
Smoothing order:	3
Number of points:	7
Number of times:	1

Peak integration
Integration method:	Rectangular
Sensitivity:	1
Threshold:	1.000

Peaks
No.	Start(nm)	Apex(nm)	End(nm)	Height(Data)	Valley(nm)	Valley(Data)
1	420.0	536.4	537.4	2422	537.4	2401
2	537.4	538.0	538.8	2418	538.8	2404
3	538.8	540.6	723.6	2418	723.6	25.15
4	723.6	724.4	737.6	27.39	737.6	15.81
5	737.6	738.6	740.0	16.88	740.0	14.56
6	740.0	740.8	790.4	15.89	790.4	3.785
7	790.4	793.2	800.0	4.889	800.0	4.151

Data points
nm	Data
420.0	1.633
420.2	1.504
420.4	1.501
420.6	1.536
420.8	1.447
421.0	1.295
421.2	1.254
421.4	1.336
421.6	1.319
421.8	1.378
422.0	1.430
422.2	1.475
422.4	1.520
422.6	1.536
422.8	1.486
423.0	1.461
423.2	1.607
423.4	1.761
423.6	1.712
423.8	1.692
424.0	1.741
424.2	1.603
424.4	1.500
424.6	1.547
424.8	1.462
425.0	1.604
425.2	1.835
425.4	1.704
425.6	1.522
425.8	1.596
426.0	1.505
426.2	1.630
426.4	1.713
426.6	1.657
426.8	1.654
427.0	1.758
427.2	1.727
427.4	1.776
427.6	1.691
427.8	1.727
428.0	1.720
428.2	1.555
428.4	1.578
428.6	1.611
428.8	1.642
429.0	1.776
429.2	1.769
429.4	1.660
429.6	1.622
429.8	1.582
430.0	1.465
430.2	1.420
430.4	1.353
430.6	1.420
430.8	1.500
431.0	1.716
431.2	1.750
431.4	1.848
431.6	1.712
431.8	1.696
432.0	1.614
432.2	1.556
432.4	1.586
432.6	1.679
432.8	1.693
433.0	1.822
433.2	1.733
433.4	1.631
433.6	1.453
433.8	1.490
434.0	1.589
434.2	1.724
434.4	1.752
434.6	1.703
434.8	1.409
435.0	1.455
435.2	1.524
435.4	1.669
435.6	1.795
435.8	1.778
436.0	1.647
436.2	1.657
436.4	1.564
436.6	1.488
436.8	1.448
437.0	1.577
437.2	1.697
437.4	1.888
437.6	1.745
437.8	1.757
438.0	1.722
438.2	1.691
438.4	1.742
438.6	1.706
438.8	1.539
439.0	1.533
439.2	1.437
439.4	1.481
439.6	1.809
439.8	1.874
440.0	1.892
440.2	1.787
440.4	1.561
440.6	1.655
440.8	1.687
441.0	1.628
441.2	1.597
441.4	1.683
441.6	1.733
441.8	1.793
442.0	1.733
442.2	1.759
442.4	1.740
442.6	1.662
442.8	1.639
443.0	1.552
443.2	1.550
443.4	1.717
443.6	1.744
443.8	1.688
444.0	1.630
444.2	1.725
444.4	1.591
444.6	1.585
444.8	1.499
445.0	1.463
445.2	1.610
445.4	2.011
445.6	2.069
445.8	2.032
446.0	1.876
446.2	1.620
446.4	1.698
446.6	1.769
446.8	1.882
447.0	1.984
447.2	1.923
447.4	1.929
447.6	1.943
447.8	1.777
448.0	1.709
448.2	1.628
448.4	1.609
448.6	1.713
448.8	1.721
449.0	1.809
449.2	1.833
449.4	1.742
449.6	1.745
449.8	1.706
450.0	1.697
450.2	1.861
450.4	1.850
450.6	1.841
450.8	1.856
451.0	1.911
451.2	1.914
451.4	1.987
451.6	1.924
451.8	1.931
452.0	1.986
452.2	1.859
452.4	1.720
452.6	1.864
452.8	1.846
453.0	1.856
453.2	1.794
453.4	1.826
453.6	1.961
453.8	2.106
454.0	2.013
454.2	2.038
454.4	1.921
454.6	2.014
454.8	2.020
455.0	2.046
455.2	2.092
455.4	2.199
455.6	2.222
455.8	2.238
456.0	2.005
456.2	1.874
456.4	2.027
456.6	1.943
456.8	1.939
457.0	2.034
457.2	1.946
457.4	1.722
457.6	1.710
457.8	1.758
458.0	1.836
458.2	2.071
458.4	2.260
458.6	2.128
458.8	2.199
459.0	2.480
459.2	2.544
459.4	2.647
459.6	2.632
459.8	2.298
460.0	2.078
460.2	1.981
460.4	1.991
460.6	2.080
460.8	2.305
461.0	2.403
461.2	2.505
461.4	2.418
461.6	2.336
461.8	2.272
462.0	2.355
462.2	2.387
462.4	2.439
462.6	2.466
462.8	2.424
463.0	2.547
463.2	2.615
463.4	2.807
463.6	2.977
463.8	3.199
464.0	2.950
464.2	2.783
464.4	2.663
464.6	2.913
464.8	3.185
465.0	3.357
465.2	3.300
465.4	3.418
465.6	3.485
465.8	3.618
466.0	3.715
466.2	3.764
466.4	3.726
466.6	3.672
466.8	3.422
467.0	3.653
467.2	3.889
467.4	4.170
467.6	4.161
467.8	4.250
468.0	4.258
468.2	4.540
468.4	4.718
468.6	4.720
468.8	4.715
469.0	4.846
469.2	4.937
469.4	5.027
469.6	5.358
469.8	5.455
470.0	5.865
470.2	5.940
470.4	5.999
470.6	6.080
470.8	6.185
471.0	6.285
471.2	6.715
471.4	6.887
471.6	6.888
471.8	7.293
472.0	7.454
472.2	7.923
472.4	8.506
472.6	8.591
472.8	8.647
473.0	8.853
473.2	8.970
473.4	9.453
473.6	9.947
473.8	10.46
474.0	11.09
474.2	11.20
474.4	11.80
474.6	12.20
474.8	12.55
475.0	13.08
475.2	13.47
475.4	13.54
475.6	13.99
475.8	14.65
476.0	15.04
476.2	15.98
476.4	16.44
476.6	16.95
476.8	18.05
477.0	19.29
477.2	19.50
477.4	20.30
477.6	20.14
477.8	20.36
478.0	21.64
478.2	22.41
478.4	23.09
478.6	24.50
478.8	25.61
479.0	26.57
479.2	27.49
479.4	27.52
479.6	28.54
479.8	29.86
480.0	31.13
480.2	31.84
480.4	32.19
480.6	32.73
480.8	34.41
481.0	35.45
481.2	36.68
481.4	38.18
481.6	38.91
481.8	40.81
482.0	43.27
482.2	45.41
482.4	47.06
482.6	48.80
482.8	49.81
483.0	51.44
483.2	53.26
483.4	55.20
483.6	56.77
483.8	59.19
484.0	61.93
484.2	64.81
484.4	67.38
484.6	68.22
484.8	68.89
485.0	71.10
485.2	72.67
485.4	75.05
485.6	77.91
485.8	81.30
486.0	84.56
486.2	88.64
486.4	91.91
486.6	94.42
486.8	96.81
487.0	98.45
487.2	100.1
487.4	103.1
487.6	107.0
487.8	110.2
488.0	114.8
488.2	118.0
488.4	122.0
488.6	126.5
488.8	131.0
489.0	134.2
489.2	137.7
489.4	141.9
489.6	145.5
489.8	151.0
490.0	156.1
490.2	161.6
490.4	165.7
490.6	170.8
490.8	175.6
491.0	182.0
491.2	187.5
491.4	194.1
491.6	198.2
491.8	203.4
492.0	210.3
492.2	216.9
492.4	221.9
492.6	226.6
492.8	228.2
493.0	233.1
493.2	241.8
493.4	251.3
493.6	259.4
493.8	266.5
494.0	271.6
494.2	278.3
494.4	286.0
494.6	293.6
494.8	302.5
495.0	311.2
495.2	319.1
495.4	327.0
495.6	335.9
495.8	344.3
496.0	354.3
496.2	363.7
496.4	371.5
496.6	379.2
496.8	386.9
497.0	395.3
497.2	405.2
497.4	415.0
497.6	424.0
497.8	433.8
498.0	443.2
498.2	455.1
498.4	464.9
498.6	474.1
498.8	483.1
499.0	493.8
499.2	503.1
499.4	513.7
499.6	523.4
499.8	533.8
500.0	546.6
500.2	562.3
500.4	575.5
500.6	590.2
500.8	600.2
501.0	608.5
501.2	617.3
501.4	630.3
501.6	643.5
501.8	656.9
502.0	667.9
502.2	679.6
502.4	694.5
502.6	709.8
502.8	723.5
503.0	734.9
503.2	747.0
503.4	758.5
503.6	774.1
503.8	787.1
504.0	797.5
504.2	811.4
504.4	822.4
504.6	835.7
504.8	848.7
505.0	864.5
505.2	879.1
505.4	896.8
505.6	912.8
505.8	927.8
506.0	939.7
506.2	954.3
506.4	967.9
506.6	978.5
506.8	993.8
507.0	1008
507.2	1025
507.4	1039
507.6	1057
507.8	1069
508.0	1084
508.2	1102
508.4	1117
508.6	1127
508.8	1144
509.0	1160
509.2	1174
509.4	1195
509.6	1211
509.8	1225
510.0	1237
510.2	1250
510.4	1259
510.6	1275
510.8	1292
511.0	1305
511.2	1319
511.4	1335
511.6	1351
511.8	1365
512.0	1379
512.2	1394
512.4	1409
512.6	1424
512.8	1439
513.0	1450
513.2	1462
513.4	1476
513.6	1491
513.8	1505
514.0	1521
514.2	1536
514.4	1552
514.6	1566
514.8	1579
515.0	1592
515.2	1608
515.4	1622
515.6	1636
515.8	1652
516.0	1666
516.2	1684
516.4	1698
516.6	1712
516.8	1722
517.0	1734
517.2	1745
517.4	1759
517.6	1769
517.8	1783
518.0	1795
518.2	1808
518.4	1817
518.6	1829
518.8	1842
519.0	1856
519.2	1870
519.4	1883
519.6	1894
519.8	1903
520.0	1915
520.2	1927
520.4	1934
520.6	1940
520.8	1955
521.0	1967
521.2	1987
521.4	2002
521.6	2014
521.8	2021
522.0	2033
522.2	2039
522.4	2048
522.6	2052
522.8	2062
523.0	2070
523.2	2080
523.4	2084
523.6	2091
523.8	2104
524.0	2121
524.2	2130
524.4	2141
524.6	2138
524.8	2135
525.0	2146
525.2	2161
525.4	2171
525.6	2185
525.8	2190
526.0	2195
526.2	2203
526.4	2207
526.6	2214
526.8	2221
527.0	2230
527.2	2240
527.4	2248
527.6	2254
527.8	2263
528.0	2266
528.2	2270
528.4	2276
528.6	2284
528.8	2287
529.0	2289
529.2	2288
529.4	2289
529.6	2296
529.8	2305
530.0	2312
530.2	2320
530.4	2326
530.6	2330
530.8	2336
531.0	2338
531.2	2340
531.4	2345
531.6	2348
531.8	2352
532.0	2358
532.2	2359
532.4	2361
532.6	2362
532.8	2366
533.0	2369
533.2	2376
533.4	2384
533.6	2389
533.8	2391
534.0	2389
534.2	2389
534.4	2388
534.6	2391
534.8	2392
535.0	2398
535.2	2401
535.4	2406
535.6	2406
535.8	2407
536.0	2412
536.2	2416
536.4	2422
536.6	2418
536.8	2408
537.0	2402
537.2	2405
537.4	2401
537.6	2410
537.8	2414
538.0	2418
538.2	2418
538.4	2415
538.6	2407
538.8	2404
539.0	2407
539.2	2412
539.4	2417
539.6	2415
539.8	2414
540.0	2411
540.2	2415
540.4	2412
540.6	2418
540.8	2415
541.0	2412
541.2	2408
541.4	2407
541.6	2405
541.8	2410
542.0	2408
542.2	2402
542.4	2398
542.6	2396
542.8	2395
543.0	2400
543.2	2397
543.4	2394
543.6	2389
543.8	2387
544.0	2388
544.2	2392
544.4	2383
544.6	2378
544.8	2372
545.0	2377
545.2	2384
545.4	2392
545.6	2381
545.8	2373
546.0	2363
546.2	2361
546.4	2357
546.6	2358
546.8	2355
547.0	2356
547.2	2353
547.4	2350
547.6	2341
547.8	2336
548.0	2340
548.2	2337
548.4	2333
548.6	2326
548.8	2321
549.0	2318
549.2	2317
549.4	2307
549.6	2305
549.8	2302
550.0	2301
550.2	2301
550.4	2295
550.6	2295
550.8	2292
551.0	2287
551.2	2278
551.4	2271
551.6	2263
551.8	2262
552.0	2259
552.2	2255
552.4	2250
552.6	2247
552.8	2243
553.0	2239
553.2	2240
553.4	2236
553.6	2234
553.8	2230
554.0	2230
554.2	2226
554.4	2221
554.6	2212
554.8	2202
555.0	2196
555.2	2198
555.4	2197
555.6	2198
555.8	2193
556.0	2185
556.2	2178
556.4	2170
556.6	2162
556.8	2156
557.0	2154
557.2	2152
557.4	2146
557.6	2140
557.8	2135
558.0	2131
558.2	2129
558.4	2130
558.6	2125
558.8	2121
559.0	2113
559.2	2107
559.4	2101
559.6	2097
559.8	2090
560.0	2088
560.2	2082
560.4	2073
560.6	2064
560.8	2059
561.0	2054
561.2	2052
561.4	2048
561.6	2046
561.8	2040
562.0	2037
562.2	2035
562.4	2025
562.6	2016
562.8	2012
563.0	2003
563.2	1996
563.4	1992
563.6	1983
563.8	1982
564.0	1982
564.2	1983
564.4	1983
564.6	1977
564.8	1967
565.0	1957
565.2	1952
565.4	1950
565.6	1950
565.8	1942
566.0	1929
566.2	1910
566.4	1904
566.6	1904
566.8	1900
567.0	1895
567.2	1890
567.4	1881
567.6	1878
567.8	1873
568.0	1862
568.2	1854
568.4	1848
568.6	1846
568.8	1845
569.0	1841
569.2	1838
569.4	1830
569.6	1820
569.8	1813
570.0	1811
570.2	1809
570.4	1805
570.6	1798
570.8	1790
571.0	1780
571.2	1771
571.4	1766
571.6	1761
571.8	1756
572.0	1754
572.2	1747
572.4	1739
572.6	1734
572.8	1726
573.0	1722
573.2	1715
573.4	1710
573.6	1707
573.8	1703
574.0	1695
574.2	1688
574.4	1676
574.6	1667
574.8	1664
575.0	1661
575.2	1652
575.4	1643
575.6	1636
575.8	1632
576.0	1629
576.2	1623
576.4	1619
576.6	1608
576.8	1606
577.0	1603
577.2	1594
577.4	1590
577.6	1584
577.8	1575
578.0	1572
578.2	1570
578.4	1563
578.6	1559
578.8	1552
579.0	1545
579.2	1537
579.4	1534
579.6	1525
579.8	1519
580.0	1514
580.2	1507
580.4	1502
580.6	1496
580.8	1490
581.0	1484
581.2	1482
581.4	1480
581.6	1477
581.8	1470
582.0	1462
582.2	1456
582.4	1452
582.6	1445
582.8	1441
583.0	1436
583.2	1427
583.4	1422
583.6	1417
583.8	1408
584.0	1403
584.2	1397
584.4	1393
584.6	1385
584.8	1382
585.0	1373
585.2	1370
585.4	1366
585.6	1366
585.8	1355
586.0	1347
586.2	1335
586.4	1333
586.6	1329
586.8	1329
587.0	1324
587.2	1315
587.4	1307
587.6	1304
587.8	1300
588.0	1298
588.2	1293
588.4	1288
588.6	1283
588.8	1279
589.0	1273
589.2	1260
589.4	1251
589.6	1246
589.8	1244
590.0	1243
590.2	1244
590.4	1233
590.6	1222
590.8	1215
591.0	1210
591.2	1210
591.4	1209
591.6	1203
591.8	1200
592.0	1196
592.2	1188
592.4	1182
592.6	1171
592.8	1169
593.0	1170
593.2	1164
593.4	1157
593.6	1148
593.8	1139
594.0	1136
594.2	1135
594.4	1131
594.6	1129
594.8	1125
595.0	1118
595.2	1114
595.4	1110
595.6	1104
595.8	1099
596.0	1091
596.2	1086
596.4	1082
596.6	1082
596.8	1080
597.0	1076
597.2	1068
597.4	1062
597.6	1055
597.8	1053
598.0	1052
598.2	1047
598.4	1041
598.6	1035
598.8	1031
599.0	1025
599.2	1019
599.4	1015
599.6	1010
599.8	1007
600.0	1002
600.2	994.6
600.4	990.2
600.6	989.7
600.8	986.6
601.0	984.5
601.2	981.0
601.4	978.4
601.6	975.7
601.8	969.4
602.0	958.5
602.2	953.5
602.4	945.9
602.6	943.0
602.8	939.7
603.0	937.6
603.2	935.3
603.4	935.0
603.6	931.3
603.8	924.0
604.0	914.7
604.2	909.4
604.4	906.0
604.6	901.2
604.8	901.5
605.0	894.0
605.2	889.6
605.4	886.6
605.6	883.0
605.8	876.1
606.0	875.1
606.2	869.1
606.4	864.6
606.6	863.8
606.8	861.6
607.0	855.0
607.2	853.3
607.4	846.0
607.6	841.1
607.8	838.2
608.0	835.0
608.2	832.3
608.4	827.2
608.6	820.2
608.8	816.6
609.0	809.9
609.2	803.9
609.4	806.0
609.6	803.4
609.8	803.4
610.0	807.2
610.2	801.9
610.4	792.9
610.6	787.4
610.8	778.5
611.0	773.2
611.2	772.2
611.4	767.7
611.6	764.2
611.8	759.2
612.0	756.7
612.2	758.1
612.4	755.4
612.6	749.8
612.8	743.4
613.0	736.3
613.2	732.7
613.4	731.1
613.6	728.3
613.8	724.6
614.0	721.0
614.2	718.5
614.4	716.0
614.6	712.7
614.8	706.8
615.0	703.3
615.2	701.2
615.4	697.6
615.6	696.1
615.8	692.1
616.0	685.5
616.2	679.5
616.4	676.3
616.6	677.0
616.8	676.1
617.0	674.6
617.2	670.7
617.4	663.7
617.6	657.6
617.8	655.2
618.0	651.1
618.2	647.7
618.4	643.4
618.6	638.0
618.8	635.5
619.0	634.0
619.2	632.2
619.4	629.9
619.6	623.7
619.8	616.3
620.0	615.7
620.2	614.5
620.4	613.5
620.6	613.0
620.8	608.3
621.0	602.9
621.2	598.9
621.4	598.9
621.6	595.6
621.8	593.0
622.0	589.4
622.2	586.9
622.4	583.3
622.6	585.1
622.8	578.3
623.0	574.2
623.2	567.1
623.4	565.6
623.6	563.4
623.8	564.3
624.0	560.3
624.2	557.9
624.4	552.4
624.6	548.4
624.8	544.1
625.0	545.1
625.2	543.6
625.4	542.2
625.6	537.3
625.8	534.8
626.0	530.1
626.2	528.6
626.4	525.6
626.6	524.2
626.8	519.7
627.0	518.7
627.2	515.2
627.4	510.5
627.6	504.8
627.8	502.0
628.0	499.4
628.2	497.3
628.4	497.6
628.6	493.1
628.8	488.6
629.0	485.1
629.2	481.4
629.4	476.9
629.6	472.6
629.8	470.5
630.0	471.3
630.2	472.0
630.4	471.7
630.6	469.1
630.8	462.5
631.0	459.8
631.2	456.6
631.4	453.2
631.6	451.5
631.8	450.0
632.0	446.2
632.2	443.7
632.4	439.7
632.6	437.0
632.8	437.3
633.0	436.6
633.2	434.5
633.4	432.3
633.6	429.7
633.8	429.1
634.0	426.9
634.2	421.5
634.4	416.6
634.6	411.4
634.8	408.0
635.0	407.3
635.2	405.6
635.4	403.1
635.6	402.9
635.8	402.6
636.0	401.6
636.2	397.5
636.4	392.6
636.6	388.1
636.8	385.0
637.0	382.9
637.2	382.6
637.4	379.7
637.6	376.1
637.8	376.7
638.0	376.1
638.2	375.5
638.4	373.8
638.6	369.4
638.8	363.5
639.0	360.9
639.2	356.9
639.4	356.8
639.6	357.8
639.8	355.6
640.0	354.5
640.2	352.9
640.4	351.1
640.6	350.2
640.8	350.1
641.0	344.9
641.2	341.8
641.4	339.3
641.6	337.8
641.8	337.0
642.0	334.3
642.2	329.8
642.4	328.0
642.6	326.2
642.8	323.6
643.0	322.5
643.2	320.3
643.4	318.5
643.6	318.0
643.8	315.1
644.0	312.3
644.2	310.3
644.4	308.4
644.6	308.5
644.8	307.6
645.0	305.6
645.2	304.6
645.4	302.9
645.6	299.5
645.8	298.7
646.0	295.7
646.2	293.6
646.4	292.2
646.6	291.1
646.8	289.9
647.0	287.9
647.2	284.4
647.4	282.0
647.6	282.0
647.8	281.6
648.0	280.9
648.2	279.9
648.4	277.1
648.6	273.3
648.8	271.4
649.0	269.3
649.2	267.5
649.4	266.6
649.6	265.3
649.8	263.8
650.0	262.8
650.2	261.4
650.4	260.8
650.6	259.2
650.8	258.9
651.0	257.9
651.2	256.2
651.4	253.9
651.6	253.0
651.8	251.2
652.0	249.8
652.2	247.5
652.4	246.5
652.6	243.4
652.8	241.2
653.0	238.8
653.2	237.4
653.4	235.6
653.6	235.7
653.8	233.9
654.0	233.7
654.2	233.4
654.4	231.6
654.6	229.5
654.8	226.1
655.0	223.4
655.2	222.8
655.4	222.6
655.6	221.8
655.8	220.6
656.0	218.5
656.2	217.5
656.4	215.9
656.6	215.9
656.8	215.4
657.0	212.1
657.2	210.4
657.4	209.1
657.6	207.4
657.8	207.1
658.0	206.1
658.2	202.4
658.4	200.0
658.6	199.7
658.8	200.6
659.0	201.8
659.2	201.0
659.4	198.7
659.6	195.3
659.8	192.7
660.0	190.3
660.2	190.3
660.4	189.7
660.6	190.5
660.8	188.9
661.0	187.6
661.2	185.3
661.4	183.7
661.6	182.9
661.8	182.4
662.0	180.4
662.2	179.5
662.4	178.4
662.6	176.1
662.8	174.7
663.0	173.1
663.2	170.8
663.4	169.9
663.6	170.3
663.8	169.9
664.0	168.7
664.2	167.3
664.4	165.7
664.6	165.0
664.8	164.0
665.0	163.4
665.2	161.7
665.4	160.9
665.6	161.0
665.8	161.2
666.0	160.8
666.2	159.4
666.4	157.9
666.6	155.7
666.8	154.6
667.0	153.4
667.2	153.4
667.4	153.1
667.6	151.3
667.8	150.1
668.0	148.5
668.2	148.4
668.4	149.5
668.6	149.4
668.8	147.3
669.0	146.3
669.2	144.1
669.4	141.7
669.6	140.0
669.8	139.1
670.0	139.2
670.2	139.4
670.4	139.5
670.6	138.7
670.8	137.9
671.0	137.5
671.2	135.9
671.4	134.8
671.6	132.9
671.8	132.5
672.0	131.3
672.2	131.0
672.4	129.7
672.6	129.2
672.8	127.5
673.0	125.7
673.2	125.0
673.4	126.4
673.6	125.3
673.8	125.4
674.0	124.6
674.2	124.1
674.4	123.9
674.6	123.4
674.8	120.0
675.0	119.1
675.2	117.4
675.4	118.7
675.6	119.2
675.8	118.6
676.0	116.0
676.2	114.9
676.4	113.8
676.6	113.1
676.8	112.3
677.0	111.4
677.2	110.8
677.4	110.7
677.6	110.8
677.8	109.1
678.0	107.9
678.2	106.4
678.4	105.9
678.6	104.7
678.8	104.4
679.0	103.2
679.2	103.7
679.4	103.8
679.6	102.7
679.8	101.8
680.0	102.0
680.2	100.3
680.4	100.7
680.6	99.54
680.8	98.46
681.0	98.10
681.2	97.07
681.4	95.62
681.6	96.29
681.8	95.21
682.0	96.18
682.2	96.26
682.4	95.22
682.6	93.65
682.8	92.63
683.0	90.94
683.2	89.94
683.4	89.09
683.6	88.94
683.8	88.43
684.0	88.11
684.2	88.08
684.4	87.33
684.6	87.13
684.8	87.85
685.0	87.55
685.2	85.82
685.4	84.79
685.6	83.37
685.8	83.06
686.0	83.85
686.2	83.70
686.4	82.87
686.6	82.81
686.8	81.86
687.0	80.60
687.2	80.18
687.4	79.55
687.6	78.60
687.8	77.39
688.0	76.66
688.2	75.80
688.4	76.52
688.6	76.87
688.8	76.10
689.0	75.16
689.2	75.45
689.4	75.33
689.6	75.29
689.8	73.95
690.0	71.86
690.2	70.93
690.4	71.53
690.6	71.82
690.8	72.13
691.0	70.80
691.2	70.32
691.4	69.92
691.6	69.62
691.8	69.04
692.0	68.53
692.2	67.51
692.4	67.55
692.6	67.99
692.8	68.20
693.0	67.75
693.2	66.96
693.4	64.91
693.6	63.76
693.8	63.86
694.0	64.17
694.2	64.35
694.4	64.27
694.6	63.24
694.8	62.91
695.0	62.49
695.2	62.10
695.4	61.16
695.6	60.97
695.8	60.55
696.0	60.37
696.2	60.81
696.4	60.70
696.6	59.92
696.8	59.50
697.0	58.04
697.2	57.11
697.4	57.34
697.6	58.22
697.8	58.78
698.0	58.66
698.2	57.94
698.4	57.46
698.6	57.21
698.8	56.60
699.0	56.01
699.2	55.32
699.4	54.81
699.6	55.12
699.8	55.00
700.0	54.63
700.2	54.45
700.4	53.56
700.6	52.45
700.8	53.00
701.0	53.14
701.2	53.31
701.4	53.30
701.6	52.98
701.8	51.32
702.0	51.19
702.2	50.46
702.4	50.09
702.6	49.87
702.8	50.04
703.0	49.39
703.2	49.93
703.4	50.00
703.6	50.21
703.8	49.71
704.0	49.05
704.2	49.45
704.4	49.44
704.6	48.68
704.8	47.60
705.0	47.19
705.2	46.84
705.4	47.50
705.6	47.28
705.8	46.54
706.0	45.98
706.2	46.10
706.4	45.59
706.6	45.35
706.8	45.08
707.0	44.65
707.2	45.08
707.4	45.10
707.6	44.08
707.8	43.63
708.0	43.38
708.2	43.47
708.4	44.31
708.6	44.03
708.8	42.57
709.0	42.00
709.2	41.16
709.4	41.12
709.6	41.70
709.8	41.38
710.0	41.50
710.2	41.28
710.4	40.69
710.6	41.00
710.8	40.94
711.0	41.25
711.2	41.59
711.4	41.07
711.6	40.58
711.8	39.74
712.0	38.93
712.2	38.37
712.4	38.23
712.6	38.40
712.8	38.76
713.0	38.31
713.2	38.13
713.4	37.77
713.6	37.91
713.8	37.89
714.0	37.46
714.2	37.06
714.4	36.60
714.6	35.98
714.8	35.97
715.0	35.40
715.2	34.49
715.4	34.74
715.6	34.80
715.8	34.55
716.0	34.77
716.2	34.28
716.4	33.60
716.6	33.27
716.8	33.03
717.0	33.11
717.2	33.29
717.4	33.24
