Sample:	'20211010A(EM)
File name:	G-NI 4.FDS
Run date:	'17:25:07, 06/19/2023
Operator:	Administrator
Comment:	'

Instrument
Model:	F-4700 FL Spectrophotometer
Serial number:	2019-001
ROM Version:	5J24010 00

Instrument parameters
Measurement type:	Wavelength scan
Scan mode:	Emission
Data mode:	Fluorescence
EX WL:	400.0 nm
EM  Start WL:	420.0 nm
EM  End WL:	800.0 nm
Scan speed:	1200 nm/min
Delay:	0.0 s
EX Slit:	10.0 nm
EM Slit:	10.0 nm
PMT Voltage:	500 V
Response:	0.002 s
Corrected spectra:	Off
Shutter control:	On

Processing performed
Savitsky-Golay smoothed
Smoothing order:	3
Number of points:	7
Number of times:	1

Peak integration
Integration method:	Rectangular
Sensitivity:	1
Threshold:	1.000

Peaks
No.	Start(nm)	Apex(nm)	End(nm)	Height(Data)	Valley(nm)	Valley(Data)
1	420.0	531.6	533.2	336.6	533.2	330.5
2	533.2	535.2	536.6	340.6	536.6	335.3
3	536.6	539.0	543.4	345.4	543.4	335.6
4	543.4	543.8	550.4	338.6	550.4	321.7
5	550.4	551.0	643.6	327.2	643.6	41.35
6	643.6	644.8	646.2	42.67	646.2	39.40
7	646.2	647.0	654.0	41.45	654.0	29.26
8	654.0	654.8	673.0	30.69	673.0	16.03
9	673.0	673.6	689.6	17.12	689.6	8.735
10	689.6	691.6	776.2	9.794	776.2	0.525

Data points
nm	Data
420.0	0.527
420.2	0.727
420.4	0.714
420.6	0.580
420.8	0.427
421.0	0.404
421.2	0.352
421.4	0.307
421.6	0.424
421.8	0.390
422.0	0.407
422.2	0.397
422.4	0.385
422.6	0.445
422.8	0.552
423.0	0.599
423.2	0.669
423.4	0.583
423.6	0.522
423.8	0.448
424.0	0.426
424.2	0.321
424.4	0.321
424.6	0.403
424.8	0.550
425.0	0.588
425.2	0.628
425.4	0.502
425.6	0.426
425.8	0.475
426.0	0.532
426.2	0.501
426.4	0.429
426.6	0.375
426.8	0.326
427.0	0.352
427.2	0.409
427.4	0.376
427.6	0.386
427.8	0.432
428.0	0.460
428.2	0.504
428.4	0.495
428.6	0.451
428.8	0.505
429.0	0.577
429.2	0.666
429.4	0.635
429.6	0.526
429.8	0.419
430.0	0.460
430.2	0.518
430.4	0.579
430.6	0.582
430.8	0.587
431.0	0.537
431.2	0.534
431.4	0.470
431.6	0.326
431.8	0.298
432.0	0.265
432.2	0.326
432.4	0.452
432.6	0.583
432.8	0.589
433.0	0.577
433.2	0.468
433.4	0.411
433.6	0.451
433.8	0.476
434.0	0.392
434.2	0.308
434.4	0.320
434.6	0.408
434.8	0.543
435.0	0.586
435.2	0.544
435.4	0.505
435.6	0.498
435.8	0.507
436.0	0.437
436.2	0.381
436.4	0.311
436.6	0.359
436.8	0.521
437.0	0.645
437.2	0.610
437.4	0.605
437.6	0.435
437.8	0.401
438.0	0.438
438.2	0.478
438.4	0.481
438.6	0.557
438.8	0.515
439.0	0.531
439.2	0.460
439.4	0.463
439.6	0.330
439.8	0.360
440.0	0.350
440.2	0.397
440.4	0.426
440.6	0.478
440.8	0.345
441.0	0.430
441.2	0.428
441.4	0.508
441.6	0.606
441.8	0.631
442.0	0.558
442.2	0.504
442.4	0.373
442.6	0.381
442.8	0.452
443.0	0.535
443.2	0.533
443.4	0.458
443.6	0.437
443.8	0.420
444.0	0.373
444.2	0.401
444.4	0.398
444.6	0.398
444.8	0.465
445.0	0.419
445.2	0.347
445.4	0.328
445.6	0.325
445.8	0.424
446.0	0.486
446.2	0.489
446.4	0.422
446.6	0.345
446.8	0.285
447.0	0.413
447.2	0.422
447.4	0.415
447.6	0.427
447.8	0.417
448.0	0.354
448.2	0.415
448.4	0.355
448.6	0.380
448.8	0.479
449.0	0.531
449.2	0.550
449.4	0.515
449.6	0.503
449.8	0.557
450.0	0.494
450.2	0.459
450.4	0.473
450.6	0.467
450.8	0.467
451.0	0.499
451.2	0.412
451.4	0.327
451.6	0.396
451.8	0.527
452.0	0.496
452.2	0.500
452.4	0.458
452.6	0.394
452.8	0.461
453.0	0.541
453.2	0.568
453.4	0.591
453.6	0.611
453.8	0.550
454.0	0.584
454.2	0.564
454.4	0.499
454.6	0.510
454.8	0.477
455.0	0.381
455.2	0.375
455.4	0.428
455.6	0.347
455.8	0.493
456.0	0.626
456.2	0.655
456.4	0.671
456.6	0.657
456.8	0.534
457.0	0.476
457.2	0.463
457.4	0.343
457.6	0.342
457.8	0.309
458.0	0.402
458.2	0.435
458.4	0.482
458.6	0.489
458.8	0.465
459.0	0.442
459.2	0.448
459.4	0.372
459.6	0.383
459.8	0.445
460.0	0.444
460.2	0.494
460.4	0.450
460.6	0.437
460.8	0.510
461.0	0.561
461.2	0.559
461.4	0.557
461.6	0.419
461.8	0.454
462.0	0.457
462.2	0.463
462.4	0.450
462.6	0.491
462.8	0.548
463.0	0.691
463.2	0.688
463.4	0.657
463.6	0.521
463.8	0.564
464.0	0.592
464.2	0.600
464.4	0.595
464.6	0.577
464.8	0.541
465.0	0.659
465.2	0.661
465.4	0.625
465.6	0.614
465.8	0.692
466.0	0.754
466.2	0.843
466.4	0.890
466.6	0.983
466.8	0.965
467.0	1.006
467.2	0.914
467.4	0.813
467.6	0.752
467.8	0.837
468.0	0.844
468.2	0.758
468.4	0.654
468.6	0.688
468.8	0.679
469.0	0.745
469.2	0.748
469.4	0.696
469.6	0.693
469.8	0.736
470.0	0.726
470.2	0.765
470.4	0.722
470.6	0.848
470.8	1.031
471.0	1.149
471.2	1.315
471.4	1.259
471.6	1.238
471.8	1.235
472.0	1.300
472.2	1.302
472.4	1.362
472.6	1.225
472.8	1.262
473.0	1.240
473.2	1.194
473.4	1.309
473.6	1.564
473.8	1.601
474.0	1.692
474.2	1.707
474.4	1.646
474.6	1.778
474.8	1.811
475.0	1.705
475.2	1.681
475.4	1.678
475.6	1.714
475.8	1.924
476.0	1.883
476.2	1.990
476.4	2.096
476.6	2.144
476.8	2.163
477.0	2.532
477.2	2.391
477.4	2.537
477.6	2.603
477.8	2.483
478.0	2.504
478.2	2.777
478.4	2.789
478.6	2.980
478.8	2.952
479.0	2.919
479.2	3.077
479.4	3.327
479.6	3.512
479.8	3.748
480.0	3.945
480.2	4.157
480.4	4.192
480.6	4.388
480.8	4.493
481.0	4.476
481.2	4.419
481.4	4.328
481.6	4.496
481.8	5.158
482.0	5.615
482.2	5.807
482.4	5.715
482.6	5.679
482.8	5.979
483.0	6.235
483.2	6.375
483.4	6.769
483.6	7.014
483.8	7.707
484.0	8.030
484.2	7.935
484.4	8.006
484.6	8.190
484.8	8.160
485.0	8.414
485.2	8.890
485.4	9.009
485.6	9.464
485.8	9.782
486.0	10.49
486.2	10.97
486.4	11.74
486.6	11.54
486.8	11.58
487.0	11.45
487.2	12.19
487.4	12.50
487.6	12.84
487.8	12.99
488.0	13.52
488.2	14.17
488.4	15.27
488.6	15.79
488.8	16.39
489.0	16.89
489.2	17.75
489.4	18.40
489.6	19.11
489.8	19.46
490.0	19.58
490.2	19.69
490.4	20.25
490.6	21.06
490.8	22.05
491.0	23.02
491.2	23.44
491.4	23.74
491.6	24.11
491.8	24.93
492.0	25.75
492.2	26.82
492.4	27.53
492.6	28.38
492.8	28.62
493.0	29.49
493.2	30.27
493.4	31.54
493.6	32.34
493.8	33.03
494.0	33.16
494.2	34.20
494.4	35.47
494.6	36.53
494.8	37.26
495.0	37.76
495.2	39.10
495.4	40.86
495.6	43.19
495.8	44.49
496.0	44.67
496.2	44.47
496.4	45.79
496.6	46.80
496.8	48.66
497.0	50.72
497.2	52.01
497.4	52.51
497.6	53.45
497.8	53.97
498.0	55.18
498.2	57.58
498.4	59.93
498.6	61.56
498.8	61.93
499.0	63.06
499.2	64.39
499.4	65.97
499.6	67.12
499.8	68.31
500.0	69.74
500.2	72.19
500.4	73.87
500.6	75.32
500.8	77.01
501.0	78.46
501.2	81.14
501.4	82.02
501.6	83.11
501.8	84.58
502.0	86.81
502.2	88.40
502.4	90.35
502.6	90.44
502.8	92.51
503.0	93.23
503.2	95.68
503.4	98.83
503.6	101.7
503.8	102.9
504.0	104.6
504.2	104.5
504.4	106.2
504.6	109.7
504.8	112.6
505.0	115.3
505.2	117.3
505.4	118.8
505.6	120.1
505.8	121.9
506.0	124.4
506.2	127.5
506.4	129.6
506.6	130.8
506.8	133.0
507.0	134.2
507.2	136.9
507.4	140.6
507.6	143.4
507.8	145.1
508.0	146.9
508.2	147.5
508.4	148.7
508.6	150.9
508.8	152.8
509.0	155.3
509.2	156.6
509.4	158.9
509.6	162.2
509.8	165.4
510.0	167.8
510.2	170.5
510.4	171.7
510.6	173.4
510.8	174.7
511.0	175.9
511.2	177.8
511.4	181.5
511.6	183.6
511.8	185.0
512.0	186.4
512.2	188.3
512.4	192.1
512.6	196.0
512.8	196.9
513.0	197.3
513.2	199.2
513.4	200.9
513.6	203.8
513.8	206.9
514.0	208.2
514.2	210.0
514.4	212.2
514.6	213.2
514.8	213.7
515.0	215.4
515.2	216.3
515.4	218.6
515.6	222.3
515.8	225.2
516.0	228.3
516.2	231.2
516.4	231.9
516.6	232.6
516.8	234.6
517.0	236.7
517.2	239.9
517.4	243.1
517.6	243.9
517.8	244.0
518.0	244.7
518.2	247.3
518.4	248.1
518.6	252.2
518.8	256.1
519.0	259.2
519.2	261.9
519.4	263.5
519.6	261.3
519.8	261.1
520.0	264.2
520.2	268.3
520.4	270.4
520.6	271.3
520.8	271.5
521.0	270.8
521.2	273.9
521.4	277.2
521.6	277.9
521.8	278.8
522.0	278.9
522.2	278.6
522.4	279.8
522.6	284.0
522.8	286.2
523.0	288.7
523.2	290.0
523.4	290.3
523.6	290.4
523.8	292.2
524.0	291.8
524.2	292.7
524.4	294.3
524.6	296.5
524.8	298.9
525.0	302.1
525.2	303.0
525.4	304.9
525.6	306.2
525.8	305.1
526.0	304.0
526.2	305.6
526.4	305.5
526.6	308.4
526.8	310.0
527.0	308.8
527.2	308.9
527.4	310.4
527.6	310.4
527.8	311.2
528.0	313.1
528.2	317.1
528.4	318.4
528.6	321.2
528.8	321.4
529.0	319.4
529.2	319.6
529.4	320.8
529.6	319.2
529.8	320.0
530.0	322.1
530.2	323.4
530.4	324.2
530.6	324.6
530.8	325.7
531.0	326.0
531.2	329.6
531.4	334.0
531.6	336.6
531.8	336.5
532.0	335.4
532.2	333.3
532.4	331.8
532.6	331.6
532.8	332.1
533.0	331.2
533.2	330.5
533.4	331.0
533.6	332.1
533.8	332.9
534.0	334.9
534.2	335.5
534.4	335.5
534.6	336.0
534.8	337.7
535.0	338.5
535.2	340.6
535.4	339.3
535.6	338.6
535.8	339.7
536.0	339.0
536.2	337.3
536.4	337.1
536.6	335.3
536.8	336.1
537.0	338.4
537.2	339.4
537.4	338.7
537.6	338.6
537.8	338.1
538.0	337.8
538.2	338.6
538.4	340.5
538.6	341.2
538.8	344.0
539.0	345.4
539.2	344.5
539.4	344.6
539.6	342.4
539.8	339.7
540.0	340.7
540.2	342.7
540.4	342.3
540.6	341.7
540.8	341.5
541.0	340.0
541.2	341.3
541.4	341.7
541.6	340.6
541.8	338.2
542.0	338.8
542.2	337.6
542.4	338.5
542.6	338.3
542.8	337.7
543.0	336.4
543.2	336.6
543.4	335.6
543.6	337.2
543.8	338.6
544.0	337.8
544.2	337.0
544.4	334.9
544.6	334.5
544.8	336.2
545.0	337.3
545.2	337.9
545.4	336.3
545.6	335.6
545.8	334.9
546.0	333.5
546.2	333.0
546.4	333.3
546.6	331.9
546.8	332.7
547.0	332.4
547.2	333.3
547.4	332.5
547.6	333.3
547.8	332.1
548.0	329.7
548.2	328.8
548.4	328.6
548.6	326.8
548.8	326.7
549.0	326.2
549.2	325.4
549.4	326.1
549.6	326.5
549.8	326.6
550.0	323.9
550.2	323.1
550.4	321.7
550.6	323.6
550.8	325.3
551.0	327.2
551.2	326.0
551.4	326.6
551.6	323.7
551.8	323.2
552.0	321.7
552.2	320.9
552.4	318.9
552.6	319.6
552.8	318.3
553.0	317.9
553.2	317.8
553.4	318.3
553.6	317.7
553.8	319.0
554.0	317.9
554.2	315.5
554.4	314.1
554.6	312.6
554.8	311.7
555.0	312.0
555.2	310.4
555.4	309.8
555.6	309.3
555.8	307.9
556.0	306.6
556.2	306.1
556.4	304.1
556.6	303.2
556.8	301.9
557.0	301.7
557.2	302.1
557.4	302.5
557.6	302.4
557.8	302.4
558.0	301.2
558.2	301.4
558.4	300.6
558.6	297.3
558.8	296.9
559.0	297.9
559.2	298.1
559.4	298.0
559.6	297.7
559.8	294.1
560.0	293.6
560.2	292.6
560.4	291.1
560.6	290.2
560.8	290.2
561.0	288.4
561.2	288.4
561.4	289.0
561.6	287.3
561.8	286.4
562.0	286.0
562.2	286.1
562.4	286.8
562.6	287.1
562.8	285.6
563.0	284.2
563.2	282.9
563.4	283.4
563.6	284.1
563.8	283.8
564.0	283.3
564.2	280.7
564.4	277.8
564.6	275.3
564.8	272.9
565.0	272.5
565.2	272.5
565.4	271.4
565.6	272.5
565.8	271.1
566.0	269.9
566.2	269.0
566.4	268.4
566.6	268.2
566.8	268.2
567.0	267.7
567.2	268.5
567.4	268.3
567.6	267.6
567.8	266.7
568.0	263.4
568.2	260.5
568.4	260.7
568.6	260.4
568.8	260.8
569.0	261.7
569.2	259.1
569.4	258.3
569.6	258.1
569.8	257.6
570.0	257.0
570.2	257.0
570.4	254.6
570.6	253.7
570.8	252.1
571.0	252.4
571.2	251.4
571.4	249.5
571.6	247.9
571.8	247.5
572.0	247.5
572.2	248.6
572.4	248.0
572.6	245.4
572.8	244.1
573.0	243.3
573.2	240.7
573.4	240.3
573.6	240.4
573.8	239.6
574.0	239.0
574.2	236.5
574.4	236.1
574.6	237.2
574.8	238.2
575.0	237.4
575.2	234.1
575.4	231.0
575.6	229.8
575.8	228.1
576.0	229.9
576.2	232.0
576.4	231.8
576.6	232.2
576.8	229.2
577.0	226.9
577.2	226.3
577.4	225.8
577.6	224.7
577.8	224.5
578.0	222.4
578.2	222.4
578.4	221.2
578.6	220.8
578.8	220.0
579.0	219.2
579.2	217.2
579.4	216.2
579.6	214.5
579.8	216.0
580.0	214.5
580.2	213.9
580.4	213.6
580.6	213.0
580.8	210.5
581.0	210.6
581.2	208.4
581.4	207.5
581.6	207.5
581.8	207.4
582.0	205.3
582.2	204.2
582.4	203.6
582.6	202.5
582.8	202.7
583.0	203.0
583.2	201.6
583.4	199.9
583.6	199.1
583.8	199.4
584.0	199.6
584.2	197.1
584.4	195.4
584.6	192.1
584.8	190.9
585.0	191.4
585.2	191.0
585.4	189.5
585.6	191.2
585.8	190.0
586.0	190.7
586.2	189.8
586.4	188.8
586.6	187.7
586.8	187.8
587.0	184.9
587.2	185.7
587.4	184.9
587.6	183.9
587.8	182.5
588.0	182.4
588.2	180.3
588.4	181.6
588.6	181.9
588.8	180.2
589.0	177.3
589.2	175.9
589.4	175.1
589.6	175.1
589.8	175.8
590.0	175.4
590.2	173.2
590.4	170.6
590.6	170.4
590.8	168.9
591.0	169.5
591.2	169.5
591.4	170.1
591.6	168.5
591.8	168.1
592.0	167.4
592.2	166.6
592.4	164.9
592.6	165.0
592.8	164.4
593.0	163.5
593.2	164.0
593.4	162.7
593.6	162.2
593.8	161.4
594.0	160.4
594.2	159.6
594.4	158.7
594.6	157.4
594.8	156.5
595.0	156.3
595.2	155.9
595.4	155.5
595.6	154.6
595.8	153.5
596.0	151.9
596.2	151.5
596.4	150.9
596.6	149.2
596.8	149.2
597.0	148.0
597.2	147.2
597.4	145.6
597.6	144.6
597.8	143.6
598.0	144.5
598.2	145.0
598.4	145.7
598.6	144.7
598.8	143.1
599.0	141.8
599.2	141.0
599.4	141.6
599.6	141.9
599.8	140.9
600.0	140.0
600.2	138.3
600.4	137.1
600.6	137.1
600.8	136.7
601.0	137.1
601.2	137.5
601.4	135.6
601.6	134.1
601.8	132.6
602.0	131.8
602.2	131.9
602.4	132.1
602.6	132.5
602.8	133.2
603.0	131.4
603.2	130.8
603.4	128.3
603.6	127.7
603.8	127.7
604.0	127.8
604.2	126.6
604.4	126.7
604.6	126.0
604.8	127.1
605.0	125.8
605.2	124.7
605.4	123.2
605.6	121.2
605.8	120.4
606.0	119.6
606.2	118.5
606.4	119.1
606.6	119.4
606.8	119.5
607.0	119.4
607.2	117.9
607.4	117.1
607.6	116.1
607.8	114.8
608.0	114.7
608.2	113.6
608.4	112.9
608.6	113.2
608.8	114.5
609.0	114.7
609.2	115.3
609.4	114.3
609.6	112.4
609.8	112.3
610.0	112.6
610.2	111.8
610.4	110.9
610.6	110.1
610.8	109.0
611.0	109.6
611.2	109.0
611.4	107.9
611.6	107.0
611.8	107.6
612.0	106.6
612.2	105.4
612.4	104.5
612.6	102.9
612.8	101.6
613.0	102.1
613.2	100.7
613.4	100.8
613.6	100.9
613.8	101.3
614.0	100.2
614.2	100.3
614.4	98.71
614.6	98.01
614.8	96.58
615.0	95.94
615.2	95.50
615.4	95.41
615.6	94.68
615.8	94.05
616.0	93.90
616.2	93.43
616.4	93.88
616.6	93.65
616.8	93.12
617.0	92.94
617.2	93.73
617.4	93.63
617.6	92.03
617.8	90.64
618.0	88.72
618.2	87.78
618.4	88.15
618.6	88.20
618.8	86.84
619.0	86.84
619.2	86.77
619.4	87.57
619.6	86.56
619.8	86.13
620.0	84.75
620.2	84.63
620.4	84.11
620.6	83.81
620.8	83.59
621.0	84.45
621.2	83.87
621.4	83.09
621.6	81.36
621.8	79.41
622.0	79.82
622.2	80.32
622.4	79.54
622.6	77.90
622.8	77.22
623.0	77.19
623.2	77.99
623.4	78.76
623.6	78.67
623.8	77.92
624.0	77.58
624.2	76.96
624.4	75.85
624.6	74.16
624.8	73.04
625.0	72.05
625.2	71.10
625.4	71.18
625.6	70.92
625.8	71.57
626.0	72.18
626.2	72.15
626.4	71.69
626.6	70.19
626.8	69.64
627.0	70.21
627.2	70.31
627.4	70.52
627.6	70.23
627.8	67.95
628.0	67.61
628.2	67.38
628.4	68.20
628.6	68.22
628.8	68.18
629.0	67.08
629.2	67.11
629.4	66.34
629.6	66.91
629.8	65.62
630.0	64.44
630.2	63.24
630.4	62.87
630.6	62.86
630.8	63.19
631.0	62.90
631.2	61.98
631.4	61.80
631.6	61.84
631.8	62.02
632.0	61.91
632.2	60.99
632.4	59.70
632.6	59.25
632.8	59.02
633.0	58.25
633.2	58.79
633.4	58.17
633.6	58.11
633.8	58.12
634.0	57.56
634.2	57.41
634.4	57.69
634.6	57.05
634.8	56.58
635.0	56.24
635.2	55.74
635.4	55.18
635.6	54.26
635.8	53.75
636.0	53.41
636.2	52.90
636.4	53.56
636.6	52.62
636.8	52.90
637.0	53.84
637.2	53.86
637.4	51.60
637.6	51.51
637.8	50.39
638.0	50.77
638.2	50.99
638.4	50.94
638.6	49.73
638.8	50.41
639.0	50.88
639.2	51.21
639.4	50.68
639.6	49.57
639.8	48.65
640.0	47.63
640.2	46.87
640.4	46.47
640.6	45.97
640.8	45.71
641.0	46.37
641.2	45.81
641.4	45.57
641.6	45.51
641.8	45.03
642.0	44.65
642.2	44.67
642.4	43.68
642.6	44.24
642.8	44.49
643.0	43.75
643.2	43.20
643.4	42.22
643.6	41.35
643.8	41.49
644.0	41.55
644.2	41.59
644.4	42.46
644.6	42.14
644.8	42.67
645.0	42.34
645.2	41.58
645.4	40.82
645.6	40.39
645.8	39.65
646.0	39.83
646.2	39.40
646.4	39.98
646.6	40.44
646.8	40.97
647.0	41.45
647.2	40.64
647.4	39.29
647.6	39.02
647.8	37.70
648.0	37.15
648.2	36.91
648.4	36.18
648.6	36.88
648.8	37.73
649.0	37.41
649.2	37.57
649.4	36.19
649.6	35.35
649.8	35.59
650.0	35.30
650.2	34.84
650.4	34.63
650.6	33.48
650.8	33.54
651.0	33.66
651.2	33.65
651.4	33.28
651.6	33.17
651.8	32.83
652.0	32.69
652.2	32.25
652.4	31.94
652.6	31.26
652.8	31.12
653.0	31.55
653.2	31.90
653.4	31.76
653.6	31.21
653.8	30.45
654.0	29.26
654.2	29.48
654.4	30.02
654.6	30.53
654.8	30.69
655.0	30.53
655.2	29.72
655.4	29.65
655.6	29.98
655.8	30.32
656.0	30.07
656.2	29.86
656.4	29.10
656.6	28.76
656.8	28.59
657.0	28.55
657.2	28.57
657.4	28.52
657.6	28.34
657.8	28.07
658.0	27.83
658.2	27.36
658.4	27.64
658.6	27.03
658.8	27.05
659.0	26.65
659.2	26.38
659.4	25.52
659.6	25.83
659.8	25.39
660.0	25.19
660.2	24.79
660.4	24.99
660.6	24.57
660.8	24.61
661.0	24.62
661.2	24.06
661.4	23.92
661.6	24.67
661.8	24.38
662.0	23.59
662.2	23.07
662.4	22.87
662.6	22.94
662.8	23.99
663.0	24.00
663.2	23.30
663.4	22.75
663.6	22.44
663.8	21.97
664.0	22.38
664.2	22.43
664.4	22.07
664.6	21.90
664.8	21.44
665.0	21.01
665.2	20.77
665.4	21.21
665.6	21.12
665.8	20.97
666.0	20.63
666.2	20.52
666.4	20.42
666.6	21.00
666.8	20.92
667.0	20.78
667.2	20.55
667.4	20.64
667.6	20.68
667.8	20.49
668.0	19.90
668.2	19.66
668.4	19.19
668.6	19.02
668.8	19.56
669.0	19.31
669.2	18.83
669.4	18.63
669.6	18.19
669.8	17.93
670.0	18.13
670.2	17.79
670.4	17.52
670.6	17.63
670.8	18.11
671.0	17.86
671.2	17.80
671.4	17.28
671.6	17.43
671.8	17.20
672.0	17.43
672.2	17.18
672.4	17.06
672.6	16.40
672.8	16.33
673.0	16.03
673.2	16.37
673.4	16.88
673.6	17.12
673.8	16.93
674.0	16.59
674.2	16.27
674.4	16.02
674.6	16.00
674.8	15.85
675.0	15.30
675.2	15.18
675.4	15.20
675.6	15.32
675.8	15.59
676.0	15.30
676.2	15.23
676.4	15.54
676.6	15.48
676.8	14.82
677.0	14.54
677.2	14.38
677.4	14.73
677.6	15.11
677.8	15.23
678.0	14.80
678.2	14.40
678.4	14.28
678.6	13.88
678.8	13.81
679.0	13.90
679.2	13.91
679.4	13.45
679.6	13.31
679.8	13.29
680.0	13.00
680.2	12.95
680.4	13.46
680.6	13.34
680.8	13.18
681.0	13.36
681.2	12.87
681.4	12.22
681.6	12.13
681.8	11.91
682.0	11.81
682.2	12.33
682.4	12.22
682.6	12.06
682.8	12.33
683.0	12.22
683.2	12.17
683.4	12.53
683.6	12.27
683.8	12.31
684.0	12.06
684.2	11.38
684.4	11.19
684.6	11.13
684.8	11.62
685.0	12.00
685.2	12.12
685.4	11.68
685.6	11.64
685.8	10.94
686.0	10.99
686.2	10.54
686.4	10.45
686.6	10.03
686.8	10.30
687.0	10.36
687.2	10.37
687.4	10.14
687.6	10.22
687.8	10.02
688.0	10.06
688.2	10.13
688.4	9.690
688.6	9.686
688.8	9.938
689.0	9.736
689.2	9.373
689.4	9.176
689.6	8.735
689.8	8.781
690.0	9.310
690.2	9.548
690.4	9.668
690.6	9.604
690.8	9.435
691.0	9.596
691.2	9.793
691.4	9.738
691.6	9.794
691.8	9.358
692.0	8.835
692.2	8.747
692.4	8.466
692.6	8.335
692.8	8.475
693.0	8.671
693.2	8.815
693.4	8.831
693.6	8.868
693.8	9.109
694.0	9.019
694.2	8.781
694.4	8.637
694.6	8.168
694.8	8.292
695.0	8.825
695.2	8.779
695.4	8.521
695.6	8.404
695.8	7.834
696.0	7.974
696.2	7.980
696.4	8.164
696.6	8.244
696.8	7.887
697.0	7.569
697.2	7.617
697.4	7.471
697.6	7.914
697.8	7.865
698.0	7.483
698.2	7.409
698.4	7.081
698.6	7.080
698.8	7.415
699.0	7.571
699.2	7.452
699.4	7.365
699.6	7.412
699.8	7.215
700.0	7.100
700.2	7.229
700.4	7.005
700.6	7.069
700.8	7.518
701.0	7.555
701.2	7.346
701.4	7.122
701.6	6.822
701.8	6.774
702.0	6.876
702.2	7.108
702.4	6.921
702.6	6.635
702.8	6.160
703.0	6.138
703.2	6.138
703.4	6.415
703.6	6.472
703.8	6.604
704.0	6.542
704.2	6.346
704.4	6.248
704.6	6.263
704.8	5.960
705.0	6.164
705.2	6.042
705.4	5.739
705.6	5.828
705.8	5.918
706.0	6.113
706.2	6.613
706.4	6.400
706.6	6.325
706.8	6.201
707.0	5.815
707.2	5.533
707.4	5.474
707.6	5.357
707.8	5.340
708.0	5.402
708.2	5.291
708.4	5.180
