Sample:	'20211010A(EM)
File name:	G-NI 10.FDS
Run date:	'17:58:42, 06/19/2023
Operator:	Administrator
Comment:	'

Instrument
Model:	F-4700 FL Spectrophotometer
Serial number:	2019-001
ROM Version:	5J24010 00

Instrument parameters
Measurement type:	Wavelength scan
Scan mode:	Emission
Data mode:	Fluorescence
EX WL:	400.0 nm
EM  Start WL:	420.0 nm
EM  End WL:	800.0 nm
Scan speed:	1200 nm/min
Delay:	0.0 s
EX Slit:	10.0 nm
EM Slit:	10.0 nm
PMT Voltage:	500 V
Response:	0.002 s
Corrected spectra:	Off
Shutter control:	On

Processing performed
Savitsky-Golay smoothed
Smoothing order:	3
Number of points:	7
Number of times:	1

Peak integration
Integration method:	Rectangular
Sensitivity:	1
Threshold:	1.000

Peaks
No.	Start(nm)	Apex(nm)	End(nm)	Height(Data)	Valley(nm)	Valley(Data)
1	420.0	536.2	536.8	2330	536.8	2315
2	536.8	539.4	540.0	2342	540.0	2321
3	540.0	541.4	690.0	2342	690.0	67.98
4	690.0	690.8	715.8	70.59	715.8	32.30
5	715.8	716.6	747.6	33.97	747.6	10.66
6	747.6	748.2	766.6	11.73	766.6	5.753
7	766.6	767.6	779.6	7.055	779.6	3.893
8	779.6	784.2	800.0	4.964	800.0	4.082

Data points
nm	Data
420.0	1.498
420.2	1.829
420.4	1.764
420.6	1.525
420.8	1.519
421.0	1.601
421.2	1.557
421.4	1.614
421.6	1.522
421.8	1.397
422.0	1.639
422.2	1.778
422.4	1.652
422.6	1.570
422.8	1.269
423.0	1.175
423.2	1.262
423.4	1.353
423.6	1.457
423.8	1.500
424.0	1.550
424.2	1.583
424.4	1.521
424.6	1.517
424.8	1.551
425.0	1.642
425.2	1.762
425.4	1.769
425.6	1.733
425.8	1.608
426.0	1.348
426.2	1.215
426.4	1.163
426.6	1.153
426.8	1.336
427.0	1.528
427.2	1.673
427.4	1.751
427.6	1.879
427.8	1.828
428.0	1.705
428.2	1.647
428.4	1.691
428.6	1.720
428.8	1.876
429.0	1.827
429.2	1.653
429.4	1.524
429.6	1.545
429.8	1.634
430.0	1.732
430.2	1.550
430.4	1.430
430.6	1.437
430.8	1.608
431.0	1.794
431.2	1.842
431.4	1.477
431.6	1.282
431.8	1.404
432.0	1.561
432.2	1.558
432.4	1.570
432.6	1.316
432.8	1.126
433.0	1.284
433.2	1.356
433.4	1.267
433.6	1.417
433.8	1.539
434.0	1.726
434.2	1.824
434.4	1.832
434.6	1.712
434.8	1.477
435.0	1.335
435.2	1.358
435.4	1.455
435.6	1.567
435.8	1.733
436.0	1.638
436.2	1.582
436.4	1.536
436.6	1.615
436.8	1.674
437.0	1.677
437.2	1.692
437.4	1.698
437.6	1.593
437.8	1.590
438.0	1.673
438.2	1.705
438.4	1.912
438.6	2.017
438.8	1.993
439.0	1.808
439.2	1.587
439.4	1.506
439.6	1.658
439.8	1.647
440.0	1.802
440.2	1.784
440.4	1.660
440.6	1.642
440.8	1.758
441.0	1.642
441.2	1.809
441.4	1.848
441.6	1.830
441.8	1.853
442.0	1.813
442.2	1.635
442.4	1.626
442.6	1.518
442.8	1.508
443.0	1.548
443.2	1.582
443.4	1.528
443.6	1.758
443.8	1.882
444.0	1.995
444.2	1.905
444.4	1.733
444.6	1.518
444.8	1.436
445.0	1.342
445.2	1.460
445.4	1.545
445.6	1.649
445.8	1.682
446.0	1.655
446.2	1.581
446.4	1.669
446.6	1.686
446.8	1.721
447.0	1.801
447.2	1.860
447.4	1.848
447.6	2.034
447.8	2.011
448.0	1.991
448.2	2.013
448.4	1.968
448.6	1.790
448.8	1.731
449.0	1.728
449.2	1.646
449.4	1.577
449.6	1.611
449.8	1.475
450.0	1.493
450.2	1.661
450.4	1.679
450.6	1.694
450.8	1.788
451.0	1.885
451.2	1.963
451.4	1.948
451.6	1.909
451.8	1.771
452.0	1.675
452.2	1.850
452.4	1.987
452.6	2.011
452.8	1.977
453.0	1.685
453.2	1.552
453.4	1.712
453.6	1.828
453.8	1.913
454.0	1.849
454.2	1.584
454.4	1.558
454.6	1.586
454.8	1.715
455.0	1.927
455.2	2.009
455.4	2.015
455.6	2.084
455.8	2.141
456.0	2.155
456.2	2.105
456.4	2.105
456.6	2.054
456.8	2.092
457.0	2.017
457.2	1.856
457.4	1.729
457.6	1.731
457.8	1.820
458.0	1.870
458.2	1.949
458.4	1.987
458.6	2.141
458.8	2.171
459.0	2.128
459.2	2.021
459.4	1.977
459.6	1.879
459.8	2.034
460.0	2.213
460.2	2.143
460.4	2.066
460.6	1.988
460.8	2.055
461.0	2.107
461.2	2.472
461.4	2.445
461.6	2.433
461.8	2.371
462.0	2.642
462.2	2.741
462.4	2.853
462.6	2.588
462.8	2.515
463.0	2.428
463.2	2.843
463.4	3.088
463.6	3.114
463.8	2.940
464.0	2.828
464.2	2.836
464.4	2.865
464.6	2.911
464.8	2.962
465.0	3.036
465.2	3.267
465.4	3.382
465.6	3.272
465.8	3.206
466.0	2.994
466.2	2.951
466.4	3.387
466.6	3.716
466.8	3.825
467.0	3.766
467.2	3.849
467.4	3.838
467.6	4.033
467.8	4.211
468.0	4.250
468.2	4.324
468.4	4.574
468.6	4.562
468.8	4.636
469.0	4.840
469.2	5.281
469.4	5.499
469.6	5.776
469.8	5.641
470.0	5.796
470.2	5.977
470.4	6.421
470.6	6.588
470.8	7.030
471.0	7.184
471.2	7.205
471.4	6.859
471.6	6.952
471.8	6.994
472.0	7.691
472.2	8.443
472.4	8.675
472.6	8.685
472.8	8.599
473.0	8.755
473.2	9.231
473.4	9.686
473.6	10.28
473.8	10.72
474.0	10.95
474.2	11.61
474.4	11.88
474.6	11.94
474.8	12.42
475.0	12.99
475.2	13.41
475.4	14.09
475.6	14.31
475.8	14.60
476.0	15.34
476.2	16.52
476.4	17.31
476.6	17.44
476.8	17.05
477.0	17.13
477.2	17.35
477.4	18.65
477.6	20.18
477.8	20.86
478.0	21.24
478.2	21.88
478.4	22.19
478.6	23.33
478.8	24.57
479.0	25.46
479.2	25.76
479.4	26.32
479.6	26.96
479.8	28.85
480.0	30.39
480.2	31.66
480.4	32.22
480.6	33.38
480.8	35.08
481.0	37.32
481.2	38.66
481.4	39.78
481.6	40.76
481.8	42.16
482.0	43.27
482.2	44.52
482.4	46.31
482.6	47.80
482.8	49.92
483.0	52.49
483.2	54.11
483.4	56.05
483.6	58.25
483.8	59.40
484.0	60.44
484.2	62.58
484.4	64.17
484.6	65.83
484.8	68.77
485.0	71.23
485.2	73.12
485.4	76.37
485.6	80.14
485.8	83.46
486.0	86.71
486.2	88.08
486.4	89.29
486.6	92.08
486.8	96.00
487.0	100.2
487.2	103.1
487.4	105.2
487.6	107.8
487.8	111.8
488.0	116.6
488.2	120.3
488.4	123.8
488.6	126.8
488.8	129.6
489.0	132.4
489.2	137.5
489.4	141.7
489.6	146.9
489.8	153.3
490.0	157.9
490.2	162.4
490.4	166.5
490.6	169.4
490.8	173.4
491.0	179.5
491.2	184.1
491.4	191.1
491.6	195.6
491.8	201.3
492.0	208.3
492.2	214.1
492.4	219.6
492.6	226.6
492.8	232.1
493.0	238.0
493.2	244.3
493.4	250.1
493.6	256.3
493.8	265.1
494.0	273.2
494.2	280.5
494.4	286.9
494.6	293.4
494.8	298.1
495.0	303.8
495.2	310.5
495.4	320.1
495.6	330.0
495.8	338.7
496.0	348.7
496.2	355.1
496.4	362.3
496.6	369.0
496.8	377.3
497.0	385.9
497.2	397.3
497.4	404.9
497.6	415.1
497.8	423.7
498.0	433.9
498.2	444.8
498.4	454.5
498.6	463.7
498.8	472.0
499.0	483.1
499.2	494.0
499.4	506.0
499.6	518.3
499.8	529.2
500.0	537.2
500.2	547.9
500.4	558.3
500.6	573.2
500.8	585.5
501.0	595.7
501.2	605.9
501.4	616.1
501.6	626.0
501.8	638.9
502.0	649.9
502.2	661.7
502.4	675.1
502.6	691.3
502.8	705.6
503.0	717.5
503.2	728.8
503.4	740.5
503.6	751.7
503.8	766.8
504.0	780.9
504.2	794.6
504.4	805.3
504.6	818.5
504.8	830.3
505.0	843.3
505.2	856.0
505.4	871.2
505.6	882.9
505.8	897.2
506.0	912.2
506.2	928.8
506.4	945.8
506.6	961.7
506.8	971.7
507.0	982.2
507.2	993.1
507.4	1009
507.6	1026
507.8	1042
508.0	1055
508.2	1068
508.4	1081
508.6	1096
508.8	1109
509.0	1123
509.2	1139
509.4	1156
509.6	1173
509.8	1187
510.0	1199
510.2	1212
510.4	1223
510.6	1241
510.8	1255
511.0	1269
511.2	1284
511.4	1298
511.6	1305
511.8	1322
512.0	1340
512.2	1355
512.4	1368
512.6	1379
512.8	1390
513.0	1405
513.2	1426
513.4	1438
513.6	1450
513.8	1468
514.0	1481
514.2	1494
514.4	1507
514.6	1520
514.8	1532
515.0	1551
515.2	1562
515.4	1577
515.6	1586
515.8	1601
516.0	1613
516.2	1626
516.4	1638
516.6	1655
516.8	1669
517.0	1682
517.2	1694
517.4	1700
517.6	1713
517.8	1725
518.0	1737
518.2	1754
518.4	1764
518.6	1771
518.8	1782
519.0	1795
519.2	1806
519.4	1825
519.6	1831
519.8	1834
520.0	1844
520.2	1861
520.4	1874
520.6	1889
520.8	1899
521.0	1907
521.2	1923
521.4	1935
521.6	1947
521.8	1956
522.0	1964
522.2	1967
522.4	1976
522.6	1978
522.8	1992
523.0	2004
523.2	2017
523.4	2022
523.6	2031
523.8	2036
524.0	2050
524.2	2061
524.4	2073
524.6	2082
524.8	2091
525.0	2094
525.2	2103
525.4	2111
525.6	2112
525.8	2118
526.0	2123
526.2	2131
526.4	2145
526.6	2157
526.8	2162
527.0	2170
527.2	2169
527.4	2173
527.6	2175
527.8	2177
528.0	2184
528.2	2195
528.4	2198
528.6	2201
528.8	2205
529.0	2214
529.2	2218
529.4	2223
529.6	2226
529.8	2227
530.0	2231
530.2	2248
530.4	2252
530.6	2259
530.8	2264
531.0	2266
531.2	2263
531.4	2268
531.6	2271
531.8	2278
532.0	2279
532.2	2282
532.4	2281
532.6	2284
532.8	2288
533.0	2294
533.2	2297
533.4	2300
533.6	2299
533.8	2298
534.0	2301
534.2	2309
534.4	2317
534.6	2323
534.8	2316
535.0	2320
535.2	2319
535.4	2320
535.6	2322
535.8	2325
536.0	2323
536.2	2330
536.4	2320
536.6	2316
536.8	2315
537.0	2315
537.2	2326
537.4	2336
537.6	2333
537.8	2331
538.0	2331
538.2	2328
538.4	2336
538.6	2339
538.8	2335
539.0	2333
539.2	2339
539.4	2342
539.6	2339
539.8	2329
540.0	2321
540.2	2323
540.4	2326
540.6	2327
540.8	2327
541.0	2333
541.2	2334
541.4	2342
541.6	2337
541.8	2326
542.0	2318
542.2	2318
542.4	2317
542.6	2320
542.8	2317
543.0	2315
543.2	2315
543.4	2316
543.6	2316
543.8	2308
544.0	2302
544.2	2295
544.4	2294
544.6	2299
544.8	2300
545.0	2296
545.2	2295
545.4	2287
545.6	2283
545.8	2286
546.0	2290
546.2	2291
546.4	2289
546.6	2279
546.8	2266
547.0	2260
547.2	2262
547.4	2260
547.6	2264
547.8	2260
548.0	2257
548.2	2255
548.4	2249
548.6	2243
548.8	2244
549.0	2240
549.2	2238
549.4	2239
549.6	2233
549.8	2229
550.0	2227
550.2	2225
550.4	2220
550.6	2219
550.8	2214
551.0	2209
551.2	2204
551.4	2202
551.6	2194
551.8	2191
552.0	2185
552.2	2182
552.4	2176
552.6	2179
552.8	2174
553.0	2175
553.2	2169
553.4	2164
553.6	2160
553.8	2160
554.0	2154
554.2	2149
554.4	2136
554.6	2122
554.8	2117
555.0	2119
555.2	2119
555.4	2122
555.6	2120
555.8	2112
556.0	2109
556.2	2104
556.4	2096
556.6	2090
556.8	2085
557.0	2080
557.2	2077
557.4	2071
557.6	2065
557.8	2058
558.0	2056
558.2	2052
558.4	2056
558.6	2052
558.8	2042
559.0	2033
559.2	2031
559.4	2029
559.6	2029
559.8	2025
560.0	2018
560.2	2009
560.4	2004
560.6	1998
560.8	1990
561.0	1982
561.2	1979
561.4	1974
561.6	1972
561.8	1966
562.0	1965
562.2	1960
562.4	1954
562.6	1946
562.8	1936
563.0	1928
563.2	1924
563.4	1921
563.6	1913
563.8	1909
564.0	1901
564.2	1897
564.4	1894
564.6	1891
564.8	1888
565.0	1883
565.2	1875
565.4	1871
565.6	1865
565.8	1861
566.0	1860
566.2	1856
566.4	1851
566.6	1843
566.8	1832
567.0	1822
567.2	1818
567.4	1810
567.6	1804
567.8	1801
568.0	1795
568.2	1790
568.4	1784
568.6	1773
568.8	1764
569.0	1759
569.2	1754
569.4	1753
569.6	1753
569.8	1754
570.0	1753
570.2	1740
570.4	1730
570.6	1720
570.8	1713
571.0	1712
571.2	1712
571.4	1709
571.6	1706
571.8	1701
572.0	1697
572.2	1689
572.4	1676
572.6	1668
572.8	1662
573.0	1661
573.2	1659
573.4	1658
573.6	1649
573.8	1639
574.0	1632
574.2	1627
574.4	1621
574.6	1614
574.8	1605
575.0	1597
575.2	1590
575.4	1586
575.6	1582
575.8	1579
576.0	1571
576.2	1567
576.4	1556
576.6	1552
576.8	1551
577.0	1549
577.2	1543
577.4	1541
577.6	1531
577.8	1525
578.0	1523
578.2	1515
578.4	1507
578.6	1503
578.8	1496
579.0	1491
579.2	1489
579.4	1483
579.6	1474
579.8	1464
580.0	1456
580.2	1453
580.4	1450
580.6	1451
580.8	1448
581.0	1438
581.2	1429
581.4	1416
581.6	1406
581.8	1401
582.0	1395
582.2	1397
582.4	1396
582.6	1391
582.8	1384
583.0	1377
583.2	1369
583.4	1366
583.6	1361
583.8	1356
584.0	1351
584.2	1346
584.4	1344
584.6	1337
584.8	1330
585.0	1323
585.2	1320
585.4	1315
585.6	1314
585.8	1311
586.0	1305
586.2	1299
586.4	1292
586.6	1282
586.8	1276
587.0	1272
587.2	1268
587.4	1262
587.6	1253
587.8	1244
588.0	1239
588.2	1238
588.4	1236
588.6	1234
588.8	1232
589.0	1228
589.2	1224
589.4	1219
589.6	1212
589.8	1202
590.0	1196
590.2	1194
590.4	1192
590.6	1188
590.8	1185
591.0	1180
591.2	1175
591.4	1168
591.6	1158
591.8	1153
592.0	1149
592.2	1144
592.4	1137
592.6	1132
592.8	1125
593.0	1123
593.2	1119
593.4	1111
593.6	1104
593.8	1101
594.0	1096
594.2	1095
594.4	1089
594.6	1087
594.8	1083
595.0	1077
595.2	1073
595.4	1071
595.6	1061
595.8	1055
596.0	1050
596.2	1045
596.4	1041
596.6	1038
596.8	1032
597.0	1029
597.2	1025
597.4	1021
597.6	1014
597.8	1010
598.0	1006
598.2	1005
598.4	999.7
598.6	993.0
598.8	989.8
599.0	986.3
599.2	983.1
599.4	981.5
599.6	975.9
599.8	968.3
600.0	961.6
600.2	957.4
600.4	952.8
600.6	952.8
600.8	950.1
601.0	948.2
601.2	942.4
601.4	938.3
601.6	932.5
601.8	930.3
602.0	922.6
602.2	922.8
602.4	918.1
602.6	914.1
602.8	909.2
603.0	902.3
603.2	892.9
603.4	890.3
603.6	885.9
603.8	883.6
604.0	882.3
604.2	881.6
604.4	879.7
604.6	878.7
604.8	873.5
605.0	865.6
605.2	857.6
605.4	850.6
605.6	846.4
605.8	845.3
606.0	842.6
606.2	842.4
606.4	837.7
606.6	833.6
606.8	826.7
607.0	821.9
607.2	817.6
607.4	815.0
607.6	807.8
607.8	804.1
608.0	799.4
608.2	792.8
608.4	788.5
608.6	786.6
608.8	782.2
609.0	781.9
609.2	781.6
609.4	777.0
609.6	773.3
609.8	770.1
610.0	764.6
610.2	761.3
610.4	758.3
610.6	753.9
610.8	751.1
611.0	749.0
611.2	746.6
611.4	741.3
611.6	739.3
611.8	735.4
612.0	727.8
612.2	720.7
612.4	717.1
612.6	712.3
612.8	711.7
613.0	712.2
613.2	707.5
613.4	701.9
613.6	698.2
613.8	691.6
614.0	688.3
614.2	685.7
614.4	682.4
614.6	679.2
614.8	676.8
615.0	672.2
615.2	671.3
615.4	671.7
615.6	669.6
615.8	666.2
616.0	662.9
616.2	654.5
616.4	650.4
616.6	649.1
616.8	647.0
617.0	643.3
617.2	637.6
617.4	630.6
617.6	628.9
617.8	625.7
618.0	625.1
618.2	622.0
618.4	618.1
618.6	617.5
618.8	615.6
619.0	611.4
619.2	609.6
619.4	604.5
619.6	600.9
619.8	599.2
620.0	594.6
620.2	588.8
620.4	584.9
620.6	577.7
620.8	576.1
621.0	576.0
621.2	577.9
621.4	577.1
621.6	575.0
621.8	568.4
622.0	561.7
622.2	557.4
622.4	558.7
622.6	554.8
622.8	553.0
623.0	549.8
623.2	546.5
623.4	543.1
623.6	541.7
623.8	537.7
624.0	534.9
624.2	532.2
624.4	530.3
624.6	524.9
624.8	519.6
625.0	516.5
625.2	514.3
625.4	511.8
625.6	509.2
625.8	508.2
626.0	505.8
626.2	504.6
626.4	502.8
626.6	497.2
626.8	490.4
627.0	487.9
627.2	485.2
627.4	485.0
627.6	483.2
627.8	481.3
628.0	475.5
628.2	474.2
628.4	472.7
628.6	471.2
628.8	467.9
629.0	467.2
629.2	462.7
629.4	462.5
629.6	459.8
629.8	456.8
630.0	453.4
630.2	451.3
630.4	446.4
630.6	443.3
630.8	439.7
631.0	438.7
631.2	437.4
631.4	436.3
631.6	432.4
631.8	430.8
632.0	428.1
632.2	428.9
632.4	423.9
632.6	419.8
632.8	416.9
633.0	414.9
633.2	411.2
633.4	413.1
633.6	408.5
633.8	405.9
634.0	404.1
634.2	400.8
634.4	396.7
634.6	397.5
634.8	395.4
635.0	394.7
635.2	394.4
635.4	390.9
635.6	386.2
635.8	383.6
636.0	379.5
636.2	378.0
636.4	376.7
636.6	374.5
636.8	370.8
637.0	368.1
637.2	367.1
637.4	366.4
637.6	365.0
637.8	362.7
638.0	359.0
638.2	356.0
638.4	353.6
638.6	351.4
638.8	350.7
639.0	349.0
639.2	348.2
639.4	345.1
639.6	342.0
639.8	339.4
640.0	339.9
640.2	338.5
640.4	339.6
640.6	334.8
640.8	333.1
641.0	331.3
641.2	331.1
641.4	326.6
641.6	323.4
641.8	317.9
642.0	317.3
642.2	317.3
642.4	317.3
642.6	316.5
642.8	313.5
643.0	311.1
643.2	309.5
643.4	305.9
643.6	303.1
643.8	303.4
644.0	300.8
644.2	299.4
644.4	299.4
644.6	297.7
644.8	295.5
645.0	295.1
645.2	291.7
645.4	288.0
645.6	286.5
645.8	286.7
646.0	284.3
646.2	283.9
646.4	281.1
646.6	278.1
646.8	276.3
647.0	276.1
647.2	274.2
647.4	273.5
647.6	271.9
647.8	271.4
648.0	270.4
648.2	267.3
648.4	264.1
648.6	260.8
648.8	259.6
649.0	259.4
649.2	260.0
649.4	259.2
649.6	258.4
649.8	255.3
650.0	253.0
650.2	249.3
650.4	246.5
650.6	245.4
650.8	245.5
651.0	244.1
651.2	243.0
651.4	241.4
651.6	239.5
651.8	236.4
652.0	234.2
652.2	232.7
652.4	232.0
652.6	231.8
652.8	232.6
653.0	230.6
653.2	229.3
653.4	226.4
653.6	223.3
653.8	221.6
654.0	221.8
654.2	220.5
654.4	219.0
654.6	217.8
654.8	216.5
655.0	217.2
655.2	216.6
655.4	212.9
655.6	210.5
655.8	209.7
656.0	208.9
656.2	209.5
656.4	209.9
656.6	207.3
656.8	206.2
657.0	204.0
657.2	202.3
657.4	200.5
657.6	199.5
657.8	199.0
658.0	197.9
658.2	197.6
658.4	195.0
658.6	192.4
658.8	190.5
659.0	188.2
659.2	186.1
659.4	184.7
659.6	183.3
659.8	183.8
660.0	185.7
660.2	185.2
660.4	185.2
660.6	182.8
660.8	179.3
661.0	176.9
661.2	174.4
661.4	172.7
661.6	172.8
661.8	173.2
662.0	173.9
662.2	174.2
662.4	171.4
662.6	170.0
662.8	167.7
663.0	167.4
663.2	167.2
663.4	165.5
663.6	162.8
663.8	161.0
664.0	159.8
664.2	159.7
664.4	158.7
664.6	159.6
664.8	158.1
665.0	157.4
665.2	156.9
665.4	156.3
665.6	155.4
665.8	155.8
666.0	154.5
666.2	153.2
666.4	151.7
666.6	150.9
666.8	148.9
667.0	147.5
667.2	146.9
667.4	145.4
667.6	145.7
667.8	145.7
668.0	145.0
668.2	143.7
668.4	142.3
668.6	140.6
668.8	139.6
669.0	139.3
669.2	138.7
669.4	137.7
669.6	136.8
669.8	134.9
670.0	133.3
670.2	132.7
670.4	132.1
670.6	131.7
670.8	130.3
671.0	127.6
671.2	126.3
671.4	126.0
671.6	126.0
671.8	125.7
672.0	124.2
672.2	123.5
672.4	122.7
672.6	123.0
672.8	122.8
673.0	122.3
673.2	121.7
673.4	121.3
673.6	120.1
673.8	118.3
674.0	116.3
674.2	115.4
674.4	114.8
674.6	114.8
674.8	115.9
675.0	115.3
675.2	115.0
675.4	113.9
675.6	112.0
675.8	109.8
676.0	109.6
676.2	109.0
676.4	109.9
676.6	108.7
676.8	107.7
677.0	106.3
677.2	105.4
677.4	104.9
677.6	104.4
677.8	103.8
678.0	104.9
678.2	104.8
678.4	103.9
678.6	101.9
678.8	100.0
679.0	99.31
679.2	99.52
679.4	99.12
679.6	99.04
679.8	97.82
680.0	97.00
680.2	96.54
680.4	95.31
680.6	94.33
680.8	92.71
681.0	92.10
681.2	91.35
681.4	91.87
681.6	92.19
681.8	91.80
682.0	91.38
682.2	91.39
682.4	90.27
682.6	89.02
682.8	89.09
683.0	87.63
683.2	87.53
683.4	87.51
683.6	86.64
683.8	85.79
684.0	85.85
684.2	84.56
684.4	83.43
684.6	83.27
684.8	82.90
685.0	82.84
685.2	82.30
685.4	81.12
685.6	79.69
685.8	79.18
686.0	78.89
686.2	78.60
686.4	78.30
686.6	77.98
686.8	78.46
687.0	78.62
687.2	79.33
687.4	79.18
687.6	77.64
687.8	76.07
688.0	74.73
688.2	73.10
688.4	72.05
688.6	71.99
688.8	71.97
689.0	72.31
689.2	72.21
689.4	71.90
689.6	70.25
689.8	68.66
690.0	67.98
690.2	68.25
690.4	69.52
690.6	70.53
690.8	70.59
691.0	69.80
691.2	68.83
691.4	67.01
691.6	65.81
691.8	64.70
692.0	64.19
692.2	64.22
692.4	64.85
692.6	65.23
692.8	65.17
693.0	64.94
693.2	63.83
693.4	62.76
693.6	62.09
693.8	62.48
694.0	62.37
694.2	62.07
694.4	60.96
694.6	60.08
694.8	59.66
695.0	60.01
695.2	59.75
695.4	59.32
695.6	59.26
695.8	58.32
696.0	58.43
696.2	58.21
696.4	57.49
696.6	56.64
696.8	56.41
697.0	56.09
697.2	56.58
697.4	56.45
697.6	56.76
697.8	55.87
698.0	54.82
698.2	53.81
698.4	53.72
698.6	53.52
698.8	54.17
699.0	54.50
699.2	54.22
699.4	52.91
699.6	53.28
699.8	53.17
700.0	53.36
700.2	52.79
700.4	52.27
700.6	50.93
700.8	50.77
701.0	51.18
701.2	50.92
701.4	49.95
701.6	49.09
701.8	48.67
702.0	48.49
702.2	49.38
702.4	49.54
702.6	49.05
702.8	48.31
703.0	47.38
703.2	46.82
703.4	46.47
703.6	46.01
703.8	45.70
704.0	45.89
704.2	45.16
704.4	45.31
704.6	45.30
704.8	45.12
705.0	45.71
705.2	45.82
705.4	45.38
705.6	44.91
705.8	44.10
706.0	44.07
706.2	44.30
706.4	44.27
706.6	44.53
706.8	44.93
707.0	44.25
707.2	43.58
707.4	42.10
707.6	41.35
707.8	41.07
708.0	41.63
708.2	41.30
708.4	41.52
708.6	40.65
708.8	40.60
709.0	40.76
709.2	40.69
709.4	39.94
709.6	40.00
709.8	39.37
710.0	39.00
710.2	39.21
710.4	38.28
710.6	38.04
710.8	38.14
711.0	38.01
711.2	37.73
711.4	37.35
711.6	36.57
711.8	37.04
712.0	37.42
712.2	36.96
712.4	37.27
712.6	36.79
712.8	36.22
713.0	36.36
713.2	35.72
713.4	34.96
713.6	35.01
713.8	34.44
714.0	34.45
714.2	35.11
714.4	34.82
714.6	35.12
714.8	34.83
715.0	34.11
715.2	33.91
715.4	33.46
715.6	32.48
715.8	32.30
716.0	32.59
716.2	33.04
716.4	33.50
716.6	33.97
