Sample:	'20211010A(EM)
File name:	G-NI 2.FDS
Run date:	'17:18:48, 06/19/2023
Operator:	Administrator
Comment:	'

Instrument
Model:	F-4700 FL Spectrophotometer
Serial number:	2019-001
ROM Version:	5J24010 00

Instrument parameters
Measurement type:	Wavelength scan
Scan mode:	Emission
Data mode:	Fluorescence
EX WL:	400.0 nm
EM  Start WL:	420.0 nm
EM  End WL:	800.0 nm
Scan speed:	1200 nm/min
Delay:	0.0 s
EX Slit:	10.0 nm
EM Slit:	10.0 nm
PMT Voltage:	500 V
Response:	0.002 s
Corrected spectra:	Off
Shutter control:	On

Processing performed
Savitsky-Golay smoothed
Smoothing order:	3
Number of points:	7
Number of times:	1

Peak integration
Integration method:	Rectangular
Sensitivity:	1
Threshold:	1.000

Peaks
No.	Start(nm)	Apex(nm)	End(nm)	Height(Data)	Valley(nm)	Valley(Data)
1	420.0	533.0	533.6	481.8	533.6	476.8
2	533.6	537.4	538.6	495.2	538.6	489.2
3	538.6	539.4	541.6	495.9	541.6	486.9
4	541.6	542.2	669.2	493.4	669.2	29.03
5	669.2	670.0	685.0	30.42	685.0	16.74
6	685.0	686.0	709.6	17.93	709.6	8.053
7	709.6	711.2	782.4	9.141	782.4	0.999

Data points
nm	Data
420.0	0.526
420.2	0.890
420.4	0.833
420.6	0.572
420.8	0.484
421.0	0.373
421.2	0.425
421.4	0.473
421.6	0.507
421.8	0.495
422.0	0.560
422.2	0.653
422.4	0.671
422.6	0.691
422.8	0.618
423.0	0.542
423.2	0.406
423.4	0.461
423.6	0.426
423.8	0.559
424.0	0.592
424.2	0.647
424.4	0.738
424.6	0.752
424.8	0.711
425.0	0.856
425.2	0.815
425.4	0.775
425.6	0.699
425.8	0.539
426.0	0.415
426.2	0.573
426.4	0.653
426.6	0.724
426.8	0.741
427.0	0.742
427.2	0.650
427.4	0.655
427.6	0.665
427.8	0.618
428.0	0.580
428.2	0.530
428.4	0.556
428.6	0.655
428.8	0.730
429.0	0.694
429.2	0.673
429.4	0.592
429.6	0.602
429.8	0.609
430.0	0.564
430.2	0.438
430.4	0.452
430.6	0.434
430.8	0.499
431.0	0.524
431.2	0.619
431.4	0.574
431.6	0.569
431.8	0.506
432.0	0.458
432.2	0.441
432.4	0.530
432.6	0.559
432.8	0.628
433.0	0.727
433.2	0.715
433.4	0.649
433.6	0.571
433.8	0.435
434.0	0.367
434.2	0.471
434.4	0.643
434.6	0.786
434.8	0.876
435.0	0.763
435.2	0.608
435.4	0.585
435.6	0.545
435.8	0.547
436.0	0.569
436.2	0.468
436.4	0.518
436.6	0.519
436.8	0.551
437.0	0.547
437.2	0.533
437.4	0.536
437.6	0.681
437.8	0.683
438.0	0.738
438.2	0.677
438.4	0.598
438.6	0.483
438.8	0.561
439.0	0.619
439.2	0.635
439.4	0.604
439.6	0.658
439.8	0.585
440.0	0.616
440.2	0.683
440.4	0.715
440.6	0.640
440.8	0.757
441.0	0.696
441.2	0.556
441.4	0.487
441.6	0.517
441.8	0.502
442.0	0.606
442.2	0.644
442.4	0.633
442.6	0.740
442.8	0.802
443.0	0.716
443.2	0.743
443.4	0.731
443.6	0.791
443.8	0.864
444.0	0.722
444.2	0.637
444.4	0.627
444.6	0.628
444.8	0.623
445.0	0.564
445.2	0.507
445.4	0.545
445.6	0.471
445.8	0.499
446.0	0.425
446.2	0.419
446.4	0.476
446.6	0.489
446.8	0.449
447.0	0.407
447.2	0.334
447.4	0.327
447.6	0.502
447.8	0.599
448.0	0.612
448.2	0.649
448.4	0.697
448.6	0.714
448.8	0.812
449.0	0.850
449.2	0.720
449.4	0.660
449.6	0.641
449.8	0.609
450.0	0.675
450.2	0.667
450.4	0.624
450.6	0.593
450.8	0.625
451.0	0.620
451.2	0.661
451.4	0.502
451.6	0.491
451.8	0.592
452.0	0.726
452.2	0.733
452.4	0.652
452.6	0.460
452.8	0.395
453.0	0.419
453.2	0.542
453.4	0.667
453.6	0.669
453.8	0.671
454.0	0.640
454.2	0.573
454.4	0.573
454.6	0.621
454.8	0.615
455.0	0.615
455.2	0.652
455.4	0.747
455.6	0.656
455.8	0.668
456.0	0.645
456.2	0.487
456.4	0.471
456.6	0.529
456.8	0.422
457.0	0.549
457.2	0.707
457.4	0.724
457.6	0.761
457.8	0.808
458.0	0.731
458.2	0.619
458.4	0.642
458.6	0.687
458.8	0.714
459.0	0.701
459.2	0.602
459.4	0.628
459.6	0.746
459.8	0.848
460.0	0.811
460.2	0.654
460.4	0.480
460.6	0.494
460.8	0.536
461.0	0.675
461.2	0.756
461.4	0.767
461.6	0.785
461.8	0.808
462.0	0.803
462.2	0.896
462.4	0.887
462.6	0.809
462.8	0.731
463.0	0.707
463.2	0.674
463.4	0.812
463.6	0.831
463.8	0.957
464.0	0.997
464.2	1.058
464.4	1.017
464.6	0.927
464.8	0.668
465.0	0.620
465.2	0.699
465.4	0.928
465.6	1.074
465.8	1.072
466.0	0.899
466.2	0.843
466.4	0.974
466.6	1.105
466.8	1.195
467.0	1.119
467.2	0.971
467.4	0.939
467.6	1.114
467.8	1.222
468.0	1.164
468.2	1.121
468.4	1.049
468.6	0.981
468.8	1.066
469.0	1.297
469.2	1.247
469.4	1.275
469.6	1.155
469.8	1.118
470.0	1.223
470.2	1.484
470.4	1.643
470.6	1.688
470.8	1.609
471.0	1.628
471.2	1.725
471.4	1.595
471.6	1.691
471.8	1.745
472.0	1.787
472.2	1.951
472.4	2.126
472.6	1.970
472.8	2.072
473.0	2.103
473.2	2.022
473.4	2.036
473.6	2.101
473.8	2.031
474.0	2.267
474.2	2.261
474.4	2.413
474.6	2.406
474.8	2.606
475.0	2.636
475.2	2.709
475.4	2.786
475.6	2.935
475.8	2.959
476.0	3.101
476.2	3.070
476.4	2.971
476.6	3.240
476.8	3.461
477.0	3.840
477.2	3.990
477.4	4.248
477.6	4.201
477.8	4.276
478.0	4.379
478.2	4.446
478.4	4.604
478.6	5.104
478.8	4.901
479.0	4.846
479.2	5.167
479.4	5.425
479.6	6.150
479.8	6.671
480.0	6.583
480.2	6.737
480.4	6.990
480.6	7.015
480.8	7.490
481.0	7.517
481.2	7.471
481.4	7.675
481.6	7.990
481.8	8.199
482.0	8.461
482.2	8.522
482.4	8.596
482.6	8.590
482.8	9.227
483.0	10.03
483.2	10.67
483.4	11.32
483.6	11.50
483.8	11.65
484.0	11.73
484.2	11.93
484.4	12.59
484.6	13.52
484.8	14.11
485.0	14.94
485.2	14.66
485.4	14.67
485.6	15.27
485.8	16.22
486.0	17.28
486.2	18.30
486.4	18.18
486.6	18.25
486.8	18.39
487.0	18.96
487.2	19.66
487.4	21.00
487.6	21.54
487.8	22.54
488.0	22.79
488.2	23.15
488.4	23.83
488.6	25.14
488.8	25.77
489.0	26.64
489.2	27.18
489.4	27.89
489.6	29.22
489.8	30.39
490.0	30.88
490.2	31.29
490.4	31.75
490.6	32.66
490.8	33.87
491.0	34.96
491.2	36.74
491.4	38.11
491.6	38.76
491.8	39.61
492.0	40.57
492.2	41.42
492.4	43.05
492.6	44.49
492.8	45.61
493.0	46.86
493.2	48.55
493.4	49.92
493.6	51.72
493.8	53.36
494.0	54.24
494.2	55.79
494.4	56.95
494.6	58.22
494.8	60.46
495.0	61.80
495.2	63.18
495.4	65.02
495.6	65.29
495.8	66.46
496.0	68.89
496.2	71.03
496.4	74.55
496.6	76.50
496.8	77.55
497.0	78.32
497.2	79.39
497.4	81.37
497.6	85.20
497.8	87.86
498.0	90.06
498.2	90.23
498.4	90.72
498.6	92.30
498.8	95.59
499.0	98.20
499.2	99.91
499.4	101.0
499.6	102.4
499.8	106.0
500.0	110.0
500.2	113.3
500.4	116.2
500.6	117.9
500.8	118.9
501.0	121.6
501.2	122.6
501.4	124.4
501.6	127.5
501.8	128.9
502.0	132.4
502.2	136.7
502.4	139.3
502.6	143.5
502.8	146.7
503.0	146.8
503.2	148.0
503.4	149.8
503.6	151.7
503.8	155.6
504.0	159.1
504.2	161.6
504.4	165.0
504.6	168.5
504.8	171.5
505.0	172.9
505.2	174.2
505.4	174.6
505.6	178.8
505.8	182.4
506.0	186.6
506.2	190.6
506.4	193.4
506.6	193.9
506.8	197.9
507.0	200.3
507.2	203.7
507.4	208.9
507.6	212.6
507.8	214.2
508.0	217.8
508.2	219.7
508.4	221.9
508.6	224.8
508.8	227.8
509.0	231.5
509.2	234.9
509.4	238.7
509.6	242.0
509.8	242.7
510.0	245.2
510.2	249.6
510.4	253.3
510.6	257.9
510.8	261.5
511.0	262.6
511.2	263.9
511.4	265.6
511.6	269.4
511.8	273.0
512.0	276.5
512.2	279.5
512.4	281.6
512.6	283.8
512.8	287.5
513.0	290.7
513.2	295.5
513.4	298.9
513.6	301.3
513.8	304.1
514.0	306.3
514.2	308.3
514.4	313.1
514.6	317.2
514.8	320.4
515.0	322.8
515.2	325.1
515.4	325.8
515.6	327.9
515.8	330.3
516.0	332.9
516.2	334.8
516.4	338.5
516.6	341.6
516.8	345.7
517.0	349.5
517.2	350.8
517.4	352.4
517.6	353.7
517.8	357.4
518.0	360.9
518.2	365.0
518.4	369.0
518.6	374.1
518.8	376.0
519.0	378.3
519.2	378.7
519.4	378.9
519.6	382.2
519.8	385.5
520.0	388.9
520.2	390.6
520.4	392.1
520.6	394.0
520.8	396.8
521.0	398.9
521.2	402.8
521.4	404.0
521.6	404.7
521.8	405.7
522.0	407.3
522.2	407.1
522.4	409.8
522.6	413.0
522.8	416.2
523.0	419.3
523.2	422.1
523.4	422.4
523.6	423.8
523.8	426.9
524.0	430.4
524.2	432.5
524.4	434.6
524.6	436.3
524.8	437.0
525.0	436.8
525.2	436.8
525.4	437.4
525.6	439.7
525.8	443.0
526.0	448.0
526.2	449.8
526.4	449.3
526.6	450.6
526.8	447.2
527.0	446.3
527.2	447.9
527.4	450.4
527.6	452.9
527.8	458.6
528.0	459.8
528.2	461.2
528.4	461.4
528.6	462.7
528.8	462.8
529.0	464.2
529.2	465.2
529.4	464.7
529.6	463.8
529.8	465.7
530.0	468.1
530.2	470.9
530.4	472.3
530.6	473.0
530.8	471.3
531.0	471.6
531.2	472.9
531.4	475.9
531.6	477.3
531.8	479.9
532.0	479.4
532.2	477.4
532.4	477.0
532.6	477.7
532.8	478.3
533.0	481.8
533.2	480.0
533.4	477.5
533.6	476.8
533.8	476.9
534.0	477.8
534.2	482.4
534.4	483.6
534.6	486.3
534.8	486.8
535.0	487.0
535.2	486.6
535.4	486.5
535.6	487.6
535.8	488.9
536.0	488.3
536.2	487.2
536.4	485.4
536.6	484.0
536.8	487.6
537.0	490.9
537.2	494.2
537.4	495.2
537.6	494.5
537.8	493.4
538.0	493.4
538.2	491.2
538.4	490.8
538.6	489.2
538.8	491.0
539.0	493.1
539.2	495.2
539.4	495.9
539.6	495.5
539.8	493.7
540.0	494.7
540.2	491.7
540.4	491.2
540.6	490.3
540.8	488.3
541.0	488.9
541.2	489.5
541.4	487.1
541.6	486.9
541.8	487.5
542.0	489.6
542.2	493.4
542.4	493.0
542.6	489.7
542.8	486.5
543.0	486.8
543.2	487.8
543.4	489.4
543.6	490.0
543.8	486.8
544.0	484.4
544.2	483.3
544.4	482.9
544.6	483.1
544.8	484.1
545.0	485.1
545.2	485.3
545.4	484.2
545.6	482.5
545.8	481.7
546.0	481.1
546.2	483.1
546.4	482.1
546.6	480.0
546.8	478.8
547.0	478.3
547.2	477.1
547.4	477.3
547.6	475.9
547.8	475.6
548.0	475.9
548.2	476.1
548.4	475.0
548.6	475.1
548.8	475.3
549.0	475.6
549.2	473.2
549.4	473.5
549.6	472.1
549.8	470.8
550.0	470.5
550.2	468.0
550.4	467.7
550.6	467.4
550.8	467.7
551.0	466.2
551.2	466.8
551.4	463.6
551.6	460.9
551.8	459.5
552.0	459.1
552.2	459.4
552.4	461.5
552.6	458.5
552.8	455.6
553.0	456.9
553.2	455.7
553.4	456.5
553.6	456.3
553.8	452.9
554.0	453.6
554.2	455.0
554.4	453.1
554.6	452.1
554.8	448.6
555.0	444.9
555.2	445.2
555.4	446.9
555.6	447.5
555.8	448.3
556.0	447.3
556.2	444.2
556.4	442.5
556.6	442.3
556.8	440.7
557.0	437.8
557.2	437.0
557.4	435.5
557.6	434.2
557.8	434.0
558.0	433.2
558.2	432.0
558.4	431.8
558.6	432.4
558.8	431.1
559.0	430.5
559.2	430.6
559.4	429.4
559.6	429.5
559.8	427.0
560.0	423.5
560.2	422.7
560.4	422.5
560.6	422.4
560.8	422.0
561.0	419.3
561.2	418.4
561.4	416.7
561.6	416.2
561.8	416.2
562.0	414.8
562.2	413.0
562.4	412.5
562.6	408.4
562.8	407.6
563.0	407.1
563.2	407.6
563.4	408.1
563.6	408.3
563.8	406.2
564.0	405.3
564.2	403.0
564.4	400.1
564.6	399.6
564.8	396.8
565.0	395.7
565.2	395.2
565.4	393.7
565.6	393.5
565.8	395.5
566.0	395.0
566.2	395.3
566.4	393.8
566.6	390.1
566.8	388.2
567.0	384.5
567.2	382.8
567.4	382.1
567.6	383.3
567.8	383.8
568.0	386.3
568.2	383.9
568.4	383.5
568.6	381.0
568.8	379.4
569.0	375.9
569.2	374.5
569.4	373.7
569.6	372.0
569.8	370.7
570.0	370.3
570.2	366.2
570.4	363.4
570.6	362.8
570.8	361.4
571.0	360.9
571.2	361.1
571.4	361.3
571.6	360.5
571.8	359.8
572.0	358.2
572.2	357.5
572.4	357.5
572.6	357.9
572.8	356.2
573.0	354.6
573.2	352.1
573.4	351.3
573.6	350.3
573.8	347.7
574.0	345.9
574.2	346.2
574.4	345.7
574.6	343.9
574.8	341.1
575.0	339.1
575.2	336.9
575.4	336.4
575.6	335.8
575.8	335.4
576.0	334.2
576.2	334.1
576.4	332.8
576.6	331.3
576.8	328.2
577.0	327.5
577.2	326.3
577.4	326.2
577.6	326.4
577.8	325.0
578.0	322.5
578.2	321.1
578.4	318.8
578.6	317.8
578.8	315.7
579.0	315.3
579.2	315.2
579.4	313.9
579.6	312.6
579.8	311.9
580.0	310.7
580.2	312.4
580.4	312.8
580.6	311.2
580.8	309.0
581.0	306.9
581.2	304.9
581.4	302.6
581.6	302.0
581.8	299.4
582.0	298.3
582.2	298.8
582.4	298.3
582.6	297.0
582.8	296.2
583.0	293.5
583.2	292.0
583.4	290.6
583.6	289.3
583.8	287.1
584.0	285.6
584.2	286.6
584.4	287.4
584.6	285.4
584.8	284.3
585.0	282.5
585.2	282.1
585.4	282.3
585.6	281.0
585.8	278.2
586.0	276.1
586.2	274.7
586.4	273.4
586.6	271.1
586.8	268.3
587.0	267.8
587.2	268.4
587.4	269.7
587.6	269.6
587.8	269.2
588.0	266.9
588.2	264.0
588.4	260.8
588.6	258.3
588.8	256.7
589.0	258.1
589.2	259.8
589.4	258.2
589.6	258.6
589.8	257.6
590.0	257.4
590.2	255.9
590.4	253.3
590.6	248.8
590.8	248.4
591.0	249.2
591.2	249.8
591.4	248.0
591.6	246.9
591.8	243.8
592.0	243.8
592.2	244.2
592.4	242.0
592.6	241.0
592.8	241.4
593.0	239.5
593.2	239.5
593.4	238.4
593.6	235.7
593.8	236.2
594.0	235.4
594.2	233.8
594.4	233.4
594.6	233.5
594.8	230.1
595.0	229.0
595.2	227.1
595.4	225.1
595.6	224.7
595.8	223.8
596.0	221.7
596.2	221.0
596.4	221.8
596.6	222.5
596.8	223.1
597.0	221.9
597.2	221.0
597.4	218.8
597.6	216.8
597.8	215.5
598.0	215.6
598.2	216.0
598.4	215.7
598.6	214.0
598.8	211.2
599.0	209.9
599.2	208.5
599.4	208.4
599.6	206.5
599.8	206.1
600.0	205.6
600.2	205.4
600.4	202.8
600.6	201.5
600.8	200.3
601.0	201.0
601.2	202.2
601.4	201.2
601.6	198.6
601.8	195.3
602.0	194.0
602.2	193.3
602.4	193.1
602.6	192.9
602.8	193.0
603.0	192.1
603.2	192.1
603.4	192.7
603.6	190.0
603.8	188.5
604.0	187.1
604.2	185.9
604.4	186.5
604.6	187.4
604.8	186.1
605.0	185.1
605.2	183.1
605.4	180.0
605.6	178.6
605.8	178.7
606.0	179.3
606.2	180.5
606.4	179.0
606.6	177.0
606.8	173.9
607.0	174.0
607.2	173.3
607.4	173.8
607.6	173.1
607.8	173.2
608.0	170.6
608.2	170.5
608.4	169.2
608.6	169.0
608.8	167.6
609.0	167.3
609.2	166.6
609.4	165.5
609.6	165.4
609.8	165.3
610.0	163.9
610.2	164.1
610.4	162.5
610.6	160.1
610.8	157.8
611.0	156.5
611.2	155.8
611.4	156.0
611.6	155.1
611.8	155.0
612.0	154.8
612.2	154.4
612.4	154.3
612.6	153.5
612.8	153.5
613.0	153.1
613.2	152.5
613.4	151.6
613.6	150.9
613.8	148.7
614.0	149.9
614.2	148.4
614.4	146.4
614.6	146.0
614.8	144.5
615.0	141.8
615.2	142.6
615.4	140.8
615.6	140.6
615.8	140.0
616.0	139.3
616.2	137.9
616.4	138.2
616.6	138.0
616.8	137.7
617.0	136.9
617.2	137.2
617.4	138.0
617.6	138.6
617.8	136.6
618.0	134.6
618.2	132.4
618.4	131.4
618.6	131.3
618.8	131.2
619.0	129.9
619.2	129.5
619.4	126.9
619.6	125.2
619.8	123.9
620.0	123.0
620.2	124.0
620.4	125.5
620.6	125.0
620.8	124.6
621.0	124.1
621.2	121.7
621.4	121.9
621.6	121.2
621.8	119.6
622.0	119.3
622.2	119.4
622.4	118.3
622.6	118.5
622.8	116.8
623.0	115.7
623.2	115.3
623.4	115.6
623.6	115.1
623.8	114.5
624.0	112.3
624.2	111.3
624.4	110.8
624.6	110.9
624.8	111.1
625.0	110.7
625.2	109.8
625.4	110.5
625.6	110.7
625.8	109.9
626.0	109.2
626.2	107.4
626.4	105.3
626.6	105.3
626.8	104.9
627.0	104.3
627.2	104.7
627.4	104.6
627.6	103.8
627.8	103.3
628.0	102.2
628.2	101.2
628.4	101.8
628.6	101.7
628.8	100.8
629.0	100.2
629.2	98.93
629.4	97.51
629.6	96.96
629.8	96.64
630.0	95.40
630.2	95.50
630.4	95.46
630.6	95.61
630.8	95.70
631.0	95.66
631.2	94.63
631.4	92.86
631.6	91.60
631.8	91.06
632.0	91.20
632.2	89.86
632.4	89.72
632.6	89.82
632.8	89.84
633.0	90.47
633.2	90.19
633.4	88.80
633.6	87.96
633.8	88.34
634.0	86.83
634.2	86.25
634.4	85.41
634.6	85.11
634.8	84.82
635.0	85.42
635.2	84.20
635.4	83.91
635.6	82.94
635.8	81.66
636.0	80.83
636.2	80.29
636.4	80.11
636.6	80.65
636.8	80.00
637.0	79.37
637.2	78.42
637.4	77.95
637.6	77.71
637.8	76.93
638.0	76.12
638.2	75.03
638.4	74.61
638.6	75.10
638.8	74.67
639.0	73.33
639.2	73.24
639.4	71.61
639.6	72.09
639.8	73.01
640.0	72.70
640.2	72.30
640.4	73.04
640.6	71.88
640.8	71.83
641.0	71.37
641.2	70.86
641.4	70.59
641.6	70.46
641.8	69.45
642.0	68.95
642.2	68.34
642.4	68.30
642.6	68.38
642.8	67.53
643.0	66.03
643.2	65.42
643.4	64.67
643.6	64.78
643.8	65.06
644.0	64.20
644.2	63.68
644.4	63.61
644.6	63.03
644.8	62.98
645.0	62.76
645.2	61.54
645.4	61.67
645.6	61.32
645.8	60.53
646.0	59.84
646.2	59.82
646.4	59.73
646.6	60.74
646.8	60.28
647.0	59.59
647.2	58.55
647.4	58.27
647.6	58.52
647.8	58.81
648.0	57.79
648.2	56.62
648.4	56.37
648.6	55.83
648.8	55.50
649.0	55.15
649.2	54.72
649.4	53.64
649.6	54.35
649.8	53.90
650.0	53.42
650.2	52.93
650.4	51.86
650.6	51.64
650.8	51.89
651.0	51.94
651.2	52.26
651.4	52.22
651.6	51.64
651.8	51.18
652.0	50.29
652.2	50.06
652.4	50.42
652.6	51.11
652.8	50.92
653.0	50.11
653.2	49.40
653.4	48.47
653.6	48.37
653.8	48.24
654.0	47.93
654.2	47.85
654.4	48.15
654.6	47.78
654.8	47.72
655.0	46.68
655.2	46.51
655.4	45.98
655.6	46.24
655.8	46.04
656.0	45.89
656.2	45.02
656.4	43.98
656.6	43.92
656.8	44.02
657.0	43.61
657.2	43.98
657.4	43.24
657.6	42.09
657.8	42.48
658.0	42.37
658.2	42.41
658.4	43.17
658.6	42.56
658.8	42.28
659.0	42.00
659.2	41.20
659.4	40.36
659.6	39.79
659.8	38.85
660.0	38.41
660.2	38.36
660.4	38.63
660.6	38.41
660.8	38.04
661.0	38.08
661.2	37.57
661.4	37.43
661.6	38.02
661.8	37.67
662.0	37.01
662.2	37.36
662.4	36.46
662.6	35.58
662.8	36.16
663.0	36.09
663.2	36.18
663.4	36.51
663.6	35.94
663.8	34.33
664.0	33.88
664.2	33.64
664.4	33.85
664.6	34.36
664.8	34.44
665.0	33.43
665.2	33.61
665.4	33.82
665.6	33.97
665.8	33.39
666.0	32.59
666.2	31.86
666.4	31.75
666.6	31.96
666.8	32.05
667.0	31.99
667.2	32.10
667.4	31.86
667.6	31.59
667.8	32.14
668.0	31.69
668.2	31.58
668.4	30.81
668.6	29.76
668.8	29.07
669.0	29.19
669.2	29.03
669.4	29.14
669.6	29.94
669.8	30.37
670.0	30.42
670.2	30.03
670.4	29.48
670.6	27.94
670.8	27.92
671.0	27.65
671.2	27.74
671.4	28.08
671.6	28.41
671.8	27.70
672.0	27.29
672.2	26.56
672.4	26.28
672.6	26.16
672.8	26.20
673.0	26.29
673.2	25.74
673.4	25.95
673.6	26.05
673.8	26.03
674.0	25.27
674.2	24.65
674.4	24.48
674.6	24.75
674.8	24.74
675.0	25.10
675.2	24.40
675.4	24.00
675.6	24.30
675.8	23.97
676.0	23.38
676.2	23.14
676.4	22.89
676.6	22.67
676.8	22.84
677.0	23.13
677.2	23.02
677.4	22.86
677.6	23.07
677.8	22.61
678.0	22.08
678.2	22.37
678.4	22.27
678.6	22.32
678.8	22.52
679.0	22.57
679.2	22.02
679.4	21.98
679.6	21.87
679.8	21.33
680.0	21.45
680.2	21.50
680.4	21.30
680.6	20.96
680.8	20.79
681.0	20.51
681.2	20.53
681.4	20.00
681.6	19.96
681.8	19.61
682.0	19.50
682.2	19.69
682.4	19.51
682.6	19.22
682.8	19.36
683.0	19.34
683.2	19.07
683.4	18.61
683.6	18.88
683.8	18.88
684.0	19.15
684.2	18.73
684.4	18.13
684.6	17.37
684.8	16.95
685.0	16.74
685.2	16.77
685.4	17.13
685.6	17.67
685.8	17.67
686.0	17.93
686.2	17.81
686.4	17.24
686.6	17.08
686.8	16.86
687.0	16.21
687.2	16.49
687.4	16.38
687.6	16.38
687.8	16.56
688.0	16.78
688.2	17.03
688.4	17.13
688.6	16.89
688.8	16.51
689.0	15.84
689.2	15.10
689.4	14.88
689.6	14.41
689.8	14.85
690.0	15.23
690.2	15.08
690.4	15.10
690.6	14.98
690.8	14.67
691.0	15.02
691.2	15.26
691.4	15.23
691.6	15.10
691.8	14.53
692.0	14.20
692.2	13.93
692.4	13.83
692.6	14.03
692.8	13.82
693.0	13.41
693.2	13.46
693.4	13.33
693.6	13.16
693.8	13.27
694.0	13.31
694.2	13.48
694.4	13.89
694.6	13.91
694.8	13.68
695.0	13.32
695.2	12.75
695.4	12.50
695.6	12.96
695.8	12.88
696.0	12.67
696.2	12.45
696.4	12.03
696.6	11.92
696.8	12.22
697.0	12.46
697.2	12.64
697.4	12.69
697.6	12.36
697.8	12.04
698.0	11.72
698.2	12.25
698.4	12.29
698.6	12.31
698.8	12.04
699.0	11.49
699.2	11.35
699.4	11.43
699.6	11.47
699.8	11.77
700.0	11.94
700.2	11.49
700.4	11.09
700.6	10.64
700.8	10.82
701.0	10.97
701.2	11.32
701.4	11.40
701.6	10.99
701.8	10.51
702.0	10.47
702.2	10.26
702.4	10.36
702.6	10.50
702.8	10.51
703.0	10.57
703.2	10.64
703.4	10.35
703.6	10.20
703.8	10.10
704.0	10.03
704.2	10.47
704.4	10.64
704.6	10.62
704.8	10.69
705.0	10.28
705.2	10.23
705.4	9.940
705.6	9.843
705.8	9.880
706.0	9.602
706.2	9.240
706.4	9.297
706.6	9.144
706.8	9.111
707.0	9.240
707.2	8.926
707.4	8.997
707.6	9.301
707.8	9.382
708.0	8.986
708.2	8.670
708.4	8.178
708.6	8.458
708.8	8.833
709.0	9.169
709.2	8.864
709.4	8.390
709.6	8.053
709.8	8.180
710.0	8.108
710.2	8.252
