Sample:	'20211010A(EM)
File name:	G-NI 10 1000.FDS
Run date:	'18:00:18, 06/19/2023
Operator:	Administrator
Comment:	'

Instrument
Model:	F-4700 FL Spectrophotometer
Serial number:	2019-001
ROM Version:	5J24010 00

Instrument parameters
Measurement type:	Wavelength scan
Scan mode:	Emission
Data mode:	Fluorescence
EX WL:	400.0 nm
EM  Start WL:	420.0 nm
EM  End WL:	800.0 nm
Scan speed:	1200 nm/min
Delay:	0.0 s
EX Slit:	10.0 nm
EM Slit:	10.0 nm
PMT Voltage:	500 V
Response:	0.002 s
Corrected spectra:	Off
Shutter control:	On

Processing performed
Savitsky-Golay smoothed
Smoothing order:	3
Number of points:	7
Number of times:	1

Peak integration
Integration method:	Rectangular
Sensitivity:	1
Threshold:	1.000

Peaks
No.	Start(nm)	Apex(nm)	End(nm)	Height(Data)	Valley(nm)	Valley(Data)
1	420.0	548.6	550.4	9141	550.4	9084
2	550.4	551.6	743.0	9116	743.0	46.92
3	743.0	743.6	754.8	48.73	754.8	31.73
4	754.8	755.2	761.0	33.03	761.0	25.26
5	761.0	761.4	777.4	26.39	777.4	14.72
6	777.4	778.2	782.4	15.78	782.4	13.31
7	782.4	783.0	784.0	14.50	784.0	12.99
8	784.0	787.4	788.2	14.23	788.2	13.13
9	788.2	796.2	796.8	17.10	796.8	15.69

Data points
nm	Data
420.0	4.032
420.2	3.776
420.4	3.529
420.6	3.322
420.8	3.120
421.0	3.243
421.2	3.379
421.4	3.462
421.6	3.575
421.8	3.789
422.0	3.568
422.2	3.406
422.4	3.344
422.6	3.375
422.8	3.562
423.0	3.699
423.2	3.596
423.4	3.436
423.6	3.339
423.8	3.149
424.0	3.238
424.2	3.342
424.4	3.531
424.6	3.569
424.8	3.524
425.0	3.362
425.2	3.532
425.4	3.625
425.6	3.876
425.8	3.817
426.0	3.926
426.2	3.946
426.4	3.860
426.6	3.744
426.8	3.695
427.0	3.434
427.2	3.432
427.4	3.468
427.6	3.254
427.8	3.287
428.0	3.326
428.2	3.361
428.4	3.474
428.6	3.559
428.8	3.495
429.0	3.566
429.2	3.652
429.4	3.706
429.6	3.740
429.8	3.778
430.0	3.798
430.2	3.808
430.4	3.901
430.6	3.798
430.8	3.675
431.0	3.715
431.2	3.880
431.4	3.923
431.6	4.021
431.8	4.118
432.0	4.039
432.2	3.982
432.4	4.074
432.6	3.842
432.8	3.606
433.0	3.619
433.2	3.531
433.4	3.596
433.6	3.916
433.8	3.959
434.0	3.976
434.2	4.130
434.4	4.229
434.6	4.239
434.8	4.204
435.0	4.103
435.2	4.023
435.4	4.244
435.6	4.377
435.8	4.377
436.0	4.320
436.2	4.243
436.4	4.144
436.6	4.171
436.8	4.100
437.0	4.126
437.2	4.103
437.4	4.239
437.6	4.297
437.8	4.247
438.0	4.309
438.2	4.439
438.4	4.257
438.6	4.251
438.8	4.198
439.0	4.115
439.2	4.353
439.4	4.560
439.6	4.486
439.8	4.687
440.0	4.881
440.2	4.915
440.4	4.845
440.6	4.731
440.8	4.608
441.0	4.606
441.2	4.577
441.4	4.578
441.6	4.471
441.8	4.306
442.0	4.465
442.2	4.455
442.4	4.574
442.6	4.643
442.8	4.881
443.0	4.794
443.2	5.014
443.4	5.066
443.6	5.162
443.8	5.024
444.0	5.117
444.2	4.937
444.4	5.104
444.6	5.206
444.8	5.464
445.0	5.620
445.2	5.580
445.4	5.562
445.6	5.616
445.8	5.517
446.0	5.720
446.2	5.806
446.4	5.554
446.6	5.587
446.8	5.600
447.0	5.805
447.2	6.251
447.4	6.365
447.6	6.261
447.8	6.072
448.0	6.029
448.2	6.365
448.4	6.715
448.6	6.687
448.8	6.685
449.0	6.503
449.2	6.359
449.4	6.702
449.6	6.871
449.8	6.905
450.0	6.957
450.2	6.907
450.4	6.573
450.6	6.644
450.8	6.612
451.0	6.943
451.2	7.204
451.4	7.458
451.6	7.368
451.8	7.355
452.0	7.476
452.2	7.535
452.4	7.283
452.6	7.236
452.8	7.453
453.0	7.822
453.2	8.250
453.4	8.438
453.6	8.226
453.8	8.373
454.0	8.616
454.2	9.013
454.4	8.933
454.6	8.806
454.8	8.613
455.0	8.722
455.2	8.733
455.4	8.913
455.6	8.765
455.8	8.833
456.0	9.093
456.2	9.398
456.4	9.851
456.6	10.05
456.8	10.05
457.0	10.16
457.2	10.28
457.4	10.50
457.6	10.71
457.8	10.76
458.0	10.68
458.2	10.56
458.4	10.72
458.6	11.27
458.8	11.54
459.0	12.07
459.2	12.58
459.4	13.08
459.6	13.19
459.8	13.22
460.0	13.12
460.2	13.36
460.4	13.54
460.6	13.79
460.8	13.57
461.0	13.48
461.2	13.76
461.4	14.26
461.6	14.24
461.8	14.52
462.0	15.04
462.2	15.49
462.4	16.15
462.6	16.62
462.8	16.85
463.0	17.13
463.2	17.32
463.4	17.35
463.6	17.54
463.8	17.57
464.0	18.21
464.2	19.03
464.4	19.77
464.6	20.03
464.8	20.23
465.0	19.83
465.2	20.17
465.4	21.37
465.6	22.78
465.8	23.59
466.0	24.28
466.2	24.84
466.4	24.92
466.6	25.10
466.8	24.91
467.0	24.66
467.2	25.37
467.4	26.42
467.6	27.02
467.8	27.74
468.0	27.90
468.2	28.52
468.4	29.93
468.6	30.59
468.8	31.79
469.0	32.53
469.2	33.50
469.4	34.36
469.6	35.67
469.8	35.98
470.0	36.12
470.2	36.79
470.4	38.09
470.6	38.94
470.8	40.77
471.0	41.83
471.2	42.98
471.4	44.94
471.6	46.44
471.8	47.60
472.0	48.37
472.2	49.39
472.4	50.17
472.6	51.56
472.8	53.19
473.0	55.67
473.2	57.17
473.4	58.92
473.6	60.50
473.8	61.62
474.0	63.33
474.2	65.36
474.4	66.56
474.6	67.33
474.8	68.95
475.0	69.65
475.2	72.37
475.4	75.35
475.6	78.70
475.8	81.56
476.0	84.30
476.2	85.04
476.4	86.82
476.6	89.66
476.8	92.08
477.0	95.76
477.2	99.20
477.4	101.0
477.6	103.3
477.8	106.0
478.0	107.6
478.2	110.9
478.4	114.9
478.6	119.1
478.8	123.2
479.0	126.8
479.2	129.6
479.4	133.2
479.6	137.3
479.8	140.6
480.0	144.1
480.2	148.2
480.4	152.1
480.6	158.3
480.8	163.0
481.0	166.1
481.2	169.7
481.4	173.7
481.6	179.6
481.8	186.2
482.0	192.5
482.2	197.9
482.4	201.8
482.6	207.0
482.8	212.9
483.0	217.6
483.2	224.7
483.4	230.9
483.6	236.4
483.8	245.4
484.0	251.0
484.2	255.8
484.4	260.5
484.6	266.6
484.8	274.7
485.0	283.7
485.2	291.3
485.4	299.1
485.6	306.4
485.8	317.7
486.0	327.9
486.2	334.7
486.4	343.6
486.6	351.0
486.8	359.2
487.0	367.6
487.2	376.5
487.4	385.6
487.6	394.7
487.8	405.0
488.0	415.5
488.2	426.3
488.4	438.1
488.6	450.2
488.8	460.1
489.0	470.9
489.2	482.6
489.4	494.1
489.6	506.0
489.8	519.3
490.0	531.1
490.2	544.5
490.4	559.2
490.6	571.7
490.8	585.1
491.0	598.5
491.2	612.7
491.4	628.3
491.6	643.5
491.8	661.0
492.0	680.4
492.2	695.3
492.4	709.1
492.6	718.8
492.8	731.6
493.0	748.6
493.2	768.5
493.4	787.4
493.6	802.4
493.8	817.0
494.0	834.2
494.2	852.4
494.4	874.4
494.6	896.8
494.8	920.5
495.0	941.2
495.2	960.2
495.4	981.1
495.6	1003
495.8	1025
496.0	1050
496.2	1071
496.4	1089
496.6	1108
496.8	1128
497.0	1152
497.2	1172
497.4	1195
497.6	1215
497.8	1237
498.0	1259
498.2	1281
498.4	1304
498.6	1331
498.8	1360
499.0	1390
499.2	1419
499.4	1447
499.6	1473
499.8	1497
500.0	1523
500.2	1554
500.4	1587
500.6	1614
500.8	1641
501.0	1671
501.2	1703
501.4	1741
501.6	1771
501.8	1796
502.0	1828
502.2	1859
502.4	1893
502.6	1933
502.8	1962
503.0	1996
503.2	2031
503.4	2062
503.6	2088
503.8	2124
504.0	2150
504.2	2186
504.4	2219
504.6	2264
504.8	2292
505.0	2333
505.2	2370
505.4	2402
505.6	2442
505.8	2484
506.0	2513
506.2	2543
506.4	2577
506.6	2611
506.8	2656
507.0	2704
507.2	2748
507.4	2786
507.6	2823
507.8	2860
508.0	2898
508.2	2941
508.4	2980
508.6	3022
508.8	3061
509.0	3089
509.2	3134
509.4	3179
509.6	3224
509.8	3270
510.0	3315
510.2	3347
510.4	3387
510.6	3430
510.8	3479
511.0	3523
511.2	3562
511.4	3597
511.6	3637
511.8	3685
512.0	3740
512.2	3787
512.4	3828
512.6	3860
512.8	3901
513.0	3939
513.2	3988
513.4	4037
513.6	4085
513.8	4121
514.0	4165
514.2	4205
514.4	4249
514.6	4297
514.8	4336
515.0	4381
515.2	4429
515.4	4478
515.6	4514
515.8	4573
516.0	4619
516.2	4674
516.4	4724
516.6	4769
516.8	4802
517.0	4858
517.2	4899
517.4	4948
517.6	4991
517.8	5030
518.0	5057
518.2	5102
518.4	5140
518.6	5192
518.8	5239
519.0	5291
519.2	5323
519.4	5373
519.6	5411
519.8	5463
520.0	5516
520.2	5568
520.4	5614
520.6	5659
520.8	5700
521.0	5747
521.2	5799
521.4	5840
521.6	5887
521.8	5926
522.0	5974
522.2	6013
522.4	6044
522.6	6071
522.8	6117
523.0	6156
523.2	6211
523.4	6258
523.6	6295
523.8	6328
524.0	6380
524.2	6422
524.4	6470
524.6	6503
524.8	6536
525.0	6565
525.2	6607
525.4	6648
525.6	6690
525.8	6732
526.0	6779
526.2	6820
526.4	6858
526.6	6900
526.8	6945
527.0	6987
527.2	7033
527.4	7064
527.6	7092
527.8	7123
528.0	7147
528.2	7172
528.4	7222
528.6	7259
528.8	7298
529.0	7323
529.2	7351
529.4	7385
529.6	7429
529.8	7466
530.0	7504
530.2	7532
530.4	7582
530.6	7619
530.8	7652
531.0	7685
531.2	7718
531.4	7748
531.6	7781
531.8	7812
532.0	7822
532.2	7841
532.4	7866
532.6	7896
532.8	7931
533.0	7985
533.2	8017
533.4	8052
533.6	8066
533.8	8078
534.0	8103
534.2	8145
534.4	8180
534.6	8203
534.8	8219
535.0	8239
535.2	8277
535.4	8313
535.6	8346
535.8	8371
536.0	8388
536.2	8402
536.4	8417
536.6	8420
536.8	8444
537.0	8467
537.2	8489
537.4	8513
537.6	8527
537.8	8553
538.0	8583
538.2	8617
538.4	8644
538.6	8672
538.8	8670
539.0	8691
539.2	8702
539.4	8722
539.6	8728
539.8	8745
540.0	8744
540.2	8771
540.4	8794
540.6	8820
540.8	8827
541.0	8851
541.2	8855
541.4	8877
541.6	8886
541.8	8903
542.0	8903
542.2	8921
542.4	8924
542.6	8948
542.8	8960
543.0	8982
543.2	8980
543.4	8982
543.6	8992
543.8	9002
544.0	9010
544.2	9030
544.4	9034
544.6	9047
544.8	9067
545.0	9068
545.2	9061
545.4	9071
545.6	9077
545.8	9080
546.0	9083
546.2	9078
546.4	9075
546.6	9087
546.8	9096
547.0	9102
547.2	9103
547.4	9108
547.6	9111
547.8	9121
548.0	9121
548.2	9135
548.4	9135
548.6	9141
548.8	9128
549.0	9118
549.2	9093
549.4	9101
549.6	9095
549.8	9099
550.0	9093
550.2	9090
550.4	9084
550.6	9093
550.8	9098
551.0	9109
551.2	9114
551.4	9115
551.6	9116
551.8	9097
552.0	9084
552.2	9076
552.4	9071
552.6	9074
552.8	9074
553.0	9064
553.2	9055
553.4	9057
553.6	9063
553.8	9063
554.0	9053
554.2	9044
554.4	9022
554.6	9008
554.8	9001
555.0	9001
555.2	9001
555.4	9001
555.6	8986
555.8	8974
556.0	8964
556.2	8955
556.4	8941
556.6	8932
556.8	8911
557.0	8889
557.2	8883
557.4	8879
557.6	8875
557.8	8869
558.0	8844
558.2	8810
558.4	8794
558.6	8791
558.8	8787
559.0	8779
559.2	8770
559.4	8750
559.6	8737
559.8	8733
560.0	8717
560.2	8700
560.4	8685
560.6	8668
560.8	8653
561.0	8648
561.2	8638
561.4	8621
561.6	8598
561.8	8575
562.0	8538
562.2	8543
562.4	8539
562.6	8539
562.8	8526
563.0	8509
563.2	8476
563.4	8477
563.6	8454
563.8	8427
564.0	8392
564.2	8380
564.4	8362
564.6	8349
564.8	8335
565.0	8298
565.2	8276
565.4	8277
565.6	8259
565.8	8235
566.0	8216
566.2	8192
566.4	8171
566.6	8174
566.8	8171
567.0	8160
567.2	8142
567.4	8115
567.6	8078
567.8	8051
568.0	8030
568.2	8015
568.4	7996
568.6	7981
568.8	7974
569.0	7945
569.2	7932
569.4	7908
569.6	7859
569.8	7832
570.0	7822
570.2	7799
570.4	7802
570.6	7779
570.8	7747
571.0	7724
571.2	7714
571.4	7692
571.6	7669
571.8	7640
572.0	7620
572.2	7592
572.4	7570
572.6	7538
572.8	7511
573.0	7496
573.2	7492
573.4	7494
573.6	7467
573.8	7442
574.0	7415
574.2	7383
574.4	7357
574.6	7347
574.8	7323
575.0	7310
575.2	7297
575.4	7273
575.6	7236
575.8	7210
576.0	7182
576.2	7151
576.4	7136
576.6	7122
576.8	7099
577.0	7082
577.2	7055
577.4	7020
577.6	6999
577.8	6977
578.0	6960
578.2	6951
578.4	6938
578.6	6922
578.8	6905
579.0	6874
579.2	6840
579.4	6817
579.6	6787
579.8	6756
580.0	6732
580.2	6719
580.4	6697
580.6	6687
580.8	6652
581.0	6616
581.2	6586
581.4	6574
581.6	6552
581.8	6545
582.0	6531
582.2	6521
582.4	6495
582.6	6466
582.8	6430
583.0	6399
583.2	6375
583.4	6366
583.6	6348
583.8	6331
584.0	6315
584.2	6290
584.4	6266
584.6	6242
584.8	6207
585.0	6184
585.2	6168
585.4	6153
585.6	6129
585.8	6103
586.0	6068
586.2	6046
586.4	6031
586.6	6014
586.8	5989
587.0	5971
587.2	5942
587.4	5917
587.6	5894
587.8	5873
588.0	5853
588.2	5838
588.4	5816
588.6	5790
588.8	5771
589.0	5751
589.2	5732
589.4	5712
589.6	5683
589.8	5648
590.0	5630
590.2	5600
590.4	5578
590.6	5554
590.8	5532
591.0	5516
591.2	5501
591.4	5482
591.6	5471
591.8	5450
592.0	5427
592.2	5406
592.4	5368
592.6	5342
592.8	5317
593.0	5288
593.2	5261
593.4	5256
593.6	5235
593.8	5221
594.0	5206
594.2	5179
594.4	5156
594.6	5147
594.8	5127
595.0	5111
595.2	5078
595.4	5049
595.6	5024
595.8	5006
596.0	4998
596.2	4987
596.4	4960
596.6	4938
596.8	4912
597.0	4897
597.2	4875
597.4	4846
597.6	4827
597.8	4799
598.0	4793
598.2	4788
598.4	4769
598.6	4737
598.8	4705
599.0	4666
599.2	4651
599.4	4637
599.6	4622
599.8	4609
600.0	4590
600.2	4563
600.4	4533
600.6	4513
600.8	4492
601.0	4481
601.2	4466
601.4	4447
601.6	4427
601.8	4411
602.0	4394
602.2	4377
602.4	4344
602.6	4313
602.8	4295
603.0	4274
603.2	4261
603.4	4248
603.6	4221
603.8	4199
604.0	4182
604.2	4165
604.4	4158
604.6	4145
604.8	4121
605.0	4106
605.2	4073
605.4	4053
605.6	4041
605.8	4029
606.0	4012
606.2	3997
606.4	3968
606.6	3947
606.8	3930
607.0	3906
607.2	3888
607.4	3862
607.6	3843
607.8	3823
608.0	3808
608.2	3790
608.4	3773
608.6	3758
608.8	3743
609.0	3722
609.2	3702
609.4	3685
609.6	3663
609.8	3647
610.0	3633
610.2	3614
610.4	3596
610.6	3574
610.8	3552
611.0	3532
611.2	3522
611.4	3505
611.6	3494
611.8	3470
612.0	3446
612.2	3428
612.4	3407
612.6	3392
612.8	3381
613.0	3359
613.2	3341
613.4	3328
613.6	3308
613.8	3300
614.0	3289
614.2	3268
614.4	3250
614.6	3230
614.8	3212
615.0	3197
615.2	3183
615.4	3167
615.6	3149
615.8	3127
616.0	3112
616.2	3101
616.4	3086
616.6	3076
616.8	3058
617.0	3044
617.2	3025
617.4	3006
617.6	2985
617.8	2974
618.0	2955
618.2	2943
618.4	2927
618.6	2910
618.8	2894
619.0	2878
619.2	2861
619.4	2846
619.6	2835
619.8	2827
620.0	2814
620.2	2793
620.4	2776
620.6	2763
620.8	2744
621.0	2731
621.2	2713
621.4	2696
621.6	2683
621.8	2675
622.0	2664
622.2	2656
622.4	2631
622.6	2611
622.8	2585
623.0	2566
623.2	2562
623.4	2555
623.6	2548
623.8	2532
624.0	2506
624.2	2479
624.4	2462
624.6	2450
624.8	2450
625.0	2439
625.2	2423
625.4	2412
625.6	2395
625.8	2385
626.0	2369
626.2	2352
626.4	2335
626.6	2332
626.8	2317
627.0	2305
627.2	2285
627.4	2266
627.6	2250
627.8	2244
628.0	2236
628.2	2229
628.4	2218
628.6	2201
628.8	2185
629.0	2170
629.2	2156
629.4	2142
629.6	2125
629.8	2111
630.0	2101
630.2	2092
630.4	2078
630.6	2067
630.8	2054
631.0	2043
631.2	2036
631.4	2028
631.6	2014
631.8	2005
632.0	1989
632.2	1975
632.4	1967
632.6	1955
632.8	1946
633.0	1935
633.2	1919
633.4	1904
633.6	1887
633.8	1878
634.0	1870
634.2	1866
634.4	1860
634.6	1850
634.8	1837
635.0	1824
635.2	1809
635.4	1801
635.6	1791
635.8	1777
636.0	1765
636.2	1753
636.4	1744
636.6	1736
636.8	1726
637.0	1711
637.2	1698
637.4	1689
637.6	1680
637.8	1668
638.0	1656
638.2	1645
638.4	1637
638.6	1630
638.8	1623
639.0	1614
639.2	1606
639.4	1594
639.6	1587
639.8	1574
640.0	1563
640.2	1555
640.4	1546
640.6	1533
640.8	1523
641.0	1515
641.2	1505
641.4	1500
641.6	1492
641.8	1483
642.0	1475
642.2	1467
642.4	1452
642.6	1441
642.8	1430
643.0	1420
643.2	1412
643.4	1403
643.6	1393
643.8	1385
644.0	1375
644.2	1366
644.4	1360
644.6	1351
644.8	1345
645.0	1336
645.2	1326
645.4	1316
645.6	1308
645.8	1297
646.0	1291
646.2	1282
646.4	1277
646.6	1272
646.8	1266
647.0	1253
647.2	1244
647.4	1232
647.6	1224
647.8	1219
648.0	1216
648.2	1210
648.4	1206
648.6	1198
648.8	1189
649.0	1185
649.2	1178
649.4	1169
649.6	1156
649.8	1145
650.0	1136
650.2	1133
650.4	1125
650.6	1118
650.8	1110
651.0	1104
651.2	1096
651.4	1087
651.6	1079
651.8	1070
652.0	1065
652.2	1061
652.4	1057
652.6	1050
652.8	1046
653.0	1038
653.2	1033
653.4	1024
653.6	1013
653.8	1005
654.0	999.3
654.2	993.1
654.4	991.1
654.6	983.5
654.8	974.0
655.0	967.4
655.2	965.0
655.4	961.0
655.6	956.1
655.8	949.2
656.0	940.4
656.2	930.2
656.4	926.5
656.6	922.0
656.8	918.4
657.0	913.8
657.2	906.9
657.4	900.4
657.6	895.2
657.8	889.1
658.0	881.1
658.2	870.3
658.4	860.3
658.6	856.4
658.8	857.8
659.0	854.2
659.2	845.2
659.4	838.8
659.6	829.8
659.8	825.4
660.0	823.5
660.2	815.6
660.4	810.8
660.6	804.7
660.8	799.0
661.0	799.5
661.2	794.9
661.4	791.5
661.6	786.5
661.8	776.8
662.0	768.3
662.2	763.0
662.4	756.6
662.6	756.4
662.8	751.9
663.0	747.3
663.2	741.9
663.4	735.5
663.6	731.7
663.8	728.7
664.0	720.9
664.2	717.2
664.4	713.9
664.6	710.6
664.8	705.8
665.0	697.5
665.2	689.9
665.4	688.9
665.6	686.5
665.8	684.8
666.0	677.5
666.2	669.3
666.4	665.4
666.6	659.9
666.8	654.9
667.0	648.1
667.2	641.0
667.4	636.6
667.6	635.6
667.8	632.4
668.0	628.7
668.2	621.2
668.4	617.7
668.6	615.3
668.8	614.9
669.0	611.9
669.2	608.1
669.4	604.4
669.6	600.2
669.8	594.3
670.0	589.0
670.2	581.0
670.4	577.5
670.6	574.6
670.8	571.5
671.0	567.6
671.2	566.1
671.4	562.9
671.6	560.4
671.8	554.0
672.0	550.3
672.2	544.4
672.4	539.5
672.6	535.6
672.8	534.9
673.0	533.6
673.2	533.3
673.4	529.1
673.6	524.6
673.8	518.3
674.0	512.2
674.2	505.8
674.4	503.5
674.6	501.2
674.8	499.5
675.0	495.7
675.2	493.6
675.4	489.4
675.6	487.5
675.8	484.1
676.0	479.6
676.2	475.1
676.4	472.8
676.6	467.6
676.8	465.2
677.0	462.8
677.2	460.4
677.4	458.5
677.6	456.6
677.8	453.0
678.0	451.4
678.2	446.6
678.4	441.4
678.6	437.6
678.8	434.8
679.0	430.5
679.2	427.6
679.4	422.4
679.6	417.8
679.8	413.7
680.0	414.6
680.2	414.8
680.4	413.1
680.6	408.3
680.8	402.3
681.0	396.9
681.2	395.2
681.4	392.1
681.6	391.4
681.8	389.7
682.0	387.1
682.2	385.8
682.4	384.2
682.6	379.7
682.8	376.8
683.0	375.3
683.2	371.2
683.4	368.2
683.6	366.4
683.8	364.4
684.0	360.2
684.2	358.2
684.4	354.4
684.6	350.9
684.8	349.1
685.0	350.3
685.2	347.7
685.4	345.0
685.6	342.3
685.8	340.0
686.0	337.9
686.2	339.2
686.4	335.7
686.6	332.5
686.8	329.9
687.0	325.7
687.2	321.2
687.4	318.8
687.6	316.9
687.8	316.3
688.0	315.3
688.2	311.4
688.4	309.3
688.6	305.8
688.8	305.0
689.0	302.8
689.2	300.4
689.4	296.1
689.6	295.3
689.8	294.4
690.0	293.0
690.2	289.8
690.4	287.9
690.6	285.0
690.8	283.6
691.0	282.6
691.2	281.1
691.4	280.9
691.6	280.9
691.8	279.2
692.0	278.1
692.2	275.7
692.4	273.1
692.6	270.6
692.8	268.1
693.0	265.9
693.2	265.9
693.4	264.5
693.6	262.4
693.8	260.0
694.0	257.0
694.2	255.6
694.4	254.6
694.6	252.1
694.8	249.3
695.0	247.2
695.2	245.9
695.4	245.3
695.6	245.9
695.8	245.5
696.0	244.3
696.2	242.4
696.4	240.1
696.6	237.4
696.8	232.7
697.0	230.8
697.2	229.9
697.4	230.8
697.6	231.8
697.8	232.1
698.0	229.3
698.2	227.7
698.4	224.2
698.6	222.2
698.8	221.5
699.0	221.9
699.2	222.3
699.4	222.2
699.6	220.0
699.8	216.6
700.0	214.6
700.2	212.9
700.4	213.0
700.6	212.5
700.8	211.3
701.0	209.1
701.2	207.5
701.4	205.1
701.6	205.5
701.8	203.0
702.0	199.7
702.2	198.0
702.4	196.1
702.6	194.4
702.8	195.8
703.0	194.7
703.2	194.4
703.4	193.2
703.6	190.7
703.8	187.0
704.0	186.9
704.2	187.0
704.4	187.9
704.6	187.8
704.8	186.6
705.0	183.6
705.2	182.6
705.4	182.8
705.6	181.1
705.8	180.7
706.0	179.2
706.2	177.0
706.4	175.5
706.6	175.6
706.8	174.5
707.0	173.3
707.2	172.6
707.4	172.0
707.6	169.8
707.8	168.7
708.0	167.5
708.2	166.1
708.4	166.5
708.6	166.5
708.8	164.8
709.0	163.8
709.2	162.0
709.4	159.8
709.6	159.6
709.8	157.2
710.0	156.5
710.2	156.6
710.4	154.5
710.6	152.5
710.8	151.7
711.0	150.4
711.2	151.0
711.4	151.3
711.6	150.1
711.8	148.5
712.0	146.8
712.2	146.5
712.4	144.9
712.6	143.2
712.8	143.2
713.0	141.3
713.2	140.2
713.4	139.9
713.6	137.4
713.8	135.6
714.0	135.5
714.2	134.6
714.4	134.5
714.6	134.8
714.8	132.7
715.0	131.3
715.2	130.6
715.4	131.1
715.6	131.0
715.8	131.0
716.0	129.0
716.2	127.3
716.4	126.0
716.6	125.5
716.8	123.5
717.0	123.4
717.2	122.8
717.4	122.4
717.6	122.3
717.8	122.8
718.0	120.0
718.2	119.8
718.4	119.0
718.6	118.6
718.8	118.6
719.0	119.2
719.2	117.1
719.4	114.8
719.6	112.1
719.8	110.8
720.0	110.6
720.2	110.3
720.4	109.4
720.6	107.5
720.8	106.3
721.0	105.8
721.2	106.1
