Sample:	'20211010A(EM)
File name:	G-NI 2 200.FDS
Run date:	'17:20:51, 06/19/2023
Operator:	Administrator
Comment:	'

Instrument
Model:	F-4700 FL Spectrophotometer
Serial number:	2019-001
ROM Version:	5J24010 00

Instrument parameters
Measurement type:	Wavelength scan
Scan mode:	Emission
Data mode:	Fluorescence
EX WL:	400.0 nm
EM  Start WL:	420.0 nm
EM  End WL:	800.0 nm
Scan speed:	1200 nm/min
Delay:	0.0 s
EX Slit:	10.0 nm
EM Slit:	10.0 nm
PMT Voltage:	500 V
Response:	0.002 s
Corrected spectra:	Off
Shutter control:	On

Processing performed
Savitsky-Golay smoothed
Smoothing order:	3
Number of points:	7
Number of times:	1

Peak integration
Integration method:	Rectangular
Sensitivity:	1
Threshold:	1.000

Peaks
No.	Start(nm)	Apex(nm)	End(nm)	Height(Data)	Valley(nm)	Valley(Data)
1	420.0	545.6	546.0	3472	546.0	3460
2	546.0	548.4	550.0	3482	550.0	3463
3	550.0	550.8	726.4	3478	726.4	32.94
4	726.4	727.0	772.2	34.73	772.2	6.289
5	772.2	772.8	785.6	7.393	785.6	5.062
6	785.6	794.2	795.2	6.989	795.2	5.955

Data points
nm	Data
420.0	1.641
420.2	1.526
420.4	1.445
420.6	1.399
420.8	1.312
421.0	1.532
421.2	1.639
421.4	1.704
421.6	1.674
421.8	1.703
422.0	1.669
422.2	1.546
422.4	1.354
422.6	1.270
422.8	1.313
423.0	1.501
423.2	1.705
423.4	1.677
423.6	1.563
423.8	1.511
424.0	1.558
424.2	1.589
424.4	1.583
424.6	1.586
424.8	1.636
425.0	1.731
425.2	1.663
425.4	1.616
425.6	1.417
425.8	1.337
426.0	1.408
426.2	1.562
426.4	1.546
426.6	1.637
426.8	1.663
427.0	1.803
427.2	1.820
427.4	1.818
427.6	1.842
427.8	1.800
428.0	1.632
428.2	1.425
428.4	1.278
428.6	1.317
428.8	1.534
429.0	1.728
429.2	1.762
429.4	1.521
429.6	1.390
429.8	1.316
430.0	1.332
430.2	1.542
430.4	1.574
430.6	1.563
430.8	1.493
431.0	1.529
431.2	1.532
431.4	1.718
431.6	1.733
431.8	1.826
432.0	1.696
432.2	1.693
432.4	1.602
432.6	1.706
432.8	1.771
433.0	1.704
433.2	1.741
433.4	1.769
433.6	1.788
433.8	1.882
434.0	1.784
434.2	1.606
434.4	1.651
434.6	1.664
434.8	1.694
435.0	1.712
435.2	1.667
435.4	1.791
435.6	1.842
435.8	1.903
436.0	1.972
436.2	1.792
436.4	1.690
436.6	1.630
436.8	1.529
437.0	1.474
437.2	1.642
437.4	1.786
437.6	1.821
437.8	1.986
438.0	2.001
438.2	1.961
438.4	1.982
438.6	2.139
438.8	2.025
439.0	2.042
439.2	1.771
439.4	1.587
439.6	1.588
439.8	1.812
440.0	1.990
440.2	2.047
440.4	1.998
440.6	1.972
440.8	2.160
441.0	2.132
441.2	2.146
441.4	2.070
441.6	2.011
441.8	1.945
442.0	1.938
442.2	1.812
442.4	1.862
442.6	1.990
442.8	1.975
443.0	2.144
443.2	2.182
443.4	2.236
443.6	2.138
443.8	2.116
444.0	1.855
444.2	2.012
444.4	2.105
444.6	2.243
444.8	2.216
445.0	2.183
445.2	2.018
445.4	2.151
445.6	2.264
445.8	2.314
446.0	2.495
446.2	2.421
446.4	2.354
446.6	2.361
446.8	2.399
447.0	2.376
447.2	2.492
447.4	2.448
447.6	2.563
447.8	2.455
448.0	2.344
448.2	2.246
448.4	2.192
448.6	2.412
448.8	2.805
449.0	2.962
449.2	3.009
449.4	2.937
449.6	2.811
449.8	2.651
450.0	2.448
450.2	2.249
450.4	2.182
450.6	2.268
450.8	2.476
451.0	2.695
451.2	2.866
451.4	2.798
451.6	2.940
451.8	3.063
452.0	3.110
452.2	3.156
452.4	2.839
452.6	2.386
452.8	2.393
453.0	2.486
453.2	2.736
453.4	3.248
453.6	3.381
453.8	3.302
454.0	3.366
454.2	3.122
454.4	3.155
454.6	3.414
454.8	3.374
455.0	3.170
455.2	3.326
455.4	3.240
455.6	3.550
455.8	3.546
456.0	3.472
456.2	3.554
456.4	3.561
456.6	3.511
456.8	3.753
457.0	3.519
457.2	3.571
457.4	3.886
457.6	3.931
457.8	4.075
458.0	4.143
458.2	3.924
458.4	3.750
458.6	3.950
458.8	4.361
459.0	4.568
459.2	4.620
459.4	4.638
459.6	4.521
459.8	4.825
460.0	5.143
460.2	5.217
460.4	5.106
460.6	5.089
460.8	4.925
461.0	4.851
461.2	5.112
461.4	5.446
461.6	5.597
461.8	5.539
462.0	5.294
462.2	5.225
462.4	5.715
462.6	6.014
462.8	6.244
463.0	6.111
463.2	5.950
463.4	6.041
463.6	6.412
463.8	6.509
464.0	6.633
464.2	6.649
464.4	6.672
464.6	6.812
464.8	7.418
465.0	7.719
465.2	7.973
465.4	8.210
465.6	8.414
465.8	8.359
466.0	8.782
466.2	8.802
466.4	8.878
466.6	9.264
466.8	9.314
467.0	9.091
467.2	9.481
467.4	9.644
467.6	10.04
467.8	10.54
468.0	10.62
468.2	10.76
468.4	11.02
468.6	11.40
468.8	11.84
469.0	11.68
469.2	12.01
469.4	12.47
469.6	12.74
469.8	13.23
470.0	13.73
470.2	13.46
470.4	14.06
470.6	14.53
470.8	15.33
471.0	16.06
471.2	16.70
471.4	17.04
471.6	17.49
471.8	17.43
472.0	17.51
472.2	17.30
472.4	17.62
472.6	18.41
472.8	19.84
473.0	20.75
473.2	21.07
473.4	21.14
473.6	21.44
473.8	21.94
474.0	23.22
474.2	24.18
474.4	24.77
474.6	25.56
474.8	25.87
475.0	26.60
475.2	26.98
475.4	28.06
475.6	28.73
475.8	29.39
476.0	30.10
476.2	30.94
476.4	30.89
476.6	32.22
476.8	33.28
477.0	34.37
477.2	35.28
477.4	36.38
477.6	37.97
477.8	39.42
478.0	40.91
478.2	41.91
478.4	42.15
478.6	43.51
478.8	45.57
479.0	46.76
479.2	48.32
479.4	49.22
479.6	50.04
479.8	51.51
480.0	53.82
480.2	56.25
480.4	58.10
480.6	59.06
480.8	60.37
481.0	61.18
481.2	63.23
481.4	65.17
481.6	66.99
481.8	68.28
482.0	71.13
482.2	72.92
482.4	75.77
482.6	77.51
482.8	79.41
483.0	81.33
483.2	83.35
483.4	84.99
483.6	87.93
483.8	89.61
484.0	92.33
484.2	95.14
484.4	97.99
484.6	100.0
484.8	102.3
485.0	104.3
485.2	107.0
485.4	110.5
485.6	114.1
485.8	116.6
486.0	120.1
486.2	123.1
486.4	126.2
486.6	131.2
486.8	135.5
487.0	139.2
487.2	143.4
487.4	145.8
487.6	148.4
487.8	151.6
488.0	153.9
488.2	157.4
488.4	162.9
488.6	169.7
488.8	176.1
489.0	181.4
489.2	184.0
489.4	187.1
489.6	190.6
489.8	195.9
490.0	201.3
490.2	207.7
490.4	212.2
490.6	216.7
490.8	220.6
491.0	226.7
491.2	233.3
491.4	240.5
491.6	243.8
491.8	248.7
492.0	254.0
492.2	260.8
492.4	267.1
492.6	275.3
492.8	280.2
493.0	287.2
493.2	293.7
493.4	298.8
493.6	304.2
493.8	313.1
494.0	321.2
494.2	329.3
494.4	337.2
494.6	342.0
494.8	346.9
495.0	353.7
495.2	361.8
495.4	370.6
495.6	380.4
495.8	389.9
496.0	396.0
496.2	404.0
496.4	412.8
496.6	422.8
496.8	433.0
497.0	444.1
497.2	450.4
497.4	458.7
497.6	466.5
497.8	475.1
498.0	481.9
498.2	491.2
498.4	500.6
498.6	514.7
498.8	526.9
499.0	537.5
499.2	544.5
499.4	554.8
499.6	564.4
499.8	577.5
500.0	586.5
500.2	596.2
500.4	604.8
500.6	617.7
500.8	631.3
501.0	646.5
501.2	658.3
501.4	670.6
501.6	681.1
501.8	692.2
502.0	704.2
502.2	715.3
502.4	726.0
502.6	737.3
502.8	747.0
503.0	757.8
503.2	770.6
503.4	781.8
503.6	793.4
503.8	806.7
504.0	820.3
504.2	835.6
504.4	852.1
504.6	864.5
504.8	879.5
505.0	895.2
505.2	911.5
505.4	923.7
505.6	935.0
505.8	944.6
506.0	960.5
506.2	975.2
506.4	995.1
506.6	1009
506.8	1019
507.0	1030
507.2	1042
507.4	1060
507.6	1086
507.8	1106
508.0	1121
508.2	1133
508.4	1142
508.6	1157
508.8	1177
509.0	1194
509.2	1208
509.4	1218
509.6	1227
509.8	1241
510.0	1263
510.2	1283
510.4	1302
510.6	1317
510.8	1333
511.0	1349
511.2	1366
511.4	1379
511.6	1395
511.8	1413
512.0	1436
512.2	1457
512.4	1472
512.6	1484
512.8	1503
513.0	1523
513.2	1538
513.4	1553
513.6	1570
513.8	1587
514.0	1611
514.2	1627
514.4	1643
514.6	1657
514.8	1674
515.0	1687
515.2	1705
515.4	1727
515.6	1747
515.8	1766
516.0	1781
516.2	1796
516.4	1814
516.6	1834
516.8	1847
517.0	1863
517.2	1879
517.4	1899
517.6	1920
517.8	1939
518.0	1956
518.2	1973
518.4	1989
518.6	2002
518.8	2015
519.0	2034
519.2	2052
519.4	2071
519.6	2086
519.8	2105
520.0	2122
520.2	2144
520.4	2159
520.6	2173
520.8	2188
521.0	2201
521.2	2214
521.4	2236
521.6	2254
521.8	2272
522.0	2291
522.2	2302
522.4	2314
522.6	2337
522.8	2358
523.0	2373
523.2	2390
523.4	2400
523.6	2408
523.8	2419
524.0	2439
524.2	2460
524.4	2483
524.6	2499
524.8	2512
525.0	2522
525.2	2537
525.4	2559
525.6	2580
525.8	2591
526.0	2611
526.2	2627
526.4	2636
526.6	2655
526.8	2669
527.0	2673
527.2	2692
527.4	2709
527.6	2721
527.8	2732
528.0	2748
528.2	2758
528.4	2775
528.6	2795
528.8	2811
529.0	2822
529.2	2833
529.4	2841
529.6	2854
529.8	2869
530.0	2877
530.2	2890
530.4	2901
530.6	2918
530.8	2938
531.0	2950
531.2	2956
531.4	2969
531.6	2975
531.8	2987
532.0	3003
532.2	3013
532.4	3028
532.6	3044
532.8	3054
533.0	3060
533.2	3068
533.4	3074
533.6	3083
533.8	3097
534.0	3114
534.2	3119
534.4	3126
534.6	3131
534.8	3143
535.0	3162
535.2	3176
535.4	3191
535.6	3198
535.8	3195
536.0	3203
536.2	3213
536.4	3219
536.6	3231
536.8	3237
537.0	3240
537.2	3253
537.4	3264
537.6	3272
537.8	3276
538.0	3280
538.2	3290
538.4	3297
538.6	3306
538.8	3316
539.0	3320
539.2	3327
539.4	3339
539.6	3338
539.8	3338
540.0	3345
540.2	3351
540.4	3363
540.6	3377
540.8	3376
541.0	3384
541.2	3386
541.4	3392
541.6	3388
541.8	3391
542.0	3394
542.2	3408
542.4	3418
542.6	3422
542.8	3416
543.0	3415
543.2	3419
543.4	3421
543.6	3430
543.8	3432
544.0	3435
544.2	3438
544.4	3448
544.6	3450
544.8	3455
545.0	3465
545.2	3469
545.4	3467
545.6	3472
545.8	3465
546.0	3460
546.2	3463
546.4	3462
546.6	3464
546.8	3471
547.0	3468
547.2	3470
547.4	3467
547.6	3465
547.8	3465
548.0	3473
548.2	3478
548.4	3482
548.6	3480
548.8	3481
549.0	3481
549.2	3478
549.4	3476
549.6	3473
549.8	3465
550.0	3463
550.2	3474
550.4	3475
550.6	3477
550.8	3478
551.0	3470
551.2	3472
551.4	3470
551.6	3475
551.8	3469
552.0	3462
552.2	3452
552.4	3449
552.6	3444
552.8	3447
553.0	3442
553.2	3443
553.4	3440
553.6	3440
553.8	3449
554.0	3446
554.2	3443
554.4	3441
554.6	3435
554.8	3431
555.0	3424
555.2	3412
555.4	3410
555.6	3410
555.8	3418
556.0	3423
556.2	3422
556.4	3410
556.6	3402
556.8	3397
557.0	3393
557.2	3388
557.4	3381
557.6	3369
557.8	3363
558.0	3360
558.2	3354
558.4	3355
558.6	3349
558.8	3343
559.0	3340
559.2	3338
559.4	3332
559.6	3326
559.8	3319
560.0	3311
560.2	3308
560.4	3312
560.6	3307
560.8	3300
561.0	3295
561.2	3288
561.4	3280
561.6	3275
561.8	3264
562.0	3256
562.2	3246
562.4	3243
562.6	3237
562.8	3233
563.0	3223
563.2	3217
563.4	3213
563.6	3213
563.8	3215
564.0	3216
564.2	3206
564.4	3194
564.6	3181
564.8	3167
565.0	3158
565.2	3156
565.4	3151
565.6	3141
565.8	3135
566.0	3126
566.2	3114
566.4	3109
566.6	3105
566.8	3096
567.0	3085
567.2	3076
567.4	3068
567.6	3064
567.8	3064
568.0	3057
568.2	3044
568.4	3035
568.6	3026
568.8	3021
569.0	3014
569.2	3011
569.4	3008
569.6	3002
569.8	2992
570.0	2983
570.2	2971
570.4	2970
570.6	2958
570.8	2949
571.0	2938
571.2	2928
571.4	2918
571.6	2912
571.8	2910
572.0	2911
572.2	2907
572.4	2900
572.6	2888
572.8	2872
573.0	2862
573.2	2847
573.4	2839
573.6	2833
573.8	2829
574.0	2820
574.2	2812
574.4	2800
574.6	2798
574.8	2789
575.0	2783
575.2	2770
575.4	2761
575.6	2749
575.8	2743
576.0	2731
576.2	2727
576.4	2720
576.6	2711
576.8	2699
577.0	2691
577.2	2679
577.4	2669
577.6	2657
577.8	2645
578.0	2640
578.2	2639
578.4	2636
578.6	2627
578.8	2619
579.0	2613
579.2	2604
579.4	2599
579.6	2590
579.8	2571
580.0	2559
580.2	2548
580.4	2539
580.6	2537
580.8	2529
581.0	2519
581.2	2511
581.4	2505
581.6	2503
581.8	2498
582.0	2491
582.2	2474
582.4	2461
582.6	2447
582.8	2437
583.0	2425
583.2	2421
583.4	2418
583.6	2417
583.8	2410
584.0	2401
584.2	2389
584.4	2383
584.6	2375
584.8	2364
585.0	2356
585.2	2346
585.4	2340
585.6	2337
585.8	2323
586.0	2313
586.2	2300
586.4	2289
586.6	2283
586.8	2279
587.0	2271
587.2	2265
587.4	2252
587.6	2240
587.8	2231
588.0	2225
588.2	2221
588.4	2217
588.6	2206
588.8	2193
589.0	2180
589.2	2168
589.4	2164
589.6	2161
589.8	2153
590.0	2146
590.2	2135
590.4	2127
590.6	2120
590.8	2110
591.0	2100
591.2	2086
591.4	2075
591.6	2074
591.8	2068
592.0	2062
592.2	2050
592.4	2036
592.6	2027
592.8	2025
593.0	2022
593.2	2021
593.4	2007
593.6	1997
593.8	1985
594.0	1972
594.2	1966
594.4	1962
594.6	1955
594.8	1947
595.0	1939
595.2	1928
595.4	1924
595.6	1921
595.8	1916
596.0	1909
596.2	1904
596.4	1893
596.6	1880
596.8	1870
597.0	1861
597.2	1856
597.4	1846
597.6	1839
597.8	1831
598.0	1827
598.2	1820
598.4	1810
598.6	1799
598.8	1796
599.0	1793
599.2	1786
599.4	1775
599.6	1762
599.8	1752
600.0	1747
600.2	1740
600.4	1733
600.6	1724
600.8	1716
601.0	1705
601.2	1699
601.4	1692
601.6	1688
601.8	1676
602.0	1675
602.2	1670
602.4	1666
602.6	1661
602.8	1650
603.0	1634
603.2	1626
603.4	1617
603.6	1611
603.8	1604
604.0	1591
604.2	1584
604.4	1577
604.6	1571
604.8	1569
605.0	1563
605.2	1552
605.4	1548
605.6	1539
605.8	1529
606.0	1520
606.2	1511
606.4	1506
606.6	1504
606.8	1497
607.0	1490
607.2	1480
607.4	1468
607.6	1460
607.8	1454
608.0	1449
608.2	1442
608.4	1438
608.6	1430
608.8	1422
609.0	1419
609.2	1416
609.4	1408
609.6	1403
609.8	1390
610.0	1382
610.2	1379
610.4	1375
610.6	1368
610.8	1360
611.0	1352
611.2	1349
611.4	1343
611.6	1331
611.8	1320
612.0	1312
612.2	1307
612.4	1302
612.6	1297
612.8	1290
613.0	1285
613.2	1279
613.4	1267
613.6	1256
613.8	1250
614.0	1248
614.2	1249
614.4	1247
614.6	1236
614.8	1225
615.0	1216
615.2	1209
615.4	1206
615.6	1201
615.8	1190
616.0	1185
616.2	1184
616.4	1175
616.6	1170
616.8	1162
617.0	1152
617.2	1149
617.4	1145
617.6	1138
617.8	1135
618.0	1134
618.2	1127
618.4	1120
618.6	1108
618.8	1099
619.0	1096
619.2	1093
619.4	1087
619.6	1079
619.8	1069
620.0	1065
620.2	1061
620.4	1056
620.6	1051
620.8	1047
621.0	1040
621.2	1038
621.4	1032
621.6	1021
621.8	1012
622.0	1009
622.2	1001
622.4	1000
622.6	1000
622.8	994.6
623.0	988.4
623.2	985.0
623.4	974.1
623.6	966.4
623.8	960.5
624.0	951.6
624.2	947.4
624.4	943.2
624.6	938.1
624.8	933.1
625.0	928.9
625.2	924.5
625.4	923.6
625.6	917.8
625.8	912.2
626.0	903.6
626.2	896.6
626.4	891.2
626.6	886.5
626.8	880.0
627.0	873.2
627.2	865.9
627.4	860.9
627.6	857.7
627.8	857.0
628.0	854.7
628.2	850.7
628.4	847.4
628.6	842.5
628.8	835.7
629.0	826.0
629.2	819.6
629.4	813.8
629.6	815.0
629.8	812.9
630.0	808.3
630.2	798.7
630.4	797.4
630.6	792.3
630.8	787.5
631.0	780.4
631.2	775.9
631.4	770.7
631.6	766.9
631.8	763.7
632.0	760.9
632.2	756.9
632.4	753.1
632.6	747.5
632.8	739.1
633.0	733.1
633.2	730.0
633.4	726.3
633.6	724.5
633.8	722.0
634.0	718.6
634.2	713.3
634.4	709.5
634.6	704.9
634.8	701.6
635.0	697.0
635.2	694.0
635.4	687.9
635.6	683.6
635.8	678.9
636.0	674.8
636.2	670.8
636.4	668.5
636.6	662.3
636.8	657.2
637.0	654.7
637.2	650.3
637.4	646.6
637.6	646.3
637.8	639.4
638.0	631.3
638.2	625.5
638.4	621.3
638.6	619.3
638.8	620.3
639.0	617.1
639.2	612.9
639.4	608.2
639.6	602.7
639.8	597.8
640.0	593.5
640.2	591.5
640.4	590.7
640.6	589.0
640.8	584.6
641.0	579.8
641.2	576.8
641.4	572.3
641.6	570.0
641.8	565.8
642.0	561.2
642.2	554.0
642.4	550.1
642.6	545.9
642.8	546.7
643.0	544.2
643.2	539.5
643.4	533.6
643.6	530.0
643.8	527.2
644.0	528.2
644.2	525.5
644.4	519.9
644.6	517.5
644.8	515.3
645.0	510.7
645.2	509.8
645.4	506.7
645.6	502.9
645.8	501.5
646.0	498.4
646.2	492.5
646.4	489.5
646.6	485.9
646.8	484.7
647.0	480.9
647.2	477.8
647.4	475.4
647.6	472.1
647.8	470.7
648.0	470.2
648.2	463.9
648.4	457.9
648.6	454.5
648.8	449.8
649.0	448.6
649.2	447.2
649.4	442.2
649.6	438.1
649.8	436.2
650.0	435.4
650.2	433.8
650.4	433.3
650.6	428.4
650.8	424.8
651.0	422.1
651.2	420.7
651.4	418.4
651.6	417.7
651.8	413.6
652.0	410.3
652.2	406.4
652.4	402.9
652.6	398.8
652.8	397.6
653.0	396.9
653.2	395.9
653.4	390.0
653.6	386.3
653.8	381.4
654.0	380.2
654.2	380.9
654.4	379.7
654.6	377.3
654.8	374.5
655.0	371.8
655.2	367.4
655.4	363.5
655.6	360.8
655.8	361.6
656.0	358.6
656.2	355.7
656.4	350.9
656.6	346.9
656.8	346.8
657.0	347.7
657.2	346.4
657.4	346.2
657.6	345.4
657.8	343.2
658.0	338.9
658.2	336.0
658.4	329.8
658.6	328.2
658.8	327.3
659.0	326.5
659.2	324.0
659.4	321.7
659.6	317.4
659.8	316.0
660.0	315.2
660.2	313.9
660.4	310.8
660.6	305.3
660.8	303.4
661.0	302.2
661.2	301.6
661.4	299.9
661.6	296.8
661.8	294.2
662.0	295.2
662.2	294.1
662.4	293.0
662.6	289.6
662.8	286.3
663.0	283.3
663.2	282.1
663.4	281.4
663.6	281.4
663.8	280.1
664.0	277.7
664.2	274.4
664.4	272.1
664.6	272.0
664.8	270.2
665.0	268.6
665.2	266.7
665.4	265.6
665.6	265.3
665.8	264.8
666.0	260.9
666.2	257.0
666.4	256.0
666.6	254.5
666.8	253.6
667.0	252.7
667.2	249.9
667.4	247.7
667.6	246.7
667.8	245.1
668.0	242.1
668.2	240.6
668.4	238.7
668.6	237.8
668.8	236.6
669.0	236.0
669.2	233.6
669.4	233.3
669.6	231.4
669.8	230.4
670.0	228.5
670.2	225.0
670.4	222.8
670.6	220.9
670.8	220.2
671.0	218.8
671.2	219.0
671.4	217.3
671.6	216.3
671.8	213.4
672.0	210.5
672.2	207.5
672.4	206.4
672.6	204.8
672.8	205.2
673.0	204.0
673.2	201.5
673.4	201.1
673.6	198.6
673.8	197.1
674.0	196.4
674.2	195.1
674.4	193.9
674.6	192.9
674.8	191.8
675.0	190.4
675.2	187.8
675.4	186.2
675.6	185.7
675.8	184.2
676.0	184.5
676.2	184.3
676.4	183.0
676.6	181.5
676.8	179.1
677.0	176.2
677.2	174.4
677.4	172.9
677.6	172.2
677.8	172.2
678.0	172.0
678.2	171.4
678.4	171.2
678.6	170.0
678.8	168.0
679.0	166.5
679.2	165.3
679.4	163.8
679.6	163.0
679.8	160.6
680.0	158.7
680.2	158.5
680.4	158.7
680.6	159.3
680.8	159.4
681.0	157.4
681.2	156.2
681.4	154.0
681.6	152.2
681.8	150.1
682.0	150.1
682.2	149.4
682.4	148.0
682.6	146.0
682.8	144.4
683.0	142.7
683.2	142.4
683.4	141.8
683.6	142.0
683.8	141.7
684.0	141.3
684.2	139.8
684.4	137.1
684.6	134.8
684.8	134.2
685.0	133.3
685.2	133.8
685.4	133.4
685.6	131.7
685.8	131.1
686.0	130.4
686.2	128.8
686.4	128.5
686.6	127.7
686.8	127.1
687.0	127.0
687.2	126.6
687.4	125.6
687.6	124.0
687.8	122.7
688.0	121.3
688.2	120.1
688.4	118.8
688.6	119.0
688.8	118.4
689.0	118.9
689.2	117.8
689.4	116.9
689.6	114.9
689.8	114.4
690.0	113.6
690.2	113.3
690.4	112.0
690.6	111.2
690.8	109.5
691.0	108.9
691.2	108.3
691.4	108.2
691.6	107.4
691.8	106.5
692.0	104.5
692.2	104.0
692.4	103.6
692.6	104.7
692.8	105.3
693.0	105.0
693.2	103.4
693.4	101.0
693.6	99.45
693.8	99.34
694.0	98.81
694.2	98.83
694.4	98.01
694.6	96.73
694.8	95.70
695.0	94.90
695.2	93.07
695.4	93.12
695.6	93.84
695.8	94.62
696.0	94.28
696.2	94.24
696.4	92.86
696.6	92.32
696.8	91.67
697.0	90.93
697.2	89.94
697.4	89.44
697.6	88.76
697.8	88.13
698.0	86.51
698.2	86.01
698.4	84.92
698.6	84.57
698.8	85.48
699.0	85.19
699.2	84.61
699.4	83.60
699.6	82.55
699.8	81.60
700.0	81.78
700.2	80.39
700.4	80.76
700.6	79.93
700.8	80.02
701.0	80.32
701.2	80.57
701.4	80.04
701.6	80.00
701.8	79.00
702.0	77.93
702.2	77.22
702.4	77.10
702.6	77.04
702.8	75.99
703.0	75.12
703.2	75.00
703.4	74.79
703.6	74.88
703.8	74.60
704.0	74.61
704.2	74.36
704.4	74.63
704.6	73.51
704.8	71.82
705.0	69.23
705.2	69.20
705.4	69.43
705.6	70.55
705.8	70.33
706.0	70.63
706.2	68.82
706.4	68.89
706.6	68.53
706.8	67.79
707.0	67.13
707.2	66.81
707.4	65.64
707.6	65.50
707.8	65.23
708.0	64.08
708.2	64.37
708.4	64.12
708.6	63.46
708.8	62.39
709.0	62.14
709.2	61.32
709.4	61.11
709.6	60.35
709.8	60.30
710.0	59.24
710.2	59.65
710.4	58.78
710.6	58.88
710.8	58.29
711.0	59.04
711.2	58.85
711.4	59.17
711.6	58.44
711.8	59.35
712.0	58.48
712.2	58.15
712.4	57.51
712.6	56.62
712.8	54.95
713.0	54.54
713.2	52.63
713.4	52.76
713.6	52.60
713.8	53.29
714.0	52.75
714.2	52.70
714.4	52.07
714.6	52.79
714.8	52.68
715.0	52.40
715.2	51.40
715.4	49.96
715.6	49.43
715.8	49.40
716.0	49.23
716.2	49.49
716.4	49.00
716.6	47.85
716.8	47.51
717.0	47.34
717.2	47.01
717.4	47.76
717.6	47.91
717.8	47.10
718.0	46.16
718.2	45.58
718.4	45.47
718.6	45.27
718.8	45.63
719.0	45.39
719.2	45.44
719.4	45.64
719.6	45.58
719.8	44.83
