Sample:	'20211010A(EM)
File name:	G-NI 6.FDS
Run date:	'17:44:40, 06/19/2023
Operator:	Administrator
Comment:	'

Instrument
Model:	F-4700 FL Spectrophotometer
Serial number:	2019-001
ROM Version:	5J24010 00

Instrument parameters
Measurement type:	Wavelength scan
Scan mode:	Emission
Data mode:	Fluorescence
EX WL:	400.0 nm
EM  Start WL:	420.0 nm
EM  End WL:	800.0 nm
Scan speed:	1200 nm/min
Delay:	0.0 s
EX Slit:	10.0 nm
EM Slit:	10.0 nm
PMT Voltage:	500 V
Response:	0.002 s
Corrected spectra:	Off
Shutter control:	On

Processing performed
Savitsky-Golay smoothed
Smoothing order:	3
Number of points:	7
Number of times:	1

Peak integration
Integration method:	Rectangular
Sensitivity:	1
Threshold:	1.000

Peaks
No.	Start(nm)	Apex(nm)	End(nm)	Height(Data)	Valley(nm)	Valley(Data)
1	420.0	536.4	537.8	324.5	537.8	316.9
2	537.8	539.4	541.4	327.1	541.4	318.2
3	541.4	542.8	544.2	321.5	544.2	316.3
4	544.2	546.6	549.6	322.4	549.6	305.6
5	549.6	550.4	621.0	308.9	621.0	78.46
6	621.0	622.0	657.0	80.51	657.0	26.95
7	657.0	658.4	702.0	28.09	702.0	5.955
8	702.0	702.8	781.8	7.194	781.8	0.718

Data points
nm	Data
420.0	0.853
420.2	0.744
420.4	0.709
420.6	0.717
420.8	0.715
421.0	0.762
421.2	0.705
421.4	0.632
421.6	0.692
421.8	0.671
422.0	0.625
422.2	0.560
422.4	0.457
422.6	0.484
422.8	0.507
423.0	0.608
423.2	0.658
423.4	0.675
423.6	0.708
423.8	0.798
424.0	0.694
424.2	0.600
424.4	0.482
424.6	0.439
424.8	0.560
425.0	0.786
425.2	0.768
425.4	0.751
425.6	0.629
425.8	0.502
426.0	0.415
426.2	0.489
426.4	0.493
426.6	0.578
426.8	0.613
427.0	0.668
427.2	0.587
427.4	0.600
427.6	0.555
427.8	0.572
428.0	0.609
428.2	0.616
428.4	0.584
428.6	0.604
428.8	0.547
429.0	0.612
429.2	0.626
429.4	0.588
429.6	0.528
429.8	0.515
430.0	0.502
430.2	0.582
430.4	0.544
430.6	0.639
430.8	0.579
431.0	0.613
431.2	0.594
431.4	0.610
431.6	0.523
431.8	0.586
432.0	0.606
432.2	0.617
432.4	0.593
432.6	0.571
432.8	0.495
433.0	0.467
433.2	0.474
433.4	0.495
433.6	0.618
433.8	0.698
434.0	0.732
434.2	0.694
434.4	0.582
434.6	0.447
434.8	0.445
435.0	0.445
435.2	0.449
435.4	0.497
435.6	0.445
435.8	0.455
436.0	0.547
436.2	0.698
436.4	0.744
436.6	0.708
436.8	0.559
437.0	0.524
437.2	0.488
437.4	0.516
437.6	0.473
437.8	0.471
438.0	0.396
438.2	0.474
438.4	0.541
438.6	0.544
438.8	0.518
439.0	0.538
439.2	0.372
439.4	0.437
439.6	0.555
439.8	0.679
440.0	0.835
440.2	0.845
440.4	0.658
440.6	0.567
440.8	0.451
441.0	0.358
441.2	0.344
441.4	0.422
441.6	0.429
441.8	0.484
442.0	0.493
442.2	0.502
442.4	0.419
442.6	0.523
442.8	0.551
443.0	0.576
443.2	0.587
443.4	0.648
443.6	0.577
443.8	0.655
444.0	0.628
444.2	0.629
444.4	0.616
444.6	0.614
444.8	0.573
445.0	0.570
445.2	0.500
445.4	0.503
445.6	0.559
445.8	0.590
446.0	0.624
446.2	0.585
446.4	0.524
446.6	0.458
446.8	0.499
447.0	0.511
447.2	0.556
447.4	0.481
447.6	0.524
447.8	0.503
448.0	0.546
448.2	0.595
448.4	0.593
448.6	0.553
448.8	0.614
449.0	0.590
449.2	0.600
449.4	0.664
449.6	0.654
449.8	0.683
450.0	0.606
450.2	0.646
450.4	0.715
450.6	0.784
450.8	0.805
451.0	0.800
451.2	0.742
451.4	0.706
451.6	0.591
451.8	0.476
452.0	0.377
452.2	0.426
452.4	0.605
452.6	0.655
452.8	0.648
453.0	0.543
453.2	0.443
453.4	0.390
453.6	0.386
453.8	0.457
454.0	0.501
454.2	0.628
454.4	0.662
454.6	0.640
454.8	0.573
455.0	0.650
455.2	0.625
455.4	0.657
455.6	0.629
455.8	0.553
456.0	0.538
456.2	0.685
456.4	0.767
456.6	0.739
456.8	0.736
457.0	0.677
457.2	0.574
457.4	0.526
457.6	0.504
457.8	0.396
458.0	0.373
458.2	0.541
458.4	0.540
458.6	0.572
458.8	0.622
459.0	0.545
459.2	0.488
459.4	0.590
459.6	0.667
459.8	0.664
460.0	0.682
460.2	0.561
460.4	0.487
460.6	0.487
460.8	0.604
461.0	0.610
461.2	0.676
461.4	0.535
461.6	0.527
461.8	0.469
462.0	0.501
462.2	0.597
462.4	0.724
462.6	0.719
462.8	0.742
463.0	0.752
463.2	0.717
463.4	0.728
463.6	0.671
463.8	0.591
464.0	0.673
464.2	0.799
464.4	0.759
464.6	0.817
464.8	0.719
465.0	0.694
465.2	0.861
465.4	0.829
465.6	0.777
465.8	0.775
466.0	0.634
466.2	0.659
466.4	0.718
466.6	0.723
466.8	0.824
467.0	0.757
467.2	0.727
467.4	0.779
467.6	0.781
467.8	0.891
468.0	0.951
468.2	0.945
468.4	0.948
468.6	0.836
468.8	0.852
469.0	0.888
469.2	0.852
469.4	1.078
469.6	1.221
469.8	1.188
470.0	1.191
470.2	1.076
470.4	1.027
470.6	1.101
470.8	1.311
471.0	1.411
471.2	1.364
471.4	1.242
471.6	1.325
471.8	1.188
472.0	1.370
472.2	1.286
472.4	1.210
472.6	1.125
472.8	1.288
473.0	1.265
473.2	1.424
473.4	1.434
473.6	1.459
473.8	1.540
474.0	1.580
474.2	1.560
474.4	1.567
474.6	1.690
474.8	1.761
475.0	1.877
475.2	1.917
475.4	1.949
475.6	1.913
475.8	1.981
476.0	2.204
476.2	2.244
476.4	2.431
476.6	2.440
476.8	2.542
477.0	2.596
477.2	2.959
477.4	2.770
477.6	2.774
477.8	2.709
478.0	2.944
478.2	2.979
478.4	3.339
478.6	3.308
478.8	3.508
479.0	3.627
479.2	3.834
479.4	3.780
479.6	3.902
479.8	4.038
480.0	4.187
480.2	4.323
480.4	4.389
480.6	4.613
480.8	4.840
481.0	5.112
481.2	5.194
481.4	5.283
481.6	5.155
481.8	5.406
482.0	5.448
482.2	5.595
482.4	5.955
482.6	6.297
482.8	6.395
483.0	6.609
483.2	6.661
483.4	6.719
483.6	6.892
483.8	7.141
484.0	7.584
484.2	7.731
484.4	8.006
484.6	8.427
484.8	8.420
485.0	8.725
485.2	9.426
485.4	9.628
485.6	10.25
485.8	10.85
486.0	10.63
486.2	10.42
486.4	10.69
486.6	11.22
486.8	12.27
487.0	13.21
487.2	13.84
487.4	14.00
487.6	14.28
487.8	14.45
488.0	14.34
488.2	14.82
488.4	15.60
488.6	16.18
488.8	16.56
489.0	16.89
489.2	17.11
489.4	18.24
489.6	19.09
489.8	19.66
490.0	20.34
490.2	20.48
490.4	20.92
490.6	21.81
490.8	22.26
491.0	23.20
491.2	24.73
491.4	25.26
491.6	26.16
491.8	26.36
492.0	26.58
492.2	26.75
492.4	27.72
492.6	28.71
492.8	30.20
493.0	30.74
493.2	31.72
493.4	32.02
493.6	32.94
493.8	33.61
494.0	34.93
494.2	35.11
494.4	36.29
494.6	37.28
494.8	38.57
495.0	39.20
495.2	40.35
495.4	40.90
495.6	42.83
495.8	43.88
496.0	45.13
496.2	45.91
496.4	47.07
496.6	48.09
496.8	49.92
497.0	51.11
497.2	51.88
497.4	52.55
497.6	52.86
497.8	53.51
498.0	54.78
498.2	57.26
498.4	59.04
498.6	60.95
498.8	62.43
499.0	63.50
499.2	64.89
499.4	66.74
499.6	67.77
499.8	69.26
500.0	71.21
500.2	72.97
500.4	75.49
500.6	77.51
500.8	78.98
501.0	80.20
501.2	80.96
501.4	81.74
501.6	83.10
501.8	84.86
502.0	86.43
502.2	88.60
502.4	90.04
502.6	91.70
502.8	93.77
503.0	95.20
503.2	96.36
503.4	98.49
503.6	99.87
503.8	102.4
504.0	105.3
504.2	106.8
504.4	108.3
504.6	110.5
504.8	111.2
505.0	113.8
505.2	116.2
505.4	116.6
505.6	117.8
505.8	119.9
506.0	120.6
506.2	124.7
506.4	126.9
506.6	128.2
506.8	131.0
507.0	132.1
507.2	134.0
507.4	138.5
507.6	139.1
507.8	140.7
508.0	142.6
508.2	142.1
508.4	144.3
508.6	148.2
508.8	149.7
509.0	153.1
509.2	155.3
509.4	156.5
509.6	157.2
509.8	159.1
510.0	161.4
510.2	164.5
510.4	167.3
510.6	169.8
510.8	170.4
511.0	171.0
511.2	174.0
511.4	175.9
511.6	178.8
511.8	182.5
512.0	184.1
512.2	183.9
512.4	185.7
512.6	185.7
512.8	188.5
513.0	191.7
513.2	193.6
513.4	193.9
513.6	193.5
513.8	194.1
514.0	197.5
514.2	201.6
514.4	204.2
514.6	205.8
514.8	207.2
515.0	209.8
515.2	212.4
515.4	216.7
515.6	219.1
515.8	220.2
516.0	222.7
516.2	224.6
516.4	226.1
516.6	228.6
516.8	229.4
517.0	229.1
517.2	230.8
517.4	233.6
517.6	235.2
517.8	238.1
518.0	239.3
518.2	239.7
518.4	241.2
518.6	243.4
518.8	243.4
519.0	244.4
519.2	247.0
519.4	250.1
519.6	254.5
519.8	256.8
520.0	258.2
520.2	256.7
520.4	257.8
520.6	258.9
520.8	261.0
521.0	263.6
521.2	265.1
521.4	266.3
521.6	267.2
521.8	267.3
522.0	268.0
522.2	269.4
522.4	268.5
522.6	270.3
522.8	270.4
523.0	272.6
523.2	275.7
523.4	277.0
523.6	278.7
523.8	281.0
524.0	281.7
524.2	283.8
524.4	286.0
524.6	285.5
524.8	285.6
525.0	285.3
525.2	285.4
525.4	287.1
525.6	289.2
525.8	291.2
526.0	293.9
526.2	295.4
526.4	296.9
526.6	298.1
526.8	299.0
527.0	299.7
527.2	301.6
527.4	301.7
527.6	302.6
527.8	303.7
528.0	303.3
528.2	302.6
528.4	303.8
528.6	304.5
528.8	305.5
529.0	307.5
529.2	305.7
529.4	306.0
529.6	306.5
529.8	308.0
530.0	308.8
530.2	311.2
530.4	311.5
530.6	313.9
530.8	313.5
531.0	314.3
531.2	314.9
531.4	314.6
531.6	313.6
531.8	314.4
532.0	313.7
532.2	315.3
532.4	316.9
532.6	318.0
532.8	318.8
533.0	317.4
533.2	316.0
533.4	315.5
533.6	315.1
533.8	317.3
534.0	320.1
534.2	319.9
534.4	321.6
534.6	321.8
534.8	321.8
535.0	320.7
535.2	320.4
535.4	320.4
535.6	321.1
535.8	322.1
536.0	323.2
536.2	323.5
536.4	324.5
536.6	324.4
536.8	323.7
537.0	323.5
537.2	320.3
537.4	319.4
537.6	318.6
537.8	316.9
538.0	320.0
538.2	321.4
538.4	318.7
538.6	320.0
538.8	320.9
539.0	322.1
539.2	327.0
539.4	327.1
539.6	323.7
539.8	323.7
540.0	324.4
540.2	322.0
540.4	322.7
540.6	321.3
540.8	319.7
541.0	321.2
541.2	321.9
541.4	318.2
541.6	319.3
541.8	319.5
542.0	318.8
542.2	319.6
542.4	320.0
542.6	319.5
542.8	321.5
543.0	319.8
543.2	318.9
543.4	317.8
543.6	317.6
543.8	317.3
544.0	317.6
544.2	316.3
544.4	318.1
544.6	317.7
544.8	319.4
545.0	319.2
545.2	319.8
545.4	320.5
545.6	320.5
545.8	318.6
546.0	320.4
546.2	320.0
546.4	320.2
546.6	322.4
546.8	322.2
547.0	321.5
547.2	318.7
547.4	316.7
547.6	313.5
547.8	311.8
548.0	310.0
548.2	312.3
548.4	312.9
548.6	315.8
548.8	314.8
549.0	311.0
549.2	308.0
549.4	306.4
549.6	305.6
549.8	306.8
550.0	307.6
550.2	308.1
550.4	308.9
550.6	308.6
550.8	307.2
551.0	304.4
551.2	302.3
551.4	301.5
551.6	302.6
551.8	304.1
552.0	304.9
552.2	303.3
552.4	301.6
552.6	300.9
552.8	301.1
553.0	301.2
553.2	302.5
553.4	301.7
553.6	299.9
553.8	298.3
554.0	296.2
554.2	296.7
554.4	298.3
554.6	299.2
554.8	297.6
555.0	295.8
555.2	293.3
555.4	293.4
555.6	293.8
555.8	295.1
556.0	293.5
556.2	293.3
556.4	293.3
556.6	293.4
556.8	291.9
557.0	290.3
557.2	286.4
557.4	284.4
557.6	284.8
557.8	285.8
558.0	287.2
558.2	287.7
558.4	286.3
558.6	283.9
558.8	283.0
559.0	282.8
559.2	282.4
559.4	281.3
559.6	279.0
559.8	279.0
560.0	278.8
560.2	278.0
560.4	277.6
560.6	277.6
560.8	276.6
561.0	278.8
561.2	278.3
561.4	275.5
561.6	274.5
561.8	272.5
562.0	270.8
562.2	271.1
562.4	271.9
562.6	270.7
562.8	271.3
563.0	270.0
563.2	268.2
563.4	267.3
563.6	267.2
563.8	266.5
564.0	266.9
564.2	266.0
564.4	264.7
564.6	261.9
564.8	260.7
565.0	261.5
565.2	261.0
565.4	262.4
565.6	262.6
565.8	259.8
566.0	257.7
566.2	256.0
566.4	254.5
566.6	257.3
566.8	258.7
567.0	256.7
567.2	254.3
567.4	251.3
567.6	250.0
567.8	251.6
568.0	251.9
568.2	251.3
568.4	250.0
568.6	248.8
568.8	248.2
569.0	249.8
569.2	248.7
569.4	247.5
569.6	244.7
569.8	241.5
570.0	241.6
570.2	242.7
570.4	243.2
570.6	241.3
570.8	238.9
571.0	239.3
571.2	241.8
571.4	240.8
571.6	238.7
571.8	235.1
572.0	232.1
572.2	231.9
572.4	233.2
572.6	231.4
572.8	230.7
573.0	232.3
573.2	231.1
573.4	230.3
573.6	230.6
573.8	229.3
574.0	229.4
574.2	228.9
574.4	225.3
574.6	226.4
574.8	226.2
575.0	225.8
575.2	225.7
575.4	224.8
575.6	223.4
575.8	224.2
576.0	221.6
576.2	219.7
576.4	217.2
576.6	217.2
576.8	216.6
577.0	214.7
577.2	214.0
577.4	213.2
577.6	212.1
577.8	212.9
578.0	212.1
578.2	209.0
578.4	209.0
578.6	208.4
578.8	207.9
579.0	207.8
579.2	206.1
579.4	204.5
579.6	204.3
579.8	206.7
580.0	208.4
580.2	208.5
580.4	204.7
580.6	201.5
580.8	199.0
581.0	199.6
581.2	200.3
581.4	199.5
581.6	196.3
581.8	195.1
582.0	193.5
582.2	193.6
582.4	193.8
582.6	194.1
582.8	193.7
583.0	193.5
583.2	191.2
583.4	189.3
583.6	187.7
583.8	189.9
584.0	191.3
584.2	190.9
584.4	189.1
584.6	187.0
584.8	184.2
585.0	185.0
585.2	185.7
585.4	186.0
585.6	184.6
585.8	183.9
586.0	179.1
586.2	177.2
586.4	177.1
586.6	176.7
586.8	177.8
587.0	178.7
587.2	178.2
587.4	177.5
587.6	177.3
587.8	175.3
588.0	174.5
588.2	174.2
588.4	173.9
588.6	172.8
588.8	172.2
589.0	171.7
589.2	171.2
589.4	171.7
589.6	170.7
589.8	170.2
590.0	167.7
590.2	165.7
590.4	164.8
590.6	163.6
590.8	163.3
591.0	164.0
591.2	163.9
591.4	163.8
591.6	163.4
591.8	161.8
592.0	160.1
592.2	159.7
592.4	158.3
592.6	157.6
592.8	157.0
593.0	156.6
593.2	155.5
593.4	155.9
593.6	154.9
593.8	154.4
594.0	153.7
594.2	153.4
594.4	152.8
594.6	152.1
594.8	151.0
595.0	151.4
595.2	150.1
595.4	148.7
595.6	147.8
595.8	147.7
596.0	148.3
596.2	149.0
596.4	147.0
596.6	144.9
596.8	143.1
597.0	142.4
597.2	142.4
597.4	141.1
597.6	140.6
597.8	140.5
598.0	140.6
598.2	139.4
598.4	138.2
598.6	136.5
598.8	136.3
599.0	135.6
599.2	136.2
599.4	136.4
599.6	135.6
599.8	135.0
600.0	135.6
600.2	135.1
600.4	134.7
600.6	133.9
600.8	131.6
601.0	131.1
601.2	131.2
601.4	131.2
601.6	129.9
601.8	128.1
602.0	126.5
602.2	125.4
602.4	124.7
602.6	126.1
602.8	126.9
603.0	126.7
603.2	126.2
603.4	124.6
603.6	123.3
603.8	122.1
604.0	121.9
604.2	120.4
604.4	119.4
604.6	118.8
604.8	119.6
605.0	118.8
605.2	118.4
605.4	119.0
605.6	118.5
605.8	117.2
606.0	117.5
606.2	116.0
606.4	115.1
606.6	116.2
606.8	115.4
607.0	114.6
607.2	114.2
607.4	113.1
607.6	111.8
607.8	111.4
608.0	111.0
608.2	110.8
608.4	110.2
608.6	110.5
608.8	109.8
609.0	110.1
609.2	109.6
609.4	107.9
609.6	106.1
609.8	105.3
610.0	104.1
610.2	103.7
610.4	104.2
610.6	104.6
610.8	104.9
611.0	103.9
611.2	103.2
611.4	101.9
611.6	101.5
611.8	101.6
612.0	101.6
612.2	99.89
612.4	99.42
612.6	98.68
612.8	98.45
613.0	97.85
613.2	98.56
613.4	98.59
613.6	97.51
613.8	96.67
614.0	95.90
614.2	94.58
614.4	94.59
614.6	94.67
614.8	93.34
615.0	92.69
615.2	92.01
615.4	91.56
615.6	91.31
615.8	90.12
616.0	90.08
616.2	90.80
616.4	90.86
616.6	90.67
616.8	90.70
617.0	89.11
617.2	87.64
617.4	86.83
617.6	86.49
617.8	86.11
618.0	86.53
618.2	86.69
618.4	85.40
618.6	85.02
618.8	85.87
619.0	85.58
619.2	84.74
619.4	84.26
619.6	82.96
619.8	82.01
620.0	82.58
620.2	81.34
620.4	80.37
620.6	79.71
620.8	79.53
621.0	78.46
621.2	79.18
621.4	78.51
621.6	79.61
621.8	79.95
622.0	80.51
622.2	79.36
622.4	78.63
622.6	77.36
622.8	76.26
623.0	74.98
623.2	74.61
623.4	75.39
623.6	76.06
623.8	76.22
624.0	75.74
624.2	74.86
624.4	73.45
624.6	73.59
624.8	72.62
625.0	71.73
625.2	70.93
625.4	70.91
625.6	70.49
625.8	71.52
626.0	71.60
626.2	71.04
626.4	70.64
626.6	70.72
626.8	69.90
627.0	70.24
627.2	69.34
627.4	67.35
627.6	66.64
627.8	66.26
628.0	66.08
628.2	66.92
628.4	66.86
628.6	65.78
628.8	65.36
629.0	65.23
629.2	65.05
629.4	65.07
629.6	64.88
629.8	63.98
630.0	63.31
630.2	62.56
630.4	61.25
630.6	61.37
630.8	61.44
631.0	61.00
631.2	60.89
631.4	60.25
631.6	59.30
631.8	58.81
632.0	58.71
632.2	58.64
632.4	58.32
632.6	58.42
632.8	58.23
633.0	57.12
633.2	57.28
633.4	57.54
633.6	56.86
633.8	56.71
634.0	56.18
634.2	55.72
634.4	55.76
634.6	55.06
634.8	54.46
635.0	53.57
635.2	53.14
635.4	53.68
635.6	54.12
635.8	54.17
636.0	53.98
636.2	53.26
636.4	53.06
636.6	52.61
636.8	52.36
637.0	51.88
637.2	51.37
637.4	51.10
637.6	51.11
637.8	49.74
638.0	49.66
638.2	49.19
638.4	48.67
638.6	48.93
638.8	48.24
639.0	47.35
639.2	48.05
639.4	48.03
639.6	48.22
639.8	48.49
640.0	47.51
640.2	46.62
640.4	46.37
640.6	45.39
640.8	45.83
641.0	45.69
641.2	45.56
641.4	44.63
641.6	43.95
641.8	43.56
642.0	44.15
642.2	44.17
642.4	45.01
642.6	44.02
642.8	42.73
643.0	41.97
643.2	41.56
643.4	41.54
643.6	43.05
643.8	42.94
644.0	42.54
644.2	41.98
644.4	41.32
644.6	41.14
644.8	41.41
645.0	41.79
645.2	41.53
645.4	41.44
645.6	40.77
645.8	40.15
646.0	40.05
646.2	40.38
646.4	39.93
646.6	39.43
646.8	38.12
647.0	37.13
647.2	37.45
647.4	37.53
647.6	38.26
647.8	38.40
648.0	37.34
648.2	36.63
648.4	36.46
648.6	36.01
648.8	36.18
649.0	35.64
649.2	34.50
649.4	34.30
649.6	34.05
649.8	34.45
650.0	34.46
650.2	34.52
650.4	34.09
650.6	33.39
650.8	32.75
651.0	33.68
651.2	34.02
651.4	34.05
651.6	33.71
651.8	32.68
652.0	32.30
652.2	32.89
652.4	32.64
652.6	32.00
652.8	31.84
653.0	31.77
653.2	31.57
653.4	31.97
653.6	31.72
653.8	31.74
654.0	31.91
654.2	31.91
654.4	31.22
654.6	30.43
654.8	29.59
655.0	29.56
655.2	29.61
655.4	29.69
655.6	29.33
655.8	28.44
656.0	28.78
656.2	29.37
656.4	29.37
656.6	28.78
656.8	27.63
657.0	26.95
657.2	27.36
657.4	27.22
657.6	27.44
657.8	27.48
658.0	27.55
658.2	28.00
658.4	28.09
658.6	27.87
658.8	28.06
659.0	27.35
659.2	26.45
659.4	25.73
659.6	25.01
659.8	24.72
660.0	25.15
660.2	24.62
660.4	24.63
660.6	24.73
660.8	24.74
661.0	24.51
661.2	24.23
661.4	23.50
661.6	23.60
661.8	23.77
662.0	23.99
662.2	23.66
662.4	23.09
662.6	22.39
662.8	22.41
663.0	22.71
663.2	23.08
663.4	22.74
663.6	22.76
663.8	23.04
664.0	23.07
664.2	23.03
664.4	23.09
664.6	22.41
664.8	22.28
665.0	22.59
665.2	22.45
665.4	21.91
665.6	21.69
665.8	21.42
666.0	21.60
666.2	21.22
666.4	20.99
666.6	20.85
666.8	20.76
667.0	20.71
667.2	20.23
667.4	19.51
667.6	19.38
667.8	19.64
668.0	19.58
668.2	19.39
668.4	19.46
668.6	19.61
668.8	19.77
669.0	19.47
669.2	19.17
669.4	18.95
669.6	19.45
669.8	19.76
670.0	19.37
670.2	18.81
670.4	18.21
670.6	18.00
670.8	17.90
671.0	18.23
671.2	17.88
671.4	17.75
671.6	17.46
671.8	17.87
672.0	17.74
672.2	17.82
672.4	17.35
672.6	17.15
672.8	16.94
673.0	16.91
673.2	16.75
673.4	16.10
673.6	15.99
673.8	16.11
674.0	16.28
674.2	16.25
674.4	16.12
674.6	15.11
674.8	14.89
675.0	14.97
675.2	15.08
675.4	15.13
675.6	15.12
675.8	15.17
676.0	15.21
676.2	15.22
676.4	15.35
676.6	15.25
676.8	15.04
677.0	15.38
677.2	15.29
677.4	14.85
677.6	14.66
677.8	14.10
678.0	13.73
678.2	14.03
678.4	14.30
678.6	14.55
678.8	14.53
679.0	14.23
679.2	14.19
679.4	14.17
679.6	14.12
679.8	13.85
680.0	13.49
680.2	13.21
680.4	12.92
680.6	12.68
680.8	12.59
681.0	12.70
681.2	12.74
681.4	13.15
681.6	13.16
681.8	13.24
682.0	13.17
682.2	12.74
682.4	12.32
682.6	12.17
682.8	12.22
683.0	12.45
683.2	12.56
683.4	12.14
683.6	12.05
683.8	11.71
684.0	11.46
684.2	11.34
684.4	11.42
684.6	11.53
684.8	11.81
685.0	11.59
685.2	11.41
685.4	11.55
685.6	11.74
685.8	11.59
686.0	11.16
686.2	10.21
686.4	9.971
686.6	10.01
686.8	10.35
687.0	10.41
687.2	10.47
687.4	10.31
687.6	10.38
687.8	9.935
688.0	9.929
688.2	9.752
688.4	10.19
688.6	10.51
688.8	10.58
689.0	10.28
689.2	10.16
689.4	9.789
689.6	10.12
689.8	10.28
690.0	9.933
690.2	9.774
690.4	9.420
690.6	8.979
690.8	9.037
691.0	9.093
691.2	8.813
691.4	9.127
691.6	9.390
691.8	9.549
692.0	9.527
692.2	9.012
692.4	8.712
692.6	8.680
692.8	8.828
693.0	8.967
693.2	8.947
693.4	8.753
693.6	8.622
693.8	8.612
694.0	8.413
694.2	8.329
694.4	8.474
694.6	8.578
694.8	8.578
695.0	8.724
695.2	8.696
695.4	8.515
695.6	8.346
695.8	8.045
696.0	7.816
696.2	7.715
696.4	7.729
696.6	7.842
696.8	7.944
697.0	7.989
697.2	8.011
697.4	7.997
697.6	7.903
697.8	7.862
698.0	7.827
698.2	7.824
698.4	7.521
698.6	7.472
698.8	7.483
699.0	7.481
699.2	7.624
699.4	7.496
699.6	7.174
699.8	7.156
700.0	6.998
700.2	6.917
700.4	6.975
700.6	6.950
700.8	7.154
701.0	7.522
701.2	7.568
701.4	7.146
701.6	6.816
701.8	6.401
702.0	5.955
702.2	6.268
702.4	6.682
702.6	7.059
702.8	7.194
703.0	6.965
703.2	6.652
703.4	6.724
703.6	6.668
703.8	6.545
704.0	6.194
704.2	5.877
704.4	6.064
704.6	6.308
704.8	6.395
705.0	6.391
705.2	6.349
705.4	6.230
705.6	6.294
705.8	6.316
706.0	6.535
706.2	6.502
706.4	6.575
706.6	6.297
706.8	5.945
707.0	5.918
707.2	6.165
707.4	6.154
707.6	6.167
707.8	5.946
708.0	5.614
708.2	5.308
708.4	5.455
708.6	5.420
708.8	5.583
709.0	5.888
709.2	5.985
709.4	5.738
709.6	5.784
