Sample:	'20211010A(EM)
File name:	G-NI 4 400.FDS
Run date:	'17:26:34, 06/19/2023
Operator:	Administrator
Comment:	'

Instrument
Model:	F-4700 FL Spectrophotometer
Serial number:	2019-001
ROM Version:	5J24010 00

Instrument parameters
Measurement type:	Wavelength scan
Scan mode:	Emission
Data mode:	Fluorescence
EX WL:	400.0 nm
EM  Start WL:	420.0 nm
EM  End WL:	800.0 nm
Scan speed:	1200 nm/min
Delay:	0.0 s
EX Slit:	10.0 nm
EM Slit:	10.0 nm
PMT Voltage:	500 V
Response:	0.002 s
Corrected spectra:	Off
Shutter control:	On

Processing performed
Savitsky-Golay smoothed
Smoothing order:	3
Number of points:	7
Number of times:	1

Peak integration
Integration method:	Rectangular
Sensitivity:	1
Threshold:	1.000

Peaks
No.	Start(nm)	Apex(nm)	End(nm)	Height(Data)	Valley(nm)	Valley(Data)
1	420.0	546.4	546.8	1986	546.8	1977
2	546.8	548.4	549.0	1997	549.0	1980
3	549.0	550.2	551.0	1988	551.0	1972
4	551.0	551.6	709.6	1980	709.6	33.77
5	709.6	710.4	718.2	35.46	718.2	25.02
6	718.2	718.8	725.4	27.43	725.4	19.12
7	725.4	726.4	757.8	20.79	757.8	6.044
8	757.8	758.6	780.8	7.093	780.8	3.393
9	780.8	796.0	796.8	7.928	796.8	6.893

Data points
nm	Data
420.0	1.494
420.2	1.212
420.4	1.154
420.6	1.212
420.8	1.221
421.0	1.149
421.2	1.129
421.4	1.085
421.6	1.044
421.8	1.149
422.0	1.155
422.2	1.172
422.4	1.223
422.6	1.204
422.8	1.084
423.0	1.183
423.2	1.032
423.4	1.063
423.6	1.038
423.8	0.998
424.0	1.144
424.2	1.223
424.4	1.087
424.6	1.127
424.8	1.063
425.0	0.938
425.2	1.005
425.4	0.863
425.6	0.783
425.8	0.900
426.0	1.107
426.2	1.185
426.4	1.302
426.6	1.217
426.8	1.158
427.0	1.168
427.2	1.159
427.4	1.128
427.6	1.200
427.8	1.042
428.0	1.010
428.2	1.068
428.4	1.065
428.6	1.058
428.8	1.125
429.0	0.978
429.2	0.911
429.4	1.073
429.6	1.140
429.8	1.162
430.0	1.338
430.2	1.234
430.4	1.092
430.6	1.235
430.8	1.191
431.0	1.159
431.2	1.205
431.4	1.033
431.6	0.793
431.8	0.846
432.0	0.944
432.2	1.021
432.4	1.182
432.6	1.301
432.8	1.215
433.0	1.178
433.2	1.136
433.4	1.017
433.6	1.024
433.8	1.112
434.0	1.325
434.2	1.385
434.4	1.409
434.6	1.351
434.8	1.246
435.0	0.992
435.2	1.113
435.4	1.190
435.6	1.318
435.8	1.407
436.0	1.371
436.2	1.195
436.4	1.113
436.6	1.042
436.8	1.059
437.0	1.215
437.2	1.279
437.4	1.447
437.6	1.477
437.8	1.407
438.0	1.350
438.2	1.383
438.4	1.256
438.6	1.218
438.8	1.204
439.0	1.161
439.2	1.161
439.4	1.143
439.6	1.173
439.8	1.154
440.0	1.104
440.2	1.112
440.4	1.114
440.6	1.065
440.8	1.195
441.0	1.238
441.2	1.357
441.4	1.391
441.6	1.393
441.8	1.227
442.0	1.217
442.2	1.326
442.4	1.559
442.6	1.634
442.8	1.557
443.0	1.243
443.2	1.171
443.4	1.189
443.6	1.211
443.8	1.319
444.0	1.317
444.2	1.283
444.4	1.341
444.6	1.328
444.8	1.191
445.0	1.210
445.2	1.123
445.4	1.187
445.6	1.262
445.8	1.438
446.0	1.425
446.2	1.546
446.4	1.490
446.6	1.556
446.8	1.461
447.0	1.466
447.2	1.286
447.4	1.264
447.6	1.336
447.8	1.432
448.0	1.438
448.2	1.461
448.4	1.343
448.6	1.328
448.8	1.402
449.0	1.459
449.2	1.466
449.4	1.383
449.6	1.371
449.8	1.414
450.0	1.531
450.2	1.662
450.4	1.738
450.6	1.745
450.8	1.713
451.0	1.565
451.2	1.521
451.4	1.564
451.6	1.580
451.8	1.575
452.0	1.654
452.2	1.606
452.4	1.605
452.6	1.626
452.8	1.754
453.0	1.733
453.2	1.749
453.4	1.630
453.6	1.506
453.8	1.519
454.0	1.791
454.2	2.046
454.4	2.081
454.6	1.978
454.8	1.790
455.0	1.866
455.2	1.826
455.4	1.932
455.6	1.963
455.8	1.820
456.0	1.766
456.2	1.901
456.4	1.956
456.6	2.213
456.8	2.252
457.0	2.215
457.2	2.236
457.4	2.222
457.6	2.226
457.8	2.330
458.0	2.169
458.2	2.199
458.4	2.395
458.6	2.420
458.8	2.370
459.0	2.302
459.2	2.488
459.4	2.544
459.6	2.618
459.8	2.527
460.0	2.556
460.2	2.720
460.4	3.029
460.6	3.019
460.8	2.832
461.0	2.665
461.2	2.709
461.4	2.903
461.6	2.892
461.8	3.080
462.0	3.130
462.2	3.087
462.4	3.157
462.6	3.323
462.8	3.293
463.0	3.274
463.2	3.297
463.4	3.176
463.6	3.428
463.8	3.726
464.0	3.774
464.2	3.625
464.4	3.844
464.6	4.015
464.8	4.365
465.0	4.466
465.2	4.313
465.4	3.960
465.6	3.862
465.8	4.135
466.0	4.467
466.2	4.670
466.4	4.634
466.6	4.784
466.8	4.671
467.0	4.744
467.2	4.825
467.4	5.059
467.6	5.055
467.8	5.707
468.0	5.809
468.2	5.918
468.4	5.805
468.6	5.984
468.8	6.222
469.0	6.668
469.2	6.877
469.4	7.064
469.6	7.143
469.8	7.142
470.0	7.345
470.2	7.395
470.4	7.564
470.6	7.750
470.8	8.152
471.0	8.336
471.2	8.854
471.4	8.916
471.6	9.207
471.8	9.392
472.0	9.138
472.2	9.037
472.4	9.626
472.6	10.02
472.8	10.54
473.0	11.14
473.2	11.38
473.4	11.58
473.6	11.86
473.8	12.21
474.0	12.48
474.2	12.79
474.4	13.28
474.6	13.35
474.8	13.69
475.0	14.34
475.2	14.95
475.4	15.27
475.6	15.64
475.8	15.58
476.0	15.99
476.2	16.37
476.4	16.73
476.6	17.67
476.8	18.40
477.0	19.19
477.2	20.04
477.4	20.45
477.6	20.89
477.8	21.67
478.0	21.94
478.2	22.29
478.4	22.72
478.6	23.26
478.8	24.19
479.0	25.30
479.2	26.59
479.4	27.52
479.6	28.27
479.8	29.04
480.0	29.24
480.2	29.25
480.4	30.08
480.6	31.48
480.8	32.62
481.0	33.98
481.2	34.47
481.4	35.46
481.6	36.35
481.8	37.62
482.0	38.78
482.2	39.91
482.4	40.77
482.6	42.05
482.8	42.93
483.0	43.65
483.2	45.11
483.4	46.98
483.6	49.13
483.8	50.06
484.0	51.47
484.2	52.25
484.4	53.02
484.6	54.35
484.8	56.58
485.0	58.23
485.2	60.74
485.4	62.81
485.6	64.15
485.8	65.49
486.0	67.16
486.2	69.38
486.4	71.46
486.6	73.35
486.8	74.66
487.0	75.89
487.2	77.44
487.4	80.06
487.6	83.35
487.8	86.19
488.0	88.03
488.2	89.67
488.4	91.84
488.6	94.51
488.8	97.35
489.0	99.07
489.2	101.3
489.4	103.3
489.6	107.1
489.8	111.3
490.0	113.7
490.2	115.5
490.4	118.3
490.6	120.4
490.8	123.3
491.0	126.0
491.2	127.9
491.4	130.8
491.6	134.9
491.8	139.7
492.0	145.4
492.2	149.1
492.4	151.6
492.6	154.2
492.8	157.6
493.0	159.7
493.2	164.3
493.4	167.0
493.6	168.9
493.8	173.1
494.0	179.5
494.2	182.9
494.4	187.6
494.6	191.2
494.8	195.1
495.0	200.2
495.2	207.2
495.4	211.7
495.6	216.6
495.8	220.8
496.0	225.0
496.2	228.0
496.4	232.9
496.6	236.5
496.8	241.9
497.0	247.1
497.2	252.2
497.4	258.1
497.6	263.7
497.8	269.6
498.0	275.4
498.2	281.6
498.4	286.5
498.6	291.5
498.8	295.0
499.0	300.0
499.2	305.4
499.4	312.4
499.6	318.4
499.8	325.4
500.0	332.1
500.2	338.1
500.4	344.1
500.6	350.5
500.8	355.1
501.0	363.4
501.2	371.0
501.4	378.7
501.6	386.8
501.8	395.1
502.0	399.3
502.2	406.8
502.4	411.5
502.6	415.4
502.8	424.2
503.0	434.4
503.2	442.3
503.4	451.6
503.6	459.2
503.8	463.3
504.0	470.4
504.2	479.5
504.4	489.0
504.6	496.3
504.8	506.0
505.0	515.1
505.2	519.5
505.4	524.1
505.6	530.6
505.8	537.6
506.0	551.0
506.2	565.0
506.4	572.8
506.6	578.6
506.8	583.5
507.0	587.0
507.2	597.4
507.4	607.7
507.6	619.2
507.8	630.1
508.0	639.1
508.2	643.9
508.4	653.5
508.6	661.6
508.8	669.8
509.0	676.7
509.2	688.1
509.4	696.4
509.6	707.2
509.8	716.9
510.0	725.6
510.2	734.0
510.4	747.8
510.6	755.1
510.8	765.0
511.0	774.3
511.2	784.0
511.4	794.9
511.6	805.3
511.8	812.6
512.0	821.7
512.2	829.9
512.4	839.9
512.6	853.2
512.8	865.0
513.0	876.2
513.2	884.8
513.4	892.4
513.6	898.6
513.8	908.3
514.0	920.6
514.2	932.2
514.4	942.4
514.6	953.2
514.8	959.6
515.0	969.5
515.2	977.7
515.4	986.9
515.6	995.4
515.8	1009
516.0	1020
516.2	1037
516.4	1045
516.6	1053
516.8	1056
517.0	1063
517.2	1077
517.4	1091
517.6	1101
517.8	1110
518.0	1112
518.2	1122
518.4	1138
518.6	1150
518.8	1158
519.0	1168
519.2	1174
519.4	1186
519.6	1196
519.8	1207
520.0	1215
520.2	1227
520.4	1236
520.6	1246
520.8	1251
521.0	1260
521.2	1266
521.4	1275
521.6	1286
521.8	1300
522.0	1307
522.2	1320
522.4	1327
522.6	1337
522.8	1347
523.0	1359
523.2	1364
523.4	1375
523.6	1385
523.8	1398
524.0	1409
524.2	1419
524.4	1425
524.6	1429
524.8	1438
525.0	1453
525.2	1465
525.4	1478
525.6	1483
525.8	1490
526.0	1499
526.2	1504
526.4	1506
526.6	1513
526.8	1519
527.0	1530
527.2	1539
527.4	1542
527.6	1551
527.8	1560
528.0	1572
528.2	1585
528.4	1597
528.6	1600
528.8	1609
529.0	1613
529.2	1620
529.4	1632
529.6	1634
529.8	1638
530.0	1649
530.2	1660
530.4	1667
530.6	1678
530.8	1681
531.0	1691
531.2	1700
531.4	1707
531.6	1710
531.8	1716
532.0	1724
532.2	1729
532.4	1731
532.6	1733
532.8	1737
533.0	1751
533.2	1765
533.4	1769
533.6	1774
533.8	1772
534.0	1780
534.2	1790
534.4	1797
534.6	1800
534.8	1808
535.0	1810
535.2	1818
535.4	1818
535.6	1822
535.8	1832
536.0	1842
536.2	1842
536.4	1842
536.6	1841
536.8	1845
537.0	1854
537.2	1861
537.4	1866
537.6	1876
537.8	1882
538.0	1888
538.2	1888
538.4	1889
538.6	1895
538.8	1903
539.0	1905
539.2	1904
539.4	1902
539.6	1901
539.8	1906
540.0	1918
540.2	1926
540.4	1927
540.6	1932
540.8	1935
541.0	1938
541.2	1948
541.4	1946
541.6	1944
541.8	1943
542.0	1942
542.2	1946
542.4	1948
542.6	1949
542.8	1953
543.0	1954
543.2	1958
543.4	1960
543.6	1960
543.8	1965
544.0	1972
544.2	1978
544.4	1980
544.6	1976
544.8	1973
545.0	1973
545.2	1977
545.4	1980
545.6	1981
545.8	1982
546.0	1984
546.2	1985
546.4	1986
546.6	1980
546.8	1977
547.0	1978
547.2	1981
547.4	1979
547.6	1983
547.8	1986
548.0	1993
548.2	1997
548.4	1997
548.6	1990
548.8	1983
549.0	1980
549.2	1982
549.4	1982
549.6	1982
549.8	1985
550.0	1984
550.2	1988
550.4	1987
550.6	1981
550.8	1973
551.0	1972
551.2	1974
551.4	1977
551.6	1980
551.8	1977
552.0	1975
552.2	1979
552.4	1976
552.6	1966
552.8	1962
553.0	1958
553.2	1958
553.4	1964
553.6	1969
553.8	1967
554.0	1962
554.2	1960
554.4	1958
554.6	1955
554.8	1955
555.0	1950
555.2	1948
555.4	1943
555.6	1943
555.8	1942
556.0	1943
556.2	1943
556.4	1948
556.6	1944
556.8	1939
557.0	1929
557.2	1921
557.4	1918
557.6	1918
557.8	1918
558.0	1921
558.2	1920
558.4	1921
558.6	1920
558.8	1911
559.0	1906
559.2	1902
559.4	1902
559.6	1901
559.8	1894
560.0	1888
560.2	1885
560.4	1877
560.6	1878
560.8	1876
561.0	1871
561.2	1874
561.4	1872
561.6	1868
561.8	1863
562.0	1856
562.2	1851
562.4	1849
562.6	1849
562.8	1852
563.0	1847
563.2	1845
563.4	1833
563.6	1822
563.8	1819
564.0	1814
564.2	1813
564.4	1816
564.6	1813
564.8	1810
565.0	1805
565.2	1795
565.4	1793
565.6	1795
565.8	1796
566.0	1791
566.2	1783
566.4	1780
566.6	1775
566.8	1773
567.0	1769
567.2	1766
567.4	1758
567.6	1754
567.8	1741
568.0	1733
568.2	1728
568.4	1728
568.6	1726
568.8	1725
569.0	1722
569.2	1714
569.4	1708
569.6	1705
569.8	1700
570.0	1699
570.2	1695
570.4	1688
570.6	1687
570.8	1685
571.0	1676
571.2	1668
571.4	1662
571.6	1658
571.8	1656
572.0	1651
572.2	1644
572.4	1638
572.6	1637
572.8	1638
573.0	1631
573.2	1627
573.4	1625
573.6	1617
573.8	1607
574.0	1602
574.2	1597
574.4	1595
574.6	1590
574.8	1581
575.0	1576
575.2	1567
575.4	1564
575.6	1563
575.8	1560
576.0	1556
576.2	1554
576.4	1546
576.6	1538
576.8	1534
577.0	1528
577.2	1524
577.4	1521
577.6	1518
577.8	1516
578.0	1512
578.2	1508
578.4	1508
578.6	1505
578.8	1496
579.0	1490
579.2	1482
579.4	1474
579.6	1470
579.8	1466
580.0	1459
580.2	1455
580.4	1450
580.6	1441
580.8	1437
581.0	1436
581.2	1433
581.4	1429
581.6	1426
581.8	1419
582.0	1416
582.2	1409
582.4	1403
582.6	1393
582.8	1390
583.0	1385
583.2	1381
583.4	1374
583.6	1368
583.8	1365
584.0	1366
584.2	1359
584.4	1353
584.6	1347
584.8	1341
585.0	1337
585.2	1333
585.4	1325
585.6	1317
585.8	1313
586.0	1313
586.2	1313
586.4	1310
586.6	1306
586.8	1297
587.0	1286
587.2	1278
587.4	1273
587.6	1268
587.8	1265
588.0	1261
588.2	1251
588.4	1246
588.6	1247
588.8	1251
589.0	1250
589.2	1242
589.4	1228
589.6	1218
589.8	1213
590.0	1210
590.2	1210
590.4	1203
590.6	1199
590.8	1198
591.0	1193
591.2	1189
591.4	1189
591.6	1183
591.8	1177
592.0	1171
592.2	1164
592.4	1161
592.6	1159
592.8	1156
593.0	1149
593.2	1144
593.4	1139
593.6	1136
593.8	1133
594.0	1128
594.2	1123
594.4	1114
594.6	1109
594.8	1105
595.0	1101
595.2	1096
595.4	1089
595.6	1082
595.8	1081
596.0	1082
596.2	1081
596.4	1076
596.6	1069
596.8	1064
597.0	1062
597.2	1057
597.4	1053
597.6	1047
597.8	1042
598.0	1036
598.2	1031
598.4	1025
598.6	1022
598.8	1017
599.0	1012
599.2	1009
599.4	1004
599.6	999.6
599.8	997.4
600.0	989.8
600.2	983.9
600.4	978.7
600.6	973.7
600.8	970.0
601.0	971.0
601.2	968.4
601.4	965.0
601.6	960.2
601.8	954.4
602.0	950.2
602.2	948.5
602.4	944.1
602.6	942.4
602.8	938.8
603.0	932.5
603.2	929.1
603.4	924.9
603.6	918.7
603.8	913.5
604.0	909.8
604.2	904.2
604.4	902.2
604.6	899.1
604.8	894.8
605.0	890.6
605.2	884.8
605.4	879.2
605.6	873.3
605.8	867.7
606.0	863.8
606.2	861.6
606.4	859.0
606.6	858.9
606.8	854.8
607.0	848.9
607.2	843.6
607.4	838.7
607.6	835.0
607.8	832.4
608.0	829.3
608.2	824.9
608.4	820.1
608.6	815.8
608.8	810.2
609.0	806.7
609.2	802.6
609.4	797.8
609.6	794.3
609.8	791.9
610.0	789.8
610.2	788.8
610.4	783.7
610.6	778.1
610.8	773.8
611.0	766.6
611.2	762.1
611.4	757.7
611.6	752.6
611.8	749.9
612.0	748.4
612.2	746.3
612.4	744.7
612.6	740.5
612.8	736.3
613.0	731.4
613.2	727.0
613.4	722.2
613.6	719.0
613.8	714.7
614.0	713.0
614.2	708.0
614.4	706.5
614.6	701.3
614.8	697.7
615.0	693.5
615.2	691.3
615.4	686.6
615.6	683.7
615.8	678.9
616.0	674.8
616.2	671.7
616.4	669.5
616.6	666.1
616.8	663.8
617.0	660.0
617.2	655.4
617.4	650.5
617.6	647.0
617.8	644.1
618.0	643.2
618.2	641.0
618.4	636.6
618.6	631.1
618.8	627.5
619.0	624.5
619.2	620.5
619.4	620.1
619.6	618.6
619.8	616.5
620.0	609.7
620.2	601.8
620.4	594.1
620.6	592.0
620.8	591.7
621.0	593.4
621.2	589.2
621.4	583.5
621.6	578.2
621.8	575.7
622.0	573.5
622.2	571.7
622.4	568.4
622.6	562.2
622.8	558.7
623.0	557.0
623.2	554.2
623.4	552.0
623.6	548.3
623.8	543.6
624.0	542.0
624.2	539.0
624.4	536.1
624.6	533.0
624.8	525.6
625.0	521.9
625.2	519.3
625.4	517.4
625.6	517.4
625.8	514.5
626.0	512.4
626.2	512.0
626.4	510.6
626.6	509.3
626.8	505.7
627.0	500.3
627.2	498.1
627.4	494.8
627.6	491.5
627.8	489.6
628.0	485.9
628.2	481.8
628.4	477.2
628.6	473.0
628.8	468.5
629.0	467.2
629.2	468.0
629.4	465.6
629.6	461.6
629.8	458.4
630.0	453.6
630.2	452.8
630.4	449.7
630.6	444.7
630.8	441.4
631.0	440.8
631.2	439.9
631.4	440.1
631.6	435.0
631.8	430.5
632.0	427.3
632.2	425.6
632.4	424.7
632.6	423.2
632.8	423.2
633.0	421.2
633.2	419.5
633.4	415.8
633.6	412.9
633.8	408.3
634.0	406.4
634.2	404.1
634.4	401.9
634.6	399.9
634.8	397.5
635.0	394.0
635.2	391.5
635.4	390.9
635.6	387.9
635.8	386.0
636.0	384.3
636.2	381.7
636.4	380.2
636.6	380.8
636.8	378.8
637.0	376.6
637.2	371.9
637.4	366.9
637.6	364.6
637.8	363.0
638.0	360.0
638.2	359.2
638.4	355.4
638.6	353.7
638.8	353.7
639.0	350.6
639.2	346.4
639.4	345.6
639.6	341.6
639.8	339.7
640.0	339.3
640.2	338.4
640.4	337.7
640.6	334.3
640.8	329.1
641.0	327.0
641.2	325.7
641.4	325.4
641.6	325.2
641.8	320.9
642.0	318.3
642.2	316.6
642.4	315.3
642.6	314.6
642.8	314.4
643.0	311.1
643.2	308.3
643.4	305.2
643.6	302.4
643.8	301.7
644.0	300.9
644.2	299.0
644.4	297.3
644.6	296.2
644.8	294.6
645.0	294.6
645.2	291.5
645.4	290.7
645.6	288.7
645.8	285.5
646.0	284.1
646.2	282.8
646.4	279.4
646.6	278.0
646.8	276.1
647.0	274.0
647.2	272.1
647.4	271.4
647.6	269.0
647.8	266.4
648.0	265.0
648.2	264.1
648.4	260.3
648.6	260.3
648.8	260.0
649.0	258.7
649.2	256.3
649.4	253.5
649.6	251.5
649.8	250.9
650.0	251.0
650.2	250.4
650.4	247.7
650.6	244.5
650.8	243.1
651.0	241.4
651.2	239.5
651.4	239.1
651.6	237.1
651.8	235.4
652.0	233.5
652.2	232.8
652.4	231.9
652.6	230.6
652.8	229.7
653.0	228.1
653.2	224.8
653.4	222.5
653.6	220.3
653.8	218.6
654.0	217.2
654.2	215.1
654.4	213.2
654.6	213.3
654.8	214.0
655.0	214.4
655.2	211.4
655.4	207.4
655.6	205.8
655.8	204.4
656.0	205.7
656.2	204.7
656.4	204.0
656.6	203.1
656.8	202.2
657.0	199.5
657.2	198.4
657.4	195.6
657.6	195.2
657.8	192.8
658.0	190.7
658.2	189.4
658.4	188.9
658.6	188.2
658.8	187.9
659.0	185.9
659.2	184.5
659.4	184.1
659.6	183.5
659.8	181.1
660.0	179.5
660.2	178.5
660.4	176.7
660.6	175.6
660.8	174.8
661.0	174.1
661.2	174.4
661.4	173.8
661.6	171.5
661.8	168.8
662.0	166.2
662.2	167.1
662.4	167.1
662.6	166.2
662.8	164.6
663.0	162.2
663.2	160.0
663.4	160.5
663.6	160.4
663.8	160.3
664.0	158.5
664.2	156.7
664.4	154.1
664.6	152.7
664.8	152.9
665.0	153.4
665.2	152.4
665.4	152.3
665.6	149.9
665.8	147.1
666.0	146.5
666.2	145.7
666.4	145.0
666.6	144.9
666.8	144.3
667.0	142.6
667.2	143.3
667.4	141.6
667.6	140.6
667.8	139.7
668.0	138.4
668.2	137.2
668.4	135.7
668.6	133.5
668.8	132.7
669.0	132.6
669.2	132.1
669.4	130.8
669.6	130.3
669.8	129.4
670.0	127.7
670.2	126.9
670.4	125.0
670.6	123.4
670.8	123.8
671.0	123.5
671.2	122.8
671.4	122.8
671.6	121.8
671.8	121.4
672.0	121.2
672.2	120.6
672.4	119.5
672.6	119.3
672.8	118.3
673.0	116.5
673.2	115.1
673.4	113.8
673.6	113.0
673.8	113.5
674.0	113.5
674.2	112.5
674.4	110.6
674.6	108.3
674.8	107.1
675.0	107.0
675.2	106.9
675.4	107.5
675.6	107.3
675.8	105.7
676.0	105.2
676.2	104.5
676.4	104.1
676.6	104.2
676.8	103.3
677.0	101.9
677.2	101.3
677.4	100.8
677.6	100.8
677.8	99.37
678.0	98.47
678.2	96.92
678.4	95.83
678.6	95.93
678.8	97.60
679.0	95.84
679.2	96.39
679.4	94.72
679.6	92.56
679.8	90.74
680.0	90.82
680.2	89.43
680.4	90.11
680.6	89.49
680.8	89.04
681.0	86.64
681.2	85.48
681.4	84.93
681.6	85.17
681.8	84.83
682.0	84.85
682.2	84.48
682.4	84.48
682.6	84.74
682.8	84.55
683.0	83.45
683.2	82.50
683.4	82.18
683.6	81.83
683.8	81.58
684.0	80.40
684.2	78.65
684.4	78.22
684.6	77.30
684.8	78.49
685.0	78.93
685.2	78.15
685.4	76.20
685.6	74.80
685.8	73.57
686.0	74.43
686.2	75.21
686.4	74.21
686.6	73.33
686.8	71.83
687.0	71.73
687.2	72.00
687.4	71.57
687.6	70.14
687.8	69.96
688.0	69.48
688.2	69.09
688.4	68.83
688.6	67.90
688.8	67.77
689.0	67.77
689.2	68.66
689.4	67.65
689.6	66.38
689.8	64.99
690.0	64.65
690.2	63.74
690.4	64.32
690.6	62.96
690.8	61.94
691.0	61.80
691.2	62.30
691.4	62.48
691.6	62.69
691.8	61.47
692.0	60.72
692.2	60.15
692.4	59.70
692.6	59.25
692.8	59.10
693.0	58.65
693.2	58.64
693.4	58.53
693.6	58.38
693.8	57.71
694.0	57.67
694.2	56.57
694.4	55.69
694.6	54.86
694.8	54.81
695.0	54.24
695.2	54.59
695.4	54.33
695.6	54.04
695.8	53.32
696.0	53.34
696.2	52.32
696.4	52.50
696.6	52.64
696.8	52.61
697.0	51.62
697.2	50.83
697.4	50.23
697.6	49.86
697.8	49.86
698.0	50.34
698.2	50.39
698.4	50.30
698.6	50.85
698.8	50.54
699.0	49.48
699.2	48.81
699.4	47.96
699.6	46.82
699.8	46.72
700.0	47.28
700.2	47.09
700.4	47.63
700.6	47.41
700.8	46.74
701.0	45.99
701.2	45.69
701.4	45.51
701.6	45.88
701.8	45.57
702.0	45.23
702.2	44.05
702.4	43.44
702.6	43.31
702.8	42.90
703.0	42.93
703.2	43.23
703.4	42.99
703.6	43.33
703.8	43.42
704.0	42.54
704.2	42.14
704.4	42.23
704.6	42.36
704.8	42.72
705.0	42.57
705.2	41.35
705.4	40.19
705.6	39.62
705.8	39.24
706.0	39.17
706.2	38.81
706.4	38.55
706.6	38.48
706.8	38.87
707.0	38.59
707.2	38.35
707.4	37.66
707.6	37.57
707.8	36.96
708.0	36.87
708.2	36.14
708.4	36.17
708.6	36.05
708.8	36.49
709.0	35.59
709.2	35.04
709.4	34.25
709.6	33.77
709.8	34.42
710.0	35.26
710.2	35.11
710.4	35.46
710.6	35.05
710.8	34.22
711.0	34.31
711.2	34.17
711.4	34.50
711.6	34.65
711.8	33.66
712.0	33.16
712.2	32.82
712.4	32.82
712.6	33.64
712.8	33.44
713.0	32.44
713.2	31.92
713.4	31.47
713.6	30.85
713.8	31.77
714.0	31.85
714.2	32.06
714.4	31.42
714.6	31.09
714.8	30.11
715.0	29.68
715.2	29.23
715.4	29.23
715.6	28.86
