Sample:	'20211010A(EM)
File name:	G-CDs 380.FDS
Run date:	'11:19:24, 05/20/2023
Operator:	Administrator
Comment:	'

Instrument
Model:	F-4700 FL Spectrophotometer
Serial number:	2019-001
ROM Version:	5J24010 00

Instrument parameters
Measurement type:	Wavelength scan
Scan mode:	Emission
Data mode:	Fluorescence
EX WL:	380.0 nm
EM  Start WL:	400.0 nm
EM  End WL:	900.0 nm
Scan speed:	1200 nm/min
Delay:	0.0 s
EX Slit:	5.0 nm
EM Slit:	10.0 nm
PMT Voltage:	500 V
Response:	0.002 s
Corrected spectra:	Off
Shutter control:	On

Processing performed
Savitsky-Golay smoothed
Smoothing order:	3
Number of points:	7
Number of times:	1

Peak integration
Integration method:	Rectangular
Sensitivity:	1
Threshold:	1.000

Peaks
No.	Start(nm)	Apex(nm)	End(nm)	Height(Data)	Valley(nm)	Valley(Data)
1	400.0	404.0	406.0	122.2	406.0	118.3
2	406.0	407.4	411.0	122.5	411.0	112.5
3	411.0	411.8	418.2	116.1	418.2	103.8
4	418.2	418.8	419.4	105.4	419.4	102.8
5	419.4	419.8	421.2	104.8	421.2	103.1
6	421.2	421.8	423.4	105.3	423.4	103.6
7	423.4	424.0	426.0	105.8	426.0	102.5
8	426.0	426.8	429.0	105.3	429.0	102.4
9	429.0	429.8	432.6	104.0	432.6	99.25
10	432.6	433.4	434.2	102.3	434.2	98.73
11	434.2	437.0	437.8	102.1	437.8	99.50
12	437.8	440.0	440.4	103.2	440.4	101.5
13	440.4	448.6	449.8	116.0	449.8	113.4
14	449.8	533.4	534.4	7179	534.4	7152
15	534.4	537.2	720.4	7221	720.4	42.17
16	720.4	721.2	747.8	44.44	747.8	15.04
17	747.8	759.4	760.8	31.02	760.8	30.01
18	760.8	763.4	811.4	31.88	811.4	4.458
19	811.4	812.4	880.8	5.479	880.8	2.323

Data points
nm	Data
400.0	105.3
400.2	107.4
400.4	108.5
400.6	108.9
400.8	109.1
401.0	109.2
401.2	109.3
401.4	110.6
401.6	112.5
401.8	113.6
402.0	114.6
402.2	115.8
402.4	115.9
402.6	116.1
402.8	116.5
403.0	115.5
403.2	114.5
403.4	115.9
403.6	116.7
403.8	120.1
404.0	122.2
404.2	121.7
404.4	120.3
404.6	119.7
404.8	118.6
405.0	120.0
405.2	120.5
405.4	119.9
405.6	119.6
405.8	118.8
406.0	118.3
406.2	119.1
406.4	119.3
406.6	120.8
406.8	121.1
407.0	120.5
407.2	121.4
407.4	122.5
407.6	121.9
407.8	120.7
408.0	118.2
408.2	117.1
408.4	117.8
408.6	119.4
408.8	119.2
409.0	118.5
409.2	117.6
409.4	117.5
409.6	117.0
409.8	116.7
410.0	116.2
410.2	116.0
410.4	115.4
410.6	115.0
410.8	113.2
411.0	112.5
411.2	113.0
411.4	113.5
411.6	115.4
411.8	116.1
412.0	115.9
412.2	114.5
412.4	113.6
412.6	112.4
412.8	112.1
413.0	111.6
413.2	111.8
413.4	110.8
413.6	111.9
413.8	110.9
414.0	110.7
414.2	110.7
414.4	109.6
414.6	110.4
414.8	110.7
415.0	109.2
415.2	108.6
415.4	108.4
415.6	108.0
415.8	110.5
416.0	110.5
416.2	109.8
416.4	109.1
416.6	108.2
416.8	107.4
417.0	106.5
417.2	106.0
417.4	104.4
417.6	104.1
417.8	105.0
418.0	104.7
418.2	103.8
418.4	104.3
418.6	104.9
418.8	105.4
419.0	105.3
419.2	103.7
419.4	102.8
419.6	102.9
419.8	104.8
420.0	104.5
420.2	104.5
420.4	103.9
420.6	104.1
420.8	104.1
421.0	104.1
421.2	103.1
421.4	104.4
421.6	104.7
421.8	105.3
422.0	104.8
422.2	104.2
422.4	104.0
422.6	104.7
422.8	105.1
423.0	105.1
423.2	104.0
423.4	103.6
423.6	104.5
423.8	105.3
424.0	105.8
424.2	104.6
424.4	103.3
424.6	102.7
424.8	102.8
425.0	103.2
425.2	103.2
425.4	102.8
425.6	103.8
425.8	103.3
426.0	102.5
426.2	102.8
426.4	103.3
426.6	103.8
426.8	105.3
427.0	105.0
427.2	104.3
427.4	103.8
427.6	103.6
427.8	102.6
428.0	103.3
428.2	103.2
428.4	102.9
428.6	102.6
428.8	102.8
429.0	102.4
429.2	102.6
429.4	103.1
429.6	103.9
429.8	104.0
430.0	103.7
430.2	102.8
430.4	101.8
430.6	101.8
430.8	102.3
431.0	101.3
431.2	100.9
431.4	99.93
431.6	99.62
431.8	100.7
432.0	100.3
432.2	100.8
432.4	100.3
432.6	99.25
432.8	99.79
433.0	100.8
433.2	101.2
433.4	102.3
433.6	101.0
433.8	99.99
434.0	100.1
434.2	98.73
434.4	99.00
434.6	98.95
434.8	98.91
435.0	99.57
435.2	100.6
435.4	100.0
435.6	99.60
435.8	99.08
436.0	99.01
436.2	99.73
436.4	100.6
436.6	101.3
436.8	101.2
437.0	102.1
437.2	101.9
437.4	100.7
437.6	100.8
437.8	99.50
438.0	99.92
438.2	101.2
438.4	101.9
438.6	102.1
438.8	102.6
439.0	101.6
439.2	102.3
439.4	102.7
439.6	103.1
439.8	103.1
440.0	103.2
440.2	102.4
440.4	101.5
440.6	101.7
440.8	101.9
441.0	102.5
441.2	103.4
441.4	103.5
441.6	103.2
441.8	104.4
442.0	106.0
442.2	106.9
442.4	106.2
442.6	106.0
442.8	105.3
443.0	106.4
443.2	107.8
443.4	107.9
443.6	107.4
443.8	108.1
444.0	108.3
444.2	108.5
444.4	108.4
444.6	107.8
444.8	107.4
445.0	109.1
445.2	109.5
445.4	109.6
445.6	110.3
445.8	110.8
446.0	112.3
446.2	113.2
446.4	112.3
446.6	112.4
446.8	112.4
447.0	112.7
447.2	113.4
447.4	113.1
447.6	112.0
447.8	112.7
448.0	113.6
448.2	114.5
448.4	115.4
448.6	116.0
448.8	115.0
449.0	114.9
449.2	114.7
449.4	113.4
449.6	113.5
449.8	113.4
450.0	114.2
450.2	115.2
450.4	115.9
450.6	116.6
450.8	117.4
451.0	116.0
451.2	116.5
451.4	116.2
451.6	117.2
451.8	118.0
452.0	118.4
452.2	118.2
452.4	118.1
452.6	118.3
452.8	119.2
453.0	118.3
453.2	118.3
453.4	119.5
453.6	119.5
453.8	120.3
454.0	120.4
454.2	119.3
454.4	119.5
454.6	120.1
454.8	120.2
455.0	120.9
455.2	121.7
455.4	122.5
455.6	123.4
455.8	123.4
456.0	123.1
456.2	122.7
456.4	123.5
456.6	124.5
456.8	124.5
457.0	125.1
457.2	126.4
457.4	126.7
457.6	127.6
457.8	127.8
458.0	128.6
458.2	129.7
458.4	131.0
458.6	131.1
458.8	131.6
459.0	131.6
459.2	132.9
459.4	133.6
459.6	135.1
459.8	136.4
460.0	136.5
460.2	137.8
460.4	139.8
460.6	140.6
460.8	142.5
461.0	143.7
461.2	143.7
461.4	144.9
461.6	147.4
461.8	149.0
462.0	149.7
462.2	150.3
462.4	151.8
462.6	153.3
462.8	155.3
463.0	158.8
463.2	160.1
463.4	161.7
463.6	163.0
463.8	165.8
464.0	167.9
464.2	170.6
464.4	173.8
464.6	178.0
464.8	179.8
465.0	181.9
465.2	183.7
465.4	184.4
465.6	186.8
465.8	191.6
466.0	196.8
466.2	200.7
466.4	205.9
466.6	208.0
466.8	208.5
467.0	210.5
467.2	216.3
467.4	222.2
467.6	227.3
467.8	231.0
468.0	234.2
468.2	236.7
468.4	240.4
468.6	243.8
468.8	246.5
469.0	250.5
469.2	256.4
469.4	261.7
469.6	266.9
469.8	270.5
470.0	275.4
470.2	281.5
470.4	287.7
470.6	294.5
470.8	301.5
471.0	306.5
471.2	311.5
471.4	317.5
471.6	323.9
471.8	329.4
472.0	335.1
472.2	339.3
472.4	344.3
472.6	349.0
472.8	357.4
473.0	364.7
473.2	373.0
473.4	381.2
473.6	390.0
473.8	398.1
474.0	405.6
474.2	410.0
474.4	415.7
474.6	423.2
474.8	432.4
475.0	442.0
475.2	451.9
475.4	460.6
475.6	469.2
475.8	478.7
476.0	487.1
476.2	493.7
476.4	501.0
476.6	510.3
476.8	520.2
477.0	532.7
477.2	543.6
477.4	554.0
477.6	563.5
477.8	570.8
478.0	580.0
478.2	589.9
478.4	600.1
478.6	610.4
478.8	621.6
479.0	630.9
479.2	642.2
479.4	653.1
479.6	666.0
479.8	677.7
480.0	690.1
480.2	705.1
480.4	717.2
480.6	729.7
480.8	741.9
481.0	753.5
481.2	766.7
481.4	779.9
481.6	790.1
481.8	802.3
482.0	815.6
482.2	831.3
482.4	847.2
482.6	861.4
482.8	872.0
483.0	883.0
483.2	897.7
483.4	912.3
483.6	928.1
483.8	941.5
484.0	954.2
484.2	966.9
484.4	981.7
484.6	1001
484.8	1019
485.0	1038
485.2	1054
485.4	1069
485.6	1086
485.8	1105
486.0	1118
486.2	1141
486.4	1159
486.6	1175
486.8	1193
487.0	1211
487.2	1227
487.4	1248
487.6	1265
487.8	1281
488.0	1295
488.2	1314
488.4	1333
488.6	1355
488.8	1375
489.0	1401
489.2	1425
489.4	1450
489.6	1472
489.8	1494
490.0	1510
490.2	1531
490.4	1552
490.6	1575
490.8	1602
491.0	1631
491.2	1655
491.4	1683
491.6	1705
491.8	1723
492.0	1748
492.2	1778
492.4	1801
492.6	1828
492.8	1843
493.0	1863
493.2	1888
493.4	1916
493.6	1944
493.8	1972
494.0	1993
494.2	2024
494.4	2052
494.6	2083
494.8	2116
495.0	2145
495.2	2172
495.4	2200
495.6	2229
495.8	2255
496.0	2289
496.2	2316
496.4	2349
496.6	2379
496.8	2414
497.0	2449
497.2	2483
497.4	2510
497.6	2536
497.8	2563
498.0	2594
498.2	2626
498.4	2655
498.6	2689
498.8	2727
499.0	2762
499.2	2794
499.4	2826
499.6	2855
499.8	2893
500.0	2932
500.2	2971
500.4	3004
500.6	3034
500.8	3064
501.0	3102
501.2	3139
501.4	3180
501.6	3216
501.8	3249
502.0	3286
502.2	3321
502.4	3352
502.6	3388
502.8	3421
503.0	3461
503.2	3496
503.4	3530
503.6	3560
503.8	3589
504.0	3621
504.2	3659
504.4	3694
504.6	3741
504.8	3779
505.0	3822
505.2	3864
505.4	3901
505.6	3938
505.8	3979
506.0	4011
506.2	4051
506.4	4085
506.6	4119
506.8	4150
507.0	4182
507.2	4212
507.4	4249
507.6	4284
507.8	4334
508.0	4372
508.2	4404
508.4	4427
508.6	4460
508.8	4488
509.0	4529
509.2	4560
509.4	4600
509.6	4639
509.8	4685
510.0	4716
510.2	4746
510.4	4774
510.6	4811
510.8	4849
511.0	4887
511.2	4916
511.4	4948
511.6	4989
511.8	5019
512.0	5044
512.2	5069
512.4	5104
512.6	5143
512.8	5189
513.0	5221
513.2	5250
513.4	5278
513.6	5311
513.8	5348
514.0	5378
514.2	5412
514.4	5446
514.6	5477
514.8	5500
515.0	5537
515.2	5567
515.4	5597
515.6	5630
515.8	5649
516.0	5675
516.2	5714
516.4	5746
516.6	5771
516.8	5804
517.0	5826
517.2	5870
517.4	5906
517.6	5932
517.8	5946
518.0	5975
518.2	5998
518.4	6030
518.6	6057
518.8	6073
519.0	6093
519.2	6121
519.4	6150
519.6	6180
519.8	6204
520.0	6220
520.2	6239
520.4	6252
520.6	6281
520.8	6309
521.0	6335
521.2	6356
521.4	6368
521.6	6382
521.8	6403
522.0	6432
522.2	6463
522.4	6484
522.6	6508
522.8	6528
523.0	6543
523.2	6570
523.4	6583
523.6	6595
523.8	6614
524.0	6623
524.2	6640
524.4	6665
524.6	6681
524.8	6692
525.0	6703
525.2	6729
525.4	6759
525.6	6777
525.8	6796
526.0	6796
526.2	6793
526.4	6817
526.6	6836
526.8	6846
527.0	6868
527.2	6879
527.4	6896
527.6	6911
527.8	6928
528.0	6935
528.2	6956
528.4	6968
528.6	6989
528.8	7001
529.0	7009
529.2	7019
529.4	7033
529.6	7035
529.8	7032
530.0	7036
530.2	7037
530.4	7051
530.6	7073
530.8	7089
531.0	7102
531.2	7124
531.4	7133
531.6	7130
531.8	7135
532.0	7124
532.2	7140
532.4	7146
532.6	7152
532.8	7159
533.0	7168
533.2	7161
533.4	7179
533.6	7174
533.8	7171
534.0	7162
534.2	7156
534.4	7152
534.6	7164
534.8	7174
535.0	7177
535.2	7181
535.4	7187
535.6	7196
535.8	7201
536.0	7199
536.2	7197
536.4	7194
536.6	7198
536.8	7211
537.0	7220
537.2	7221
537.4	7217
537.6	7203
537.8	7201
538.0	7195
538.2	7195
538.4	7185
538.6	7183
538.8	7178
539.0	7182
539.2	7180
539.4	7180
539.6	7170
539.8	7177
540.0	7175
540.2	7180
540.4	7177
540.6	7171
540.8	7170
541.0	7162
541.2	7154
541.4	7143
541.6	7128
541.8	7135
542.0	7148
542.2	7147
542.4	7146
542.6	7132
542.8	7115
543.0	7108
543.2	7101
543.4	7102
543.6	7097
543.8	7092
544.0	7078
544.2	7067
544.4	7053
544.6	7044
544.8	7027
545.0	7022
545.2	7011
545.4	7002
545.6	6994
545.8	6991
546.0	6990
546.2	6993
546.4	6976
546.6	6962
546.8	6946
547.0	6927
547.2	6921
547.4	6913
547.6	6894
547.8	6903
548.0	6904
548.2	6889
548.4	6884
548.6	6871
548.8	6854
549.0	6845
549.2	6830
549.4	6813
549.6	6800
549.8	6797
550.0	6789
550.2	6765
550.4	6751
550.6	6732
550.8	6718
551.0	6715
551.2	6703
551.4	6696
551.6	6694
551.8	6677
552.0	6663
552.2	6647
552.4	6630
552.6	6621
552.8	6610
553.0	6588
553.2	6570
553.4	6544
553.6	6525
553.8	6512
554.0	6494
554.2	6488
554.4	6480
554.6	6469
554.8	6449
555.0	6438
555.2	6415
555.4	6404
555.6	6391
555.8	6381
556.0	6361
556.2	6356
556.4	6342
556.6	6318
556.8	6302
557.0	6287
557.2	6272
557.4	6259
557.6	6236
557.8	6203
558.0	6185
558.2	6173
558.4	6165
558.6	6153
558.8	6134
559.0	6119
559.2	6107
559.4	6087
559.6	6064
559.8	6035
560.0	6014
560.2	6009
560.4	5999
560.6	5987
560.8	5976
561.0	5957
561.2	5947
561.4	5927
561.6	5903
561.8	5869
562.0	5841
562.2	5814
562.4	5806
562.6	5792
562.8	5787
563.0	5760
563.2	5741
563.4	5722
563.6	5708
563.8	5692
564.0	5678
564.2	5653
564.4	5634
564.6	5621
564.8	5602
565.0	5582
565.2	5557
565.4	5530
565.6	5499
565.8	5478
566.0	5469
566.2	5458
566.4	5452
566.6	5438
566.8	5411
567.0	5387
567.2	5362
567.4	5342
567.6	5327
567.8	5310
568.0	5296
568.2	5282
568.4	5267
568.6	5245
568.8	5225
569.0	5202
569.2	5178
569.4	5159
569.6	5156
569.8	5135
570.0	5127
570.2	5107
570.4	5071
570.6	5041
570.8	5032
571.0	5010
571.2	4995
571.4	4981
571.6	4961
571.8	4941
572.0	4930
572.2	4908
572.4	4881
572.6	4867
572.8	4856
573.0	4838
573.2	4819
573.4	4804
573.6	4777
573.8	4756
574.0	4735
574.2	4716
574.4	4701
574.6	4687
574.8	4665
575.0	4649
575.2	4635
575.4	4625
575.6	4613
575.8	4591
576.0	4563
576.2	4543
576.4	4530
576.6	4518
576.8	4501
577.0	4478
577.2	4459
577.4	4436
577.6	4423
577.8	4410
578.0	4395
578.2	4378
578.4	4364
578.6	4342
578.8	4321
579.0	4300
579.2	4281
579.4	4261
579.6	4247
579.8	4236
580.0	4229
580.2	4215
580.4	4189
580.6	4160
580.8	4139
581.0	4122
581.2	4110
581.4	4087
581.6	4067
581.8	4043
582.0	4033
582.2	4017
582.4	4002
582.6	3993
582.8	3994
583.0	3986
583.2	3978
583.4	3953
583.6	3925
583.8	3900
584.0	3881
584.2	3861
584.4	3848
584.6	3838
584.8	3823
585.0	3810
585.2	3794
585.4	3769
585.6	3755
585.8	3740
586.0	3729
586.2	3717
586.4	3696
586.6	3671
586.8	3653
587.0	3639
587.2	3636
587.4	3623
587.6	3613
587.8	3601
588.0	3591
588.2	3578
588.4	3561
588.6	3539
588.8	3530
589.0	3515
589.2	3500
589.4	3482
589.6	3467
589.8	3455
590.0	3446
590.2	3428
590.4	3413
590.6	3396
590.8	3385
591.0	3371
591.2	3359
591.4	3345
591.6	3332
591.8	3319
592.0	3304
592.2	3284
592.4	3271
592.6	3256
592.8	3242
593.0	3228
593.2	3210
593.4	3194
593.6	3178
593.8	3163
594.0	3152
594.2	3139
594.4	3120
594.6	3103
594.8	3091
595.0	3083
595.2	3077
595.4	3069
595.6	3050
595.8	3029
596.0	3018
596.2	3007
596.4	2996
596.6	2987
596.8	2971
597.0	2956
597.2	2938
597.4	2920
597.6	2901
597.8	2889
598.0	2872
598.2	2863
598.4	2853
598.6	2847
598.8	2836
599.0	2824
599.2	2804
599.4	2783
599.6	2770
599.8	2757
600.0	2746
600.2	2731
600.4	2716
600.6	2697
600.8	2685
601.0	2677
601.2	2673
601.4	2662
601.6	2651
601.8	2637
602.0	2622
602.2	2610
602.4	2596
602.6	2577
602.8	2558
603.0	2546
603.2	2538
603.4	2526
603.6	2513
603.8	2500
604.0	2488
604.2	2478
604.4	2468
604.6	2450
604.8	2432
605.0	2411
605.2	2397
605.4	2387
605.6	2375
605.8	2365
606.0	2353
606.2	2336
606.4	2325
606.6	2316
606.8	2304
607.0	2293
607.2	2283
607.4	2270
607.6	2264
607.8	2251
608.0	2237
608.2	2219
608.4	2209
608.6	2192
608.8	2183
609.0	2169
609.2	2157
609.4	2145
609.6	2136
609.8	2124
610.0	2111
610.2	2099
610.4	2086
610.6	2069
610.8	2058
611.0	2046
611.2	2028
611.4	2018
611.6	2008
611.8	1995
612.0	1992
612.2	1982
612.4	1970
612.6	1959
612.8	1953
613.0	1936
613.2	1929
613.4	1919
613.6	1910
613.8	1904
614.0	1897
614.2	1881
614.4	1868
614.6	1850
614.8	1836
615.0	1823
615.2	1812
615.4	1803
615.6	1791
615.8	1776
616.0	1765
616.2	1754
616.4	1747
616.6	1736
616.8	1727
617.0	1713
617.2	1698
617.4	1688
617.6	1679
617.8	1671
618.0	1665
618.2	1654
618.4	1641
618.6	1625
618.8	1613
619.0	1604
619.2	1600
619.4	1593
619.6	1582
619.8	1569
620.0	1561
620.2	1552
620.4	1549
620.6	1536
620.8	1524
621.0	1516
621.2	1506
621.4	1496
621.6	1488
621.8	1473
622.0	1464
622.2	1454
622.4	1442
622.6	1433
622.8	1425
623.0	1417
623.2	1409
623.4	1399
623.6	1388
623.8	1382
624.0	1378
624.2	1373
624.4	1362
624.6	1349
624.8	1338
625.0	1327
625.2	1319
625.4	1310
625.6	1304
625.8	1297
626.0	1288
626.2	1274
626.4	1266
626.6	1257
626.8	1257
627.0	1251
627.2	1241
627.4	1227
627.6	1215
627.8	1203
628.0	1197
628.2	1192
628.4	1190
628.6	1182
628.8	1173
629.0	1165
629.2	1159
629.4	1153
629.6	1147
629.8	1141
630.0	1132
630.2	1125
630.4	1119
630.6	1108
630.8	1094
631.0	1085
631.2	1077
631.4	1073
631.6	1071
631.8	1063
632.0	1054
632.2	1046
632.4	1040
632.6	1036
632.8	1030
633.0	1024
633.2	1019
633.4	1013
633.6	1007
633.8	1003
634.0	994.3
634.2	986.8
634.4	978.3
634.6	971.9
634.8	964.6
635.0	959.2
635.2	951.2
635.4	943.5
635.6	937.4
635.8	929.8
636.0	924.0
636.2	919.5
636.4	915.5
636.6	909.4
636.8	903.9
637.0	895.6
637.2	892.0
637.4	889.5
637.6	883.5
637.8	876.2
638.0	868.1
638.2	861.4
638.4	856.4
638.6	854.1
638.8	848.5
639.0	843.5
639.2	838.7
639.4	832.4
639.6	825.2
639.8	820.3
640.0	813.8
640.2	811.6
640.4	811.3
640.6	807.8
640.8	799.5
641.0	789.6
641.2	778.2
641.4	774.6
641.6	772.2
641.8	767.9
642.0	764.0
642.2	758.3
642.4	751.7
642.6	747.9
642.8	741.8
643.0	735.6
643.2	731.5
643.4	729.3
643.6	724.1
643.8	716.9
644.0	710.1
644.2	705.2
644.4	702.2
644.6	700.6
644.8	699.3
645.0	695.3
645.2	690.3
645.4	683.0
645.6	677.7
645.8	670.4
646.0	667.0
646.2	665.4
646.4	662.3
646.6	656.9
646.8	652.0
647.0	645.4
647.2	640.4
647.4	637.7
647.6	634.8
647.8	629.9
648.0	625.5
648.2	621.1
648.4	616.7
648.6	610.0
648.8	605.3
649.0	598.7
649.2	591.8
649.4	588.1
649.6	582.8
649.8	579.3
650.0	578.3
650.2	574.6
650.4	571.5
650.6	569.5
650.8	564.1
651.0	563.0
651.2	558.3
651.4	551.2
651.6	550.1
651.8	546.8
652.0	542.3
652.2	538.9
652.4	534.5
652.6	528.3
652.8	527.4
653.0	524.8
653.2	520.9
653.4	515.0
653.6	512.2
653.8	507.4
654.0	504.9
654.2	501.0
654.4	497.3
654.6	493.1
654.8	490.9
655.0	488.3
655.2	484.8
655.4	477.7
655.6	474.6
655.8	470.6
656.0	469.9
656.2	470.4
656.4	469.3
656.6	464.7
656.8	458.4
657.0	454.2
657.2	450.5
657.4	449.0
657.6	446.5
657.8	444.2
658.0	439.1
658.2	436.6
658.4	430.3
658.6	427.1
658.8	423.3
659.0	419.7
659.2	416.2
659.4	414.3
659.6	411.1
659.8	407.3
660.0	405.3
660.2	402.6
660.4	398.6
660.6	396.8
660.8	393.8
661.0	391.0
661.2	389.6
661.4	388.4
661.6	385.3
661.8	382.3
662.0	377.4
662.2	374.6
662.4	371.7
662.6	370.5
662.8	368.1
663.0	364.6
663.2	360.1
663.4	356.4
663.6	355.4
663.8	356.3
664.0	352.6
664.2	348.3
664.4	343.7
664.6	339.7
664.8	336.7
665.0	335.3
665.2	332.0
665.4	328.5
665.6	326.4
665.8	326.8
666.0	323.2
666.2	320.0
666.4	317.9
666.6	315.7
666.8	314.5
667.0	315.1
667.2	312.8
667.4	308.7
667.6	303.8
667.8	299.9
668.0	296.4
668.2	295.5
668.4	293.7
668.6	292.5
668.8	290.0
669.0	287.6
669.2	286.7
669.4	283.9
669.6	281.1
669.8	279.4
670.0	277.9
670.2	276.9
670.4	276.7
670.6	274.2
670.8	273.0
671.0	269.3
671.2	267.0
671.4	264.9
671.6	261.5
671.8	259.7
672.0	257.8
672.2	255.1
672.4	252.4
672.6	251.3
672.8	249.5
673.0	249.1
673.2	247.7
673.4	246.9
673.6	244.9
673.8	243.3
674.0	240.4
674.2	237.2
674.4	233.1
674.6	231.4
674.8	230.3
675.0	229.4
675.2	228.8
675.4	227.5
675.6	224.7
675.8	222.3
676.0	218.2
676.2	217.3
676.4	216.8
676.6	216.1
676.8	214.5
677.0	212.1
677.2	209.2
677.4	208.3
677.6	208.0
677.8	206.7
678.0	206.3
678.2	205.2
678.4	204.3
678.6	202.0
678.8	199.9
679.0	196.5
679.2	194.7
679.4	193.3
679.6	191.5
679.8	190.5
680.0	189.3
680.2	188.1
680.4	187.3
680.6	184.8
680.8	182.6
681.0	183.8
681.2	183.5
681.4	182.5
681.6	181.0
681.8	177.4
682.0	174.9
682.2	174.0
682.4	172.5
682.6	169.4
682.8	167.1
683.0	164.5
683.2	162.3
683.4	161.1
683.6	162.2
683.8	160.7
684.0	161.0
684.2	160.2
684.4	159.0
684.6	157.6
684.8	158.4
685.0	157.1
685.2	156.2
685.4	155.4
685.6	153.5
685.8	151.6
686.0	150.6
686.2	148.3
686.4	147.4
686.6	146.7
686.8	145.5
687.0	145.7
687.2	142.4
687.4	139.3
687.6	138.0
687.8	136.9
688.0	137.3
688.2	138.6
688.4	136.5
688.6	136.4
688.8	134.8
689.0	133.1
689.2	132.0
689.4	130.2
689.6	128.8
689.8	128.5
690.0	127.4
690.2	127.3
690.4	127.5
690.6	126.3
690.8	124.9
691.0	123.9
691.2	122.9
691.4	122.3
691.6	121.2
691.8	119.6
692.0	119.4
692.2	117.9
692.4	117.4
692.6	117.4
692.8	116.4
693.0	114.3
693.2	113.7
693.4	111.3
693.6	110.1
693.8	110.5
694.0	110.7
694.2	109.1
694.4	108.7
