Sample:	'20211010A(EM)
File name:	R-CDs-520.FDS
Run date:	'16:35:04, 05/19/2023
Operator:	Administrator
Comment:	'

Instrument
Model:	F-4700 FL Spectrophotometer
Serial number:	2019-001
ROM Version:	5J24010 00

Instrument parameters
Measurement type:	Wavelength scan
Scan mode:	Emission
Data mode:	Fluorescence
EX WL:	520.0 nm
EM  Start WL:	540.0 nm
EM  End WL:	900.0 nm
Scan speed:	1200 nm/min
Delay:	0.0 s
EX Slit:	5.0 nm
EM Slit:	10.0 nm
PMT Voltage:	600 V
Response:	0.002 s
Corrected spectra:	Off
Shutter control:	On

Processing performed
Savitsky-Golay smoothed
Smoothing order:	3
Number of points:	7
Number of times:	1

Peak integration
Integration method:	Rectangular
Sensitivity:	1
Threshold:	1.000

Peaks
No.	Start(nm)	Apex(nm)	End(nm)	Height(Data)	Valley(nm)	Valley(Data)
1	540.0	593.0	777.8	9641	777.8	46.72
2	777.8	778.2	779.4	48.41	779.4	43.00
3	779.4	780.4	787.8	44.78	787.8	33.89
4	787.8	789.2	793.2	34.96	793.2	28.39
5	793.2	795.0	800.0	30.57	800.0	25.12
6	800.0	801.4	803.2	26.68	803.2	23.59
7	803.2	804.2	806.0	25.08	806.0	21.74
8	806.0	807.4	808.4	22.82	808.4	20.11
9	808.4	809.2	823.6	21.84	823.6	12.37
10	823.6	824.0	831.6	13.69	831.6	9.085
11	831.6	832.4	858.8	10.44	858.8	2.743
12	858.8	859.4	871.2	4.105	871.2	2.676
13	871.2	878.4	880.2	3.783	880.2	2.387
14	880.2	891.2	897.0	3.723	897.0	2.642

Data points
nm	Data
540.0	2152
540.2	2167
540.4	2175
540.6	2179
540.8	2179
541.0	2188
541.2	2201
541.4	2212
541.6	2217
541.8	2218
542.0	2217
542.2	2219
542.4	2232
542.6	2243
542.8	2248
543.0	2259
543.2	2274
543.4	2291
543.6	2300
543.8	2300
544.0	2303
544.2	2310
544.4	2322
544.6	2338
544.8	2349
545.0	2359
545.2	2372
545.4	2385
545.6	2399
545.8	2395
546.0	2399
546.2	2406
546.4	2415
546.6	2430
546.8	2439
547.0	2440
547.2	2451
547.4	2467
547.6	2481
547.8	2490
548.0	2498
548.2	2504
548.4	2512
548.6	2526
548.8	2539
549.0	2557
549.2	2577
549.4	2586
549.6	2599
549.8	2609
550.0	2609
550.2	2627
550.4	2627
550.6	2633
550.8	2658
551.0	2679
551.2	2698
551.4	2728
551.6	2733
551.8	2732
552.0	2743
552.2	2743
552.4	2762
552.6	2780
552.8	2803
553.0	2825
553.2	2853
553.4	2870
553.6	2886
553.8	2905
554.0	2926
554.2	2938
554.4	2950
554.6	2967
554.8	2972
555.0	3005
555.2	3024
555.4	3040
555.6	3064
555.8	3092
556.0	3116
556.2	3146
556.4	3164
556.6	3193
556.8	3226
557.0	3249
557.2	3271
557.4	3294
557.6	3317
557.8	3345
558.0	3368
558.2	3386
558.4	3412
558.6	3452
558.8	3493
559.0	3528
559.2	3553
559.4	3578
559.6	3601
559.8	3630
560.0	3662
560.2	3693
560.4	3728
560.6	3762
560.8	3799
561.0	3837
561.2	3878
561.4	3910
561.6	3943
561.8	3977
562.0	4007
562.2	4046
562.4	4079
562.6	4128
562.8	4173
563.0	4215
563.2	4251
563.4	4290
563.6	4316
563.8	4360
564.0	4398
564.2	4442
564.4	4486
564.6	4537
564.8	4573
565.0	4610
565.2	4651
565.4	4703
565.6	4747
565.8	4799
566.0	4845
566.2	4892
566.4	4938
566.6	4994
566.8	5045
567.0	5093
567.2	5145
567.4	5191
567.6	5227
567.8	5272
568.0	5321
568.2	5375
568.4	5425
568.6	5461
568.8	5491
569.0	5548
569.2	5594
569.4	5661
569.6	5715
569.8	5762
570.0	5804
570.2	5878
570.4	5918
570.6	5970
570.8	6012
571.0	6067
571.2	6118
571.4	6187
571.6	6237
571.8	6296
572.0	6350
572.2	6404
572.4	6443
572.6	6481
572.8	6517
573.0	6563
573.2	6611
573.4	6664
573.6	6709
573.8	6758
574.0	6809
574.2	6853
574.4	6902
574.6	6964
574.8	7024
575.0	7078
575.2	7141
575.4	7181
575.6	7216
575.8	7250
576.0	7300
576.2	7347
576.4	7421
576.6	7462
576.8	7502
577.0	7550
577.2	7594
577.4	7631
577.6	7676
577.8	7710
578.0	7756
578.2	7832
578.4	7874
578.6	7907
578.8	7948
579.0	7980
579.2	8021
579.4	8081
579.6	8122
579.8	8174
580.0	8231
580.2	8270
580.4	8311
580.6	8349
580.8	8381
581.0	8410
581.2	8443
581.4	8482
581.6	8516
581.8	8545
582.0	8578
582.2	8619
582.4	8671
582.6	8727
582.8	8770
583.0	8785
583.2	8790
583.4	8828
583.6	8852
583.8	8882
584.0	8915
584.2	8930
584.4	8969
584.6	9015
584.8	9052
585.0	9079
585.2	9093
585.4	9112
585.6	9143
585.8	9168
586.0	9193
586.2	9212
586.4	9230
586.6	9258
586.8	9275
587.0	9303
587.2	9320
587.4	9345
587.6	9373
587.8	9389
588.0	9386
588.2	9389
588.4	9405
588.6	9425
588.8	9440
589.0	9457
589.2	9459
589.4	9469
589.6	9490
589.8	9516
590.0	9535
590.2	9545
590.4	9554
590.6	9553
590.8	9557
591.0	9582
591.2	9597
591.4	9598
591.6	9598
591.8	9595
592.0	9585
592.2	9576
592.4	9604
592.6	9614
592.8	9625
593.0	9641
593.2	9635
593.4	9605
593.6	9616
593.8	9605
594.0	9596
594.2	9611
594.4	9615
594.6	9604
594.8	9584
595.0	9570
595.2	9552
595.4	9568
595.6	9586
595.8	9590
596.0	9563
596.2	9536
596.4	9520
596.6	9515
596.8	9526
597.0	9520
597.2	9512
597.4	9503
597.6	9491
597.8	9472
598.0	9469
598.2	9465
598.4	9453
598.6	9438
598.8	9407
599.0	9394
599.2	9384
599.4	9387
599.6	9372
599.8	9353
600.0	9334
600.2	9314
600.4	9296
600.6	9287
600.8	9276
601.0	9256
601.2	9238
601.4	9217
601.6	9198
601.8	9191
602.0	9211
602.2	9197
602.4	9193
602.6	9178
602.8	9135
603.0	9103
603.2	9063
603.4	9027
603.6	9022
603.8	9024
604.0	9018
604.2	9005
604.4	8969
604.6	8955
604.8	8926
605.0	8903
605.2	8876
605.4	8848
605.6	8845
605.8	8838
606.0	8824
606.2	8814
606.4	8792
606.6	8749
606.8	8728
607.0	8695
607.2	8663
607.4	8641
607.6	8633
607.8	8604
608.0	8590
608.2	8566
608.4	8534
608.6	8503
608.8	8487
609.0	8449
609.2	8418
609.4	8396
609.6	8387
609.8	8374
610.0	8363
610.2	8340
610.4	8317
610.6	8307
610.8	8301
611.0	8289
611.2	8263
611.4	8224
611.6	8188
611.8	8182
612.0	8169
612.2	8160
612.4	8141
612.6	8100
612.8	8071
613.0	8052
613.2	8023
613.4	8006
613.6	7997
613.8	7987
614.0	7976
614.2	7957
614.4	7925
614.6	7897
614.8	7870
615.0	7851
615.2	7848
615.4	7842
615.6	7817
615.8	7792
616.0	7759
616.2	7738
616.4	7730
616.6	7706
616.8	7676
617.0	7646
617.2	7623
617.4	7616
617.6	7611
617.8	7597
618.0	7587
618.2	7564
618.4	7544
618.6	7517
618.8	7506
619.0	7488
619.2	7483
619.4	7478
619.6	7470
619.8	7441
620.0	7416
620.2	7400
620.4	7375
620.6	7359
620.8	7342
621.0	7315
621.2	7291
621.4	7274
621.6	7249
621.8	7235
622.0	7233
622.2	7221
622.4	7209
622.6	7192
622.8	7177
623.0	7159
623.2	7142
623.4	7116
623.6	7094
623.8	7089
624.0	7087
624.2	7092
624.4	7071
624.6	7050
624.8	7023
625.0	7003
625.2	7005
625.4	7009
625.6	6983
625.8	6956
626.0	6933
626.2	6915
626.4	6916
626.6	6905
626.8	6881
627.0	6861
627.2	6855
627.4	6848
627.6	6836
627.8	6830
628.0	6813
628.2	6806
628.4	6798
628.6	6782
628.8	6756
629.0	6735
629.2	6708
629.4	6695
629.6	6687
629.8	6686
630.0	6679
630.2	6671
630.4	6651
630.6	6630
630.8	6622
631.0	6610
631.2	6603
631.4	6594
631.6	6583
631.8	6569
632.0	6549
632.2	6520
632.4	6492
632.6	6470
632.8	6463
633.0	6452
633.2	6431
633.4	6412
633.6	6391
633.8	6384
634.0	6375
634.2	6363
634.4	6340
634.6	6317
634.8	6309
635.0	6308
635.2	6301
635.4	6284
635.6	6258
635.8	6246
636.0	6236
636.2	6242
636.4	6236
636.6	6212
636.8	6189
637.0	6162
637.2	6131
637.4	6122
637.6	6112
637.8	6101
638.0	6093
638.2	6068
638.4	6054
638.6	6043
638.8	6029
639.0	5996
639.2	5978
639.4	5953
639.6	5938
639.8	5927
640.0	5905
640.2	5881
640.4	5876
640.6	5863
640.8	5854
641.0	5835
641.2	5812
641.4	5801
641.6	5775
641.8	5761
642.0	5745
642.2	5725
642.4	5711
642.6	5688
642.8	5656
643.0	5634
643.2	5612
643.4	5600
643.6	5587
643.8	5571
644.0	5546
644.2	5517
644.4	5487
644.6	5476
644.8	5464
645.0	5459
645.2	5438
645.4	5423
645.6	5406
645.8	5393
646.0	5371
646.2	5344
646.4	5314
646.6	5285
646.8	5264
647.0	5253
647.2	5239
647.4	5228
647.6	5211
647.8	5180
648.0	5158
648.2	5135
648.4	5113
648.6	5093
648.8	5074
649.0	5042
649.2	5014
649.4	4981
649.6	4973
649.8	4951
650.0	4937
650.2	4921
650.4	4899
650.6	4887
650.8	4878
651.0	4850
651.2	4822
651.4	4796
651.6	4770
651.8	4751
652.0	4720
652.2	4684
652.4	4670
652.6	4649
652.8	4625
653.0	4600
653.2	4571
653.4	4533
653.6	4524
653.8	4510
654.0	4497
654.2	4473
654.4	4445
654.6	4414
654.8	4388
655.0	4379
655.2	4374
655.4	4348
655.6	4318
655.8	4294
656.0	4262
656.2	4244
656.4	4229
656.6	4198
656.8	4171
657.0	4147
657.2	4117
657.4	4093
657.6	4079
657.8	4054
658.0	4038
658.2	4015
658.4	4001
658.6	3978
658.8	3960
659.0	3928
659.2	3899
659.4	3874
659.6	3846
659.8	3820
660.0	3806
660.2	3787
660.4	3769
660.6	3755
660.8	3715
661.0	3683
661.2	3658
661.4	3640
661.6	3618
661.8	3604
662.0	3585
662.2	3548
662.4	3531
662.6	3518
662.8	3503
663.0	3483
663.2	3463
663.4	3425
663.6	3403
663.8	3378
664.0	3363
664.2	3348
664.4	3323
664.6	3302
664.8	3283
665.0	3258
665.2	3239
665.4	3226
665.6	3200
665.8	3187
666.0	3167
666.2	3142
666.4	3110
666.6	3094
666.8	3078
667.0	3071
667.2	3048
667.4	3021
667.6	2989
667.8	2975
668.0	2960
668.2	2948
668.4	2929
668.6	2903
668.8	2878
669.0	2848
669.2	2819
669.4	2798
669.6	2786
669.8	2771
670.0	2754
670.2	2732
670.4	2716
670.6	2695
670.8	2686
671.0	2679
671.2	2661
671.4	2640
671.6	2610
671.8	2580
672.0	2567
672.2	2557
672.4	2538
672.6	2514
672.8	2480
673.0	2459
673.2	2443
673.4	2430
673.6	2411
673.8	2397
674.0	2384
674.2	2376
674.4	2375
674.6	2370
674.8	2352
675.0	2323
675.2	2296
675.4	2278
675.6	2259
675.8	2243
676.0	2231
676.2	2214
676.4	2201
676.6	2196
676.8	2174
677.0	2156
677.2	2133
677.4	2114
677.6	2102
677.8	2090
678.0	2078
678.2	2061
678.4	2041
678.6	2025
678.8	2012
679.0	1997
679.2	1989
679.4	1974
679.6	1961
679.8	1952
680.0	1941
680.2	1919
680.4	1903
680.6	1884
680.8	1869
681.0	1864
681.2	1855
681.4	1836
681.6	1820
681.8	1795
682.0	1785
682.2	1772
682.4	1757
682.6	1741
682.8	1726
683.0	1704
683.2	1703
683.4	1692
683.6	1681
683.8	1665
684.0	1647
684.2	1636
684.4	1631
684.6	1623
684.8	1612
685.0	1597
685.2	1582
685.4	1576
685.6	1572
685.8	1566
686.0	1553
686.2	1537
686.4	1522
686.6	1504
686.8	1490
687.0	1478
687.2	1466
687.4	1458
687.6	1454
687.8	1443
688.0	1433
688.2	1423
688.4	1416
688.6	1409
688.8	1399
689.0	1386
689.2	1378
689.4	1365
689.6	1360
689.8	1344
690.0	1330
690.2	1321
690.4	1315
690.6	1310
690.8	1304
691.0	1289
691.2	1280
691.4	1273
691.6	1267
691.8	1258
692.0	1245
692.2	1235
692.4	1226
692.6	1219
692.8	1215
693.0	1209
693.2	1201
693.4	1197
693.6	1190
693.8	1181
694.0	1171
694.2	1158
694.4	1149
694.6	1141
694.8	1131
695.0	1122
695.2	1115
695.4	1105
695.6	1103
695.8	1100
696.0	1088
696.2	1076
696.4	1068
696.6	1061
696.8	1059
697.0	1058
697.2	1052
697.4	1042
697.6	1030
697.8	1024
698.0	1017
698.2	1011
698.4	1008
698.6	1005
698.8	995.3
699.0	993.5
699.2	985.9
699.4	980.5
699.6	976.4
699.8	970.2
700.0	960.9
700.2	957.9
700.4	952.0
700.6	946.7
700.8	946.0
701.0	941.1
701.2	934.4
701.4	929.5
701.6	923.7
701.8	916.8
702.0	915.4
702.2	912.2
702.4	903.3
702.6	898.3
702.8	893.3
703.0	884.6
703.2	878.3
703.4	871.9
703.6	861.8
703.8	861.5
704.0	857.8
704.2	854.9
704.4	850.6
704.6	840.6
704.8	831.0
705.0	825.5
705.2	819.1
705.4	820.7
705.6	817.8
705.8	812.9
706.0	806.2
706.2	796.9
706.4	787.1
706.6	784.3
706.8	780.5
707.0	776.3
707.2	770.5
707.4	763.4
707.6	754.7
707.8	748.9
708.0	747.3
708.2	747.1
708.4	742.2
708.6	734.5
708.8	728.2
709.0	719.8
709.2	718.5
709.4	712.4
709.6	703.7
709.8	693.8
710.0	693.2
710.2	690.3
710.4	694.6
710.6	688.4
710.8	688.1
711.0	684.8
711.2	682.8
711.4	675.0
711.6	669.7
711.8	659.9
712.0	654.6
712.2	648.0
712.4	642.4
712.6	639.2
712.8	636.7
713.0	634.8
713.2	630.2
713.4	624.0
713.6	619.6
713.8	617.8
714.0	615.6
714.2	615.4
714.4	611.7
714.6	605.5
714.8	599.8
715.0	590.2
715.2	584.2
715.4	581.7
715.6	578.5
715.8	574.5
716.0	568.3
716.2	563.8
716.4	559.2
716.6	554.4
716.8	554.1
717.0	550.6
717.2	542.4
717.4	538.1
717.6	531.0
717.8	528.0
718.0	525.2
718.2	524.2
718.4	520.4
718.6	516.3
718.8	512.2
719.0	509.7
719.2	501.4
719.4	498.5
719.6	494.5
719.8	493.3
720.0	491.0
720.2	487.9
720.4	482.3
720.6	478.8
720.8	473.2
721.0	468.9
721.2	461.3
721.4	456.6
721.6	452.4
721.8	451.7
722.0	448.9
722.2	446.4
722.4	444.6
722.6	443.1
722.8	440.5
723.0	438.6
723.2	436.1
723.4	434.2
723.6	431.5
723.8	425.9
724.0	421.8
724.2	415.0
724.4	414.0
724.6	412.6
724.8	408.2
725.0	404.2
725.2	399.4
725.4	393.7
725.6	391.9
725.8	389.4
726.0	387.4
726.2	387.5
726.4	385.0
726.6	384.4
726.8	380.9
727.0	375.8
727.2	372.9
727.4	372.7
727.6	368.4
727.8	361.4
728.0	354.4
728.2	349.2
728.4	345.6
728.6	346.7
728.8	348.1
729.0	346.2
729.2	343.9
729.4	342.3
729.6	335.5
729.8	330.6
730.0	328.2
730.2	325.8
730.4	324.4
730.6	323.6
730.8	320.7
731.0	316.3
731.2	311.3
731.4	306.7
731.6	303.6
731.8	302.5
732.0	300.4
732.2	298.7
732.4	297.5
732.6	294.6
732.8	291.4
733.0	291.9
733.2	289.2
733.4	287.8
733.6	286.0
733.8	283.4
734.0	278.9
734.2	277.7
734.4	274.6
734.6	273.1
734.8	268.1
735.0	265.1
735.2	262.9
735.4	259.9
735.6	258.1
735.8	259.4
736.0	256.5
736.2	254.9
736.4	255.0
736.6	250.6
736.8	248.2
737.0	245.1
737.2	241.7
737.4	240.7
737.6	239.6
737.8	235.5
738.0	234.9
738.2	232.3
738.4	228.7
738.6	229.7
738.8	228.7
739.0	227.9
739.2	227.0
739.4	223.5
739.6	217.3
739.8	213.6
740.0	210.7
740.2	211.2
740.4	209.8
740.6	208.9
740.8	207.3
741.0	204.5
741.2	202.3
741.4	199.0
741.6	196.2
741.8	195.0
742.0	197.3
742.2	197.6
742.4	196.8
742.6	194.7
742.8	191.4
743.0	188.2
743.2	187.3
743.4	186.8
743.6	186.3
743.8	186.4
744.0	183.9
744.2	182.0
744.4	180.4
744.6	181.3
744.8	180.1
745.0	176.2
745.2	172.1
745.4	169.4
745.6	169.6
745.8	171.0
746.0	171.8
746.2	169.4
746.4	167.4
746.6	163.6
746.8	163.3
747.0	163.1
747.2	162.7
747.4	161.8
747.6	158.6
747.8	153.6
748.0	151.3
748.2	149.9
748.4	148.3
748.6	150.8
748.8	151.7
749.0	152.4
749.2	151.0
749.4	149.7
749.6	146.1
749.8	144.3
750.0	141.9
750.2	140.5
750.4	139.4
750.6	139.5
750.8	138.2
751.0	136.3
751.2	134.3
751.4	133.4
751.6	133.8
751.8	134.8
752.0	134.6
752.2	133.1
752.4	132.8
752.6	132.5
752.8	130.6
753.0	129.9
753.2	127.5
753.4	124.3
753.6	121.5
753.8	119.4
754.0	118.7
754.2	121.0
754.4	121.3
754.6	120.9
754.8	118.6
755.0	116.4
755.2	116.4
755.4	116.3
755.6	115.1
755.8	114.7
756.0	113.8
756.2	113.6
756.4	112.6
756.6	109.8
756.8	108.1
757.0	107.4
757.2	107.0
757.4	107.7
757.6	105.8
757.8	103.5
758.0	101.9
758.2	99.36
758.4	99.13
758.6	98.58
758.8	98.47
759.0	98.06
759.2	98.47
759.4	97.77
759.6	98.16
759.8	98.47
760.0	97.75
760.2	96.86
760.4	96.10
760.6	95.14
760.8	94.11
761.0	92.95
761.2	90.67
761.4	90.20
761.6	88.69
761.8	88.32
762.0	87.43
762.2	85.24
762.4	84.99
762.6	85.91
762.8	86.14
763.0	86.79
763.2	85.12
763.4	84.37
763.6	83.16
763.8	82.75
764.0	82.05
764.2	80.84
764.4	79.50
764.6	80.15
764.8	79.84
765.0	78.98
765.2	77.75
765.4	76.85
765.6	76.27
765.8	74.98
766.0	73.91
766.2	72.07
766.4	71.10
766.6	70.81
766.8	70.88
767.0	69.99
767.2	69.53
767.4	69.47
767.6	69.89
767.8	69.52
768.0	69.00
768.2	67.96
768.4	66.94
768.6	66.71
768.8	65.13
769.0	64.14
769.2	64.12
769.4	63.51
769.6	63.33
769.8	63.28
770.0	62.82
770.2	62.50
770.4	63.13
770.6	61.90
770.8	61.71
771.0	61.01
771.2	61.23
771.4	60.38
771.6	60.04
771.8	58.85
772.0	59.20
772.2	58.80
772.4	58.77
772.6	57.58
772.8	56.24
773.0	55.24
773.2	55.13
773.4	55.62
773.6	56.54
773.8	56.89
774.0	56.57
774.2	55.28
774.4	53.85
774.6	53.63
774.8	53.75
775.0	53.54
775.2	53.55
775.4	52.21
775.6	49.88
775.8	49.01
776.0	48.91
776.2	48.08
776.4	48.92
776.6	48.23
776.8	47.37
777.0	47.47
777.2	47.42
777.4	47.14
777.6	47.28
777.8	46.72
778.0	47.92
778.2	48.41
778.4	48.26
778.6	47.64
778.8	46.18
779.0	44.16
779.2	43.95
779.4	43.00
779.6	43.09
779.8	43.16
780.0	44.07
780.2	44.02
780.4	44.78
780.6	44.33
780.8	43.48
781.0	41.89
781.2	41.56
781.4	41.20
781.6	41.10
781.8	41.25
782.0	39.93
782.2	40.07
782.4	39.86
782.6	39.91
782.8	40.25
783.0	40.51
783.2	39.49
783.4	40.29
783.6	39.38
783.8	38.80
784.0	38.93
784.2	38.80
784.4	37.83
784.6	37.57
784.8	37.00
785.0	36.99
785.2	37.10
785.4	37.54
785.6	37.07
785.8	35.91
786.0	35.53
786.2	36.31
786.4	35.91
786.6	35.94
786.8	36.26
787.0	35.33
787.2	34.86
787.4	35.43
787.6	34.84
787.8	33.89
788.0	34.36
788.2	34.55
788.4	34.46
788.6	34.21
788.8	34.76
789.0	34.64
789.2	34.96
789.4	34.56
789.6	34.59
789.8	34.00
790.0	34.32
790.2	34.00
790.4	33.42
790.6	32.16
790.8	31.52
791.0	31.70
791.2	32.11
791.4	32.13
791.6	31.69
791.8	30.66
792.0	29.58
792.2	30.13
792.4	30.91
792.6	30.87
792.8	30.28
793.0	29.43
793.2	28.39
793.4	28.91
793.6	29.02
793.8	29.45
794.0	29.67
794.2	29.51
794.4	29.01
794.6	29.79
794.8	29.73
795.0	30.57
795.2	30.32
795.4	29.41
795.6	28.81
795.8	28.66
796.0	28.26
796.2	28.73
796.4	28.54
796.6	27.45
796.8	27.82
797.0	28.41
797.2	28.83
797.4	28.99
797.6	27.89
797.8	26.58
798.0	26.67
798.2	27.10
798.4	26.87
798.6	26.58
798.8	25.51
799.0	25.71
799.2	26.57
799.4	26.68
799.6	25.56
799.8	25.39
800.0	25.12
800.2	26.12
800.4	26.52
800.6	26.17
800.8	25.78
801.0	25.67
801.2	26.14
801.4	26.68
801.6	26.13
801.8	25.98
802.0	25.70
802.2	25.58
802.4	25.81
802.6	25.61
802.8	25.54
803.0	24.85
803.2	23.59
803.4	24.03
803.6	24.49
803.8	24.87
804.0	24.98
804.2	25.08
804.4	24.24
804.6	24.12
804.8	23.47
805.0	23.21
805.2	22.56
805.4	22.69
805.6	22.29
805.8	22.24
806.0	21.74
806.2	22.70
806.4	22.50
806.6	22.42
806.8	22.65
807.0	22.70
807.2	22.35
807.4	22.82
807.6	22.11
807.8	22.17
808.0	21.81
808.2	20.94
808.4	20.11
808.6	20.13
808.8	20.57
809.0	21.45
809.2	21.84
809.4	21.38
809.6	20.58
809.8	20.51
810.0	20.20
810.2	20.51
810.4	20.65
810.6	20.39
810.8	20.15
811.0	20.46
811.2	19.43
811.4	19.83
811.6	20.31
811.8	20.20
812.0	20.38
812.2	20.51
812.4	19.15
812.6	18.44
812.8	19.29
813.0	19.52
813.2	20.08
813.4	20.07
813.6	18.86
813.8	17.97
814.0	18.81
814.2	18.96
814.4	19.15
814.6	19.02
814.8	18.31
815.0	18.10
815.2	18.43
815.4	17.87
815.6	17.43
815.8	17.75
816.0	18.00
816.2	18.08
816.4	18.35
816.6	17.77
816.8	17.03
817.0	17.36
817.2	16.99
817.4	16.63
817.6	15.98
817.8	16.06
818.0	16.35
818.2	16.34
818.4	15.90
818.6	15.77
818.8	15.62
819.0	16.26
819.2	16.61
819.4	16.23
819.6	16.18
819.8	15.72
820.0	15.45
820.2	15.66
820.4	16.20
820.6	16.07
820.8	15.52
821.0	14.77
821.2	14.01
821.4	14.25
821.6	14.70
821.8	14.45
822.0	14.03
822.2	14.13
822.4	13.77
822.6	14.20
822.8	14.43
823.0	13.67
823.2	13.04
823.4	12.94
823.6	12.37
823.8	13.09
824.0	13.69
824.2	13.31
824.4	13.16
824.6	13.11
824.8	13.14
825.0	13.30
825.2	13.04
825.4	12.60
825.6	12.90
825.8	12.53
826.0	12.78
826.2	13.13
826.4	13.41
826.6	13.50
826.8	13.50
827.0	12.80
827.2	11.99
827.4	11.69
827.6	11.72
827.8	12.02
828.0	11.86
828.2	12.23
828.4	12.21
828.6	11.94
828.8	11.68
829.0	11.38
829.2	10.77
829.4	10.98
829.6	11.51
829.8	11.70
830.0	11.73
830.2	11.22
830.4	10.37
830.6	10.09
830.8	10.37
831.0	10.33
831.2	10.06
831.4	9.539
831.6	9.085
831.8	9.363
832.0	10.07
832.2	10.42
832.4	10.44
832.6	10.01
832.8	9.569
833.0	9.574
833.2	9.020
833.4	8.861
833.6	9.105
833.8	9.216
834.0	9.565
834.2	9.671
834.4	9.037
834.6	8.920
834.8	8.890
835.0	9.022
835.2	8.799
835.4	8.182
835.6	7.509
835.8	7.506
836.0	7.262
836.2	7.724
836.4	7.445
836.6	7.337
836.8	7.617
837.0	8.196
837.2	8.225
837.4	8.161
837.6	7.611
837.8	7.197
838.0	7.372
838.2	7.363
