Sample:	'20211010A(EM)
File name:	R-CDs-530.FDS
Run date:	'16:53:00, 05/19/2023
Operator:	Administrator
Comment:	'

Instrument
Model:	F-4700 FL Spectrophotometer
Serial number:	2019-001
ROM Version:	5J24010 00

Instrument parameters
Measurement type:	Wavelength scan
Scan mode:	Emission
Data mode:	Fluorescence
EX WL:	530.0 nm
EM  Start WL:	550.0 nm
EM  End WL:	900.0 nm
Scan speed:	1200 nm/min
Delay:	0.0 s
EX Slit:	5.0 nm
EM Slit:	10.0 nm
PMT Voltage:	600 V
Response:	0.002 s
Corrected spectra:	Off
Shutter control:	On

Processing performed
Savitsky-Golay smoothed
Smoothing order:	3
Number of points:	7
Number of times:	1

Peak integration
Integration method:	Rectangular
Sensitivity:	1
Threshold:	1.000

Peaks
No.	Start(nm)	Apex(nm)	End(nm)	Height(Data)	Valley(nm)	Valley(Data)
1	550.0	594.2	596.6	6887	596.6	6830
2	596.6	598.8	783.0	6867	783.0	39.57
3	783.0	783.8	788.8	41.49	788.8	33.11
4	788.8	790.2	792.6	34.65	792.6	31.65
5	792.6	793.8	798.4	33.17	798.4	26.75
6	798.4	799.2	800.8	29.24	800.8	25.15
7	800.8	802.0	803.6	26.75	803.6	23.40
8	803.6	804.2	808.6	25.26	808.6	20.88
9	808.6	809.2	812.4	22.98	812.4	18.86
10	812.4	813.8	900.0	20.55	900.0	1.732

Data points
nm	Data
550.0	1352
550.2	1359
550.4	1368
550.6	1380
550.8	1396
551.0	1412
551.2	1428
551.4	1440
551.6	1447
551.8	1458
552.0	1469
552.2	1482
552.4	1498
552.6	1515
552.8	1525
553.0	1544
553.2	1556
553.4	1562
553.6	1574
553.8	1597
554.0	1612
554.2	1636
554.4	1657
554.6	1668
554.8	1683
555.0	1696
555.2	1707
555.4	1725
555.6	1744
555.8	1765
556.0	1784
556.2	1800
556.4	1818
556.6	1841
556.8	1867
557.0	1893
557.2	1910
557.4	1926
557.6	1937
557.8	1958
558.0	1983
558.2	2015
558.4	2040
558.6	2061
558.8	2080
559.0	2096
559.2	2119
559.4	2147
559.6	2175
559.8	2203
560.0	2236
560.2	2261
560.4	2291
560.6	2318
560.8	2337
561.0	2359
561.2	2380
561.4	2402
561.6	2431
561.8	2466
562.0	2488
562.2	2517
562.4	2544
562.6	2576
562.8	2609
563.0	2644
563.2	2674
563.4	2703
563.6	2739
563.8	2773
564.0	2811
564.2	2849
564.4	2886
564.6	2914
564.8	2951
565.0	2970
565.2	2994
565.4	3022
565.6	3056
565.8	3098
566.0	3148
566.2	3186
566.4	3213
566.6	3230
566.8	3257
567.0	3303
567.2	3352
567.4	3394
567.6	3420
567.8	3439
568.0	3465
568.2	3510
568.4	3555
568.6	3600
568.8	3638
569.0	3669
569.2	3701
569.4	3742
569.6	3776
569.8	3812
570.0	3854
570.2	3892
570.4	3931
570.6	3966
570.8	4011
571.0	4046
571.2	4096
571.4	4141
571.6	4169
571.8	4206
572.0	4241
572.2	4267
572.4	4304
572.6	4350
572.8	4382
573.0	4429
573.2	4458
573.4	4486
573.6	4521
573.8	4566
574.0	4591
574.2	4623
574.4	4664
574.6	4705
574.8	4748
575.0	4795
575.2	4829
575.4	4863
575.6	4897
575.8	4928
576.0	4960
576.2	5002
576.4	5035
576.6	5069
576.8	5111
577.0	5148
577.2	5184
577.4	5215
577.6	5243
577.8	5263
578.0	5302
578.2	5338
578.4	5374
578.6	5405
578.8	5440
579.0	5458
579.2	5491
579.4	5524
579.6	5571
579.8	5615
580.0	5642
580.2	5662
580.4	5690
580.6	5720
580.8	5765
581.0	5794
581.2	5802
581.4	5820
581.6	5851
581.8	5886
582.0	5928
582.2	5952
582.4	5974
582.6	6000
582.8	6035
583.0	6075
583.2	6108
583.4	6132
583.6	6144
583.8	6147
584.0	6162
584.2	6187
584.4	6224
584.6	6259
584.8	6289
585.0	6294
585.2	6316
585.4	6342
585.6	6374
585.8	6399
586.0	6410
586.2	6406
586.4	6446
586.6	6470
586.8	6496
587.0	6500
587.2	6496
587.4	6520
587.6	6547
587.8	6566
588.0	6594
588.2	6601
588.4	6608
588.6	6622
588.8	6625
589.0	6631
589.2	6636
589.4	6650
589.6	6667
589.8	6681
590.0	6699
590.2	6704
590.4	6714
590.6	6734
590.8	6744
591.0	6750
591.2	6761
591.4	6752
591.6	6756
591.8	6778
592.0	6785
592.2	6808
592.4	6838
592.6	6819
592.8	6811
593.0	6815
593.2	6811
593.4	6822
593.6	6839
593.8	6857
594.0	6878
594.2	6887
594.4	6876
594.6	6858
594.8	6846
595.0	6853
595.2	6849
595.4	6846
595.6	6841
595.8	6843
596.0	6844
596.2	6838
596.4	6830
596.6	6830
596.8	6834
597.0	6846
597.2	6845
597.4	6838
597.6	6837
597.8	6835
598.0	6835
598.2	6838
598.4	6849
598.6	6860
598.8	6867
599.0	6866
599.2	6854
599.4	6844
599.6	6841
599.8	6836
600.0	6816
600.2	6795
600.4	6784
600.6	6780
600.8	6780
601.0	6778
601.2	6759
601.4	6754
601.6	6761
601.8	6766
602.0	6762
602.2	6751
602.4	6733
602.6	6734
602.8	6734
603.0	6739
603.2	6733
603.4	6726
603.6	6701
603.8	6691
604.0	6686
604.2	6676
604.4	6675
604.6	6666
604.8	6642
605.0	6633
605.2	6639
605.4	6627
605.6	6618
605.8	6607
606.0	6596
606.2	6586
606.4	6584
606.6	6565
606.8	6539
607.0	6525
607.2	6515
607.4	6497
607.6	6492
607.8	6495
608.0	6497
608.2	6501
608.4	6496
608.6	6478
608.8	6478
609.0	6479
609.2	6473
609.4	6459
609.6	6450
609.8	6435
610.0	6433
610.2	6427
610.4	6416
610.6	6396
610.8	6395
611.0	6383
611.2	6372
611.4	6357
611.6	6343
611.8	6337
612.0	6341
612.2	6332
612.4	6327
612.6	6314
612.8	6297
613.0	6281
613.2	6274
613.4	6276
613.6	6282
613.8	6276
614.0	6258
614.2	6226
614.4	6217
614.6	6208
614.8	6200
615.0	6204
615.2	6206
615.4	6203
615.6	6200
615.8	6183
616.0	6168
616.2	6162
616.4	6149
616.6	6137
616.8	6126
617.0	6127
617.2	6118
617.4	6111
617.6	6099
617.8	6091
618.0	6097
618.2	6094
618.4	6087
618.6	6075
618.8	6067
619.0	6062
619.2	6057
619.4	6047
619.6	6058
619.8	6063
620.0	6064
620.2	6059
620.4	6043
620.6	6032
620.8	6030
621.0	6027
621.2	6012
621.4	6008
621.6	5991
621.8	5983
622.0	5966
622.2	5961
622.4	5954
622.6	5961
622.8	5953
623.0	5945
623.2	5947
623.4	5947
623.6	5941
623.8	5935
624.0	5925
624.2	5906
624.4	5905
624.6	5901
624.8	5901
625.0	5894
625.2	5891
625.4	5882
625.6	5889
625.8	5896
626.0	5895
626.2	5881
626.4	5864
626.6	5848
626.8	5855
627.0	5852
627.2	5849
627.4	5842
627.6	5831
627.8	5828
628.0	5838
628.2	5843
628.4	5830
628.6	5839
628.8	5835
629.0	5835
629.2	5832
629.4	5820
629.6	5799
629.8	5801
630.0	5786
630.2	5777
630.4	5778
630.6	5779
630.8	5783
631.0	5776
631.2	5760
631.4	5740
631.6	5733
631.8	5727
632.0	5724
632.2	5731
632.4	5733
632.6	5727
632.8	5724
633.0	5725
633.2	5723
633.4	5716
633.6	5698
633.8	5674
634.0	5670
634.2	5662
634.4	5668
634.6	5658
634.8	5649
635.0	5627
635.2	5620
635.4	5608
635.6	5604
635.8	5599
636.0	5603
636.2	5596
636.4	5586
636.6	5570
636.8	5552
637.0	5546
637.2	5541
637.4	5543
637.6	5542
637.8	5524
638.0	5513
638.2	5500
638.4	5487
638.6	5486
638.8	5496
639.0	5490
639.2	5485
639.4	5464
639.6	5434
639.8	5402
640.0	5389
640.2	5388
640.4	5391
640.6	5406
640.8	5410
641.0	5404
641.2	5393
641.4	5359
641.6	5328
641.8	5317
642.0	5305
642.2	5313
642.4	5304
642.6	5275
642.8	5257
643.0	5240
643.2	5227
643.4	5223
643.6	5207
643.8	5189
644.0	5183
644.2	5178
644.4	5158
644.6	5146
644.8	5126
645.0	5117
645.2	5110
645.4	5102
645.6	5079
645.8	5069
646.0	5045
646.2	5030
646.4	5013
646.6	5001
646.8	4983
647.0	4969
647.2	4950
647.4	4924
647.6	4906
647.8	4896
648.0	4881
648.2	4870
648.4	4854
648.6	4830
648.8	4808
649.0	4794
649.2	4785
649.4	4779
649.6	4762
649.8	4736
650.0	4716
650.2	4693
650.4	4679
650.6	4661
650.8	4651
651.0	4624
651.2	4616
651.4	4601
651.6	4589
651.8	4570
652.0	4546
652.2	4518
652.4	4498
652.6	4476
652.8	4451
653.0	4433
653.2	4405
653.4	4387
653.6	4368
653.8	4356
654.0	4330
654.2	4315
654.4	4288
654.6	4272
654.8	4259
655.0	4255
655.2	4239
655.4	4223
655.6	4196
655.8	4185
656.0	4169
656.2	4149
656.4	4120
656.6	4098
656.8	4083
657.0	4063
657.2	4036
657.4	4004
657.6	3968
657.8	3943
658.0	3925
658.2	3912
658.4	3904
658.6	3896
658.8	3883
659.0	3857
659.2	3825
659.4	3802
659.6	3780
659.8	3759
660.0	3734
660.2	3711
660.4	3697
660.6	3675
660.8	3663
661.0	3640
661.2	3611
661.4	3589
661.6	3575
661.8	3557
662.0	3545
662.2	3520
662.4	3494
662.6	3469
662.8	3444
663.0	3421
663.2	3405
663.4	3391
663.6	3373
663.8	3360
664.0	3345
664.2	3324
664.4	3312
664.6	3291
664.8	3266
665.0	3251
665.2	3235
665.4	3205
665.6	3185
665.8	3159
666.0	3134
666.2	3121
666.4	3097
666.6	3072
666.8	3055
667.0	3031
667.2	3008
667.4	2995
667.6	2970
667.8	2955
668.0	2938
668.2	2920
668.4	2902
668.6	2879
668.8	2855
669.0	2835
669.2	2821
669.4	2816
669.6	2812
669.8	2795
670.0	2770
670.2	2739
670.4	2719
670.6	2705
670.8	2693
671.0	2668
671.2	2639
671.4	2609
671.6	2587
671.8	2575
672.0	2568
672.2	2554
672.4	2545
672.6	2525
672.8	2499
673.0	2476
673.2	2456
673.4	2445
673.6	2437
673.8	2423
674.0	2399
674.2	2371
674.4	2346
674.6	2327
674.8	2318
675.0	2316
675.2	2303
675.4	2287
675.6	2268
675.8	2249
676.0	2229
676.2	2221
676.4	2208
676.6	2196
676.8	2169
677.0	2154
677.2	2129
677.4	2113
677.6	2099
677.8	2097
678.0	2078
678.2	2081
678.4	2069
678.6	2047
678.8	2026
679.0	2010
679.2	1991
679.4	1987
679.6	1975
679.8	1953
680.0	1941
680.2	1925
680.4	1909
680.6	1891
680.8	1875
681.0	1863
681.2	1860
681.4	1849
681.6	1842
681.8	1828
682.0	1808
682.2	1796
682.4	1783
682.6	1773
682.8	1764
683.0	1753
683.2	1734
683.4	1717
683.6	1704
683.8	1702
684.0	1686
684.2	1670
684.4	1663
684.6	1650
684.8	1641
685.0	1632
685.2	1612
685.4	1591
685.6	1584
685.8	1566
686.0	1557
686.2	1544
686.4	1538
686.6	1530
686.8	1524
687.0	1507
687.2	1491
687.4	1480
687.6	1476
687.8	1468
688.0	1461
688.2	1448
688.4	1434
688.6	1423
688.8	1419
689.0	1409
689.2	1398
689.4	1383
689.6	1369
689.8	1356
690.0	1355
690.2	1351
690.4	1344
690.6	1334
690.8	1323
691.0	1310
691.2	1304
691.4	1295
691.6	1282
691.8	1273
692.0	1272
692.2	1260
692.4	1257
692.6	1247
692.8	1231
693.0	1217
693.2	1212
693.4	1204
693.6	1202
693.8	1200
694.0	1192
694.2	1178
694.4	1168
694.6	1161
694.8	1153
695.0	1149
695.2	1140
695.4	1134
695.6	1129
695.8	1122
696.0	1116
696.2	1105
696.4	1096
696.6	1087
696.8	1080
697.0	1074
697.2	1071
697.4	1062
697.6	1057
697.8	1050
698.0	1046
698.2	1045
698.4	1044
698.6	1035
698.8	1024
699.0	1016
699.2	1008
699.4	999.1
699.6	993.2
699.8	986.8
700.0	985.2
700.2	986.3
700.4	984.0
700.6	976.4
700.8	965.2
701.0	957.8
701.2	953.3
701.4	945.5
701.6	939.9
701.8	935.4
702.0	929.9
702.2	923.1
702.4	918.5
702.6	911.9
702.8	904.8
703.0	900.5
703.2	897.7
703.4	888.9
703.6	881.5
703.8	873.7
704.0	868.5
704.2	863.5
704.4	862.4
704.6	858.1
704.8	854.9
705.0	849.3
705.2	848.1
705.4	839.2
705.6	834.3
705.8	825.7
706.0	821.5
706.2	816.8
706.4	815.9
706.6	806.8
706.8	803.0
707.0	792.2
707.2	785.3
707.4	780.0
707.6	773.8
707.8	765.2
708.0	765.7
708.2	762.0
708.4	758.3
708.6	758.5
708.8	751.9
709.0	744.8
709.2	745.4
709.4	741.8
709.6	736.6
709.8	732.5
710.0	726.1
710.2	719.8
710.4	717.5
710.6	709.0
710.8	703.6
711.0	694.6
711.2	687.6
711.4	684.5
711.6	684.4
711.8	683.4
712.0	685.7
712.2	682.5
712.4	676.5
712.6	667.5
712.8	660.7
713.0	652.9
713.2	642.2
713.4	639.1
713.6	637.4
713.8	636.4
714.0	635.4
714.2	629.0
714.4	620.9
714.6	616.5
714.8	610.6
715.0	610.2
715.2	609.5
715.4	605.6
715.6	601.1
715.8	596.1
716.0	589.2
716.2	588.0
716.4	587.1
716.6	583.6
716.8	576.4
717.0	569.6
717.2	561.9
717.4	555.7
717.6	551.9
717.8	548.2
718.0	547.3
718.2	542.9
718.4	542.1
718.6	540.2
718.8	537.7
719.0	529.3
719.2	521.5
719.4	513.6
719.6	510.5
719.8	509.3
720.0	507.1
720.2	503.4
720.4	497.9
720.6	496.6
720.8	493.8
721.0	492.0
721.2	488.6
721.4	485.8
721.6	481.9
721.8	479.5
722.0	472.9
722.2	468.8
722.4	461.7
722.6	458.5
722.8	454.2
723.0	451.8
723.2	449.1
723.4	443.5
723.6	437.7
723.8	436.1
724.0	432.5
724.2	432.6
724.4	432.0
724.6	425.4
724.8	421.4
725.0	417.3
725.2	414.1
725.4	414.4
725.6	410.4
725.8	406.2
726.0	400.0
726.2	395.0
726.4	390.0
726.6	390.7
726.8	388.5
727.0	386.5
727.2	385.9
727.4	385.7
727.6	381.2
727.8	378.7
728.0	372.9
728.2	366.8
728.4	366.3
728.6	366.3
728.8	362.0
729.0	356.2
729.2	350.8
729.4	347.3
729.6	343.9
729.8	345.9
730.0	342.2
730.2	338.9
730.4	337.1
730.6	333.8
730.8	333.1
731.0	336.9
731.2	334.0
731.4	330.5
731.6	325.1
731.8	318.5
732.0	315.3
732.2	312.8
732.4	312.1
732.6	309.0
732.8	307.9
733.0	306.3
733.2	304.9
733.4	301.2
733.6	296.8
733.8	290.8
734.0	288.9
734.2	283.5
734.4	284.0
734.6	282.4
734.8	277.2
735.0	276.4
735.2	274.4
735.4	271.8
735.6	271.9
735.8	270.3
736.0	266.0
736.2	263.2
736.4	261.0
736.6	260.4
736.8	258.8
737.0	254.9
737.2	253.2
737.4	251.6
737.6	252.8
737.8	250.5
738.0	246.4
738.2	241.0
738.4	238.9
738.6	237.0
738.8	236.3
739.0	234.5
739.2	232.4
739.4	231.5
739.6	230.4
739.8	227.2
740.0	225.6
740.2	223.6
740.4	221.8
740.6	222.4
740.8	218.8
741.0	215.9
741.2	215.5
741.4	211.7
741.6	211.0
741.8	210.8
742.0	207.0
742.2	207.6
742.4	208.3
742.6	205.0
742.8	203.8
743.0	199.1
743.2	195.5
743.4	194.9
743.6	193.1
743.8	190.5
744.0	188.6
744.2	186.4
744.4	186.0
744.6	187.1
744.8	184.2
745.0	182.7
745.2	181.1
745.4	177.0
745.6	176.8
745.8	175.5
746.0	172.6
746.2	172.8
746.4	170.6
746.6	169.5
746.8	169.4
747.0	166.3
747.2	165.3
747.4	164.0
747.6	161.7
747.8	162.6
748.0	160.3
748.2	160.2
748.4	159.9
748.6	156.5
748.8	153.7
749.0	150.5
749.2	148.5
749.4	150.3
749.6	151.5
749.8	152.0
750.0	151.2
750.2	148.3
750.4	146.6
750.6	143.6
750.8	141.0
751.0	140.6
751.2	139.8
751.4	138.5
751.6	138.9
751.8	138.0
752.0	137.2
752.2	137.9
752.4	137.3
752.6	134.6
752.8	133.4
753.0	132.4
753.2	130.9
753.4	131.9
753.6	130.5
753.8	128.3
754.0	126.7
754.2	125.8
754.4	125.0
754.6	126.0
754.8	125.1
755.0	124.3
755.2	122.5
755.4	122.1
755.6	121.0
755.8	119.7
756.0	117.9
756.2	116.5
756.4	114.6
756.6	112.8
756.8	110.9
757.0	110.3
757.2	109.0
757.4	107.8
757.6	107.1
757.8	106.1
758.0	104.7
758.2	104.1
758.4	102.2
758.6	101.9
758.8	103.0
759.0	104.2
759.2	104.4
759.4	103.3
759.6	102.2
759.8	101.9
760.0	100.9
760.2	100.6
760.4	100.6
760.6	99.32
760.8	98.02
761.0	96.68
761.2	93.81
761.4	92.83
761.6	91.70
761.8	91.79
762.0	92.38
762.2	93.16
762.4	92.05
762.6	90.74
762.8	88.58
763.0	87.25
763.2	85.24
763.4	84.54
763.6	84.63
763.8	85.15
764.0	85.46
764.2	84.93
764.4	83.29
764.6	81.84
764.8	81.14
765.0	81.74
765.2	81.10
765.4	80.44
765.6	79.32
765.8	77.16
766.0	75.95
766.2	77.62
766.4	77.87
766.6	77.16
766.8	75.78
767.0	73.77
767.2	73.33
767.4	73.33
767.6	72.99
767.8	71.54
768.0	70.92
768.2	70.08
768.4	72.07
768.6	73.00
768.8	73.54
769.0	72.10
769.2	69.89
769.4	67.86
769.6	66.59
769.8	66.17
770.0	64.96
770.2	63.69
770.4	63.56
770.6	63.98
770.8	64.75
771.0	65.53
771.2	64.68
771.4	63.43
771.6	63.01
771.8	61.88
772.0	61.02
772.2	58.61
772.4	57.87
772.6	57.36
772.8	58.51
773.0	58.87
773.2	58.34
773.4	56.81
773.6	57.02
773.8	56.66
774.0	56.85
774.2	56.89
774.4	56.19
774.6	55.24
774.8	53.67
775.0	52.93
775.2	52.27
775.4	51.77
775.6	51.86
775.8	51.82
776.0	52.11
776.2	52.47
776.4	52.18
776.6	50.96
776.8	50.70
777.0	49.71
777.2	49.79
777.4	49.30
777.6	49.66
777.8	49.71
778.0	50.09
778.2	49.88
778.4	49.13
778.6	48.09
778.8	47.87
779.0	46.92
779.2	46.68
779.4	45.59
779.6	45.63
779.8	45.55
780.0	45.93
780.2	45.96
780.4	45.28
780.6	43.65
780.8	42.95
781.0	42.75
781.2	43.55
781.4	43.95
781.6	44.23
781.8	42.72
782.0	42.21
782.2	41.92
782.4	41.08
782.6	40.32
782.8	40.45
783.0	39.57
783.2	40.76
783.4	40.84
783.6	41.12
783.8	41.49
784.0	40.61
784.2	38.67
784.4	37.97
784.6	37.26
784.8	38.26
785.0	39.19
785.2	38.33
785.4	37.08
785.6	37.84
785.8	37.84
786.0	38.27
786.2	38.33
786.4	37.04
786.6	36.69
786.8	37.00
787.0	37.07
787.2	37.89
787.4	37.47
787.6	35.94
787.8	35.30
788.0	34.23
788.2	33.85
788.4	33.93
788.6	33.38
788.8	33.11
789.0	33.82
789.2	34.10
789.4	34.36
789.6	33.71
789.8	33.95
790.0	33.59
790.2	34.65
790.4	34.53
790.6	33.75
790.8	32.92
791.0	33.23
791.2	32.52
791.4	33.22
791.6	33.23
791.8	32.88
792.0	32.83
792.2	32.83
792.4	31.73
792.6	31.65
792.8	31.97
793.0	32.16
793.2	32.21
793.4	32.82
793.6	32.73
793.8	33.17
794.0	33.13
794.2	32.39
794.4	31.94
794.6	31.79
794.8	30.60
795.0	30.12
795.2	29.31
795.4	29.01
795.6	29.89
795.8	30.67
796.0	30.05
796.2	29.39
796.4	28.62
796.6	28.57
796.8	28.52
797.0	29.48
797.2	28.93
797.4	27.79
797.6	27.56
797.8	27.33
798.0	27.00
798.2	27.32
798.4	26.75
798.6	26.80
798.8	28.55
799.0	28.97
799.2	29.24
799.4	29.10
799.6	27.93
799.8	27.17
800.0	27.29
800.2	26.17
800.4	25.58
800.6	25.22
800.8	25.15
801.0	25.39
801.2	25.54
801.4	25.20
801.6	25.93
801.8	26.17
802.0	26.75
802.2	26.57
802.4	25.95
802.6	25.38
802.8	25.56
803.0	24.82
803.2	23.81
803.4	23.51
803.6	23.40
803.8	23.73
804.0	24.66
804.2	25.26
804.4	24.83
804.6	24.83
804.8	24.83
805.0	24.56
805.2	24.75
805.4	24.63
805.6	24.36
805.8	23.48
806.0	24.07
806.2	24.34
806.4	24.47
806.6	24.44
806.8	23.86
807.0	23.07
807.2	23.28
807.4	22.52
807.6	22.31
807.8	22.24
808.0	21.43
808.2	20.92
808.4	20.96
808.6	20.88
808.8	21.24
809.0	22.44
809.2	22.98
809.4	22.27
809.6	22.22
809.8	21.42
810.0	20.42
810.2	21.02
810.4	20.75
810.6	20.42
810.8	20.50
811.0	20.05
811.2	19.70
811.4	20.31
811.6	19.78
811.8	19.63
812.0	19.55
812.2	19.06
812.4	18.86
812.6	19.46
812.8	18.96
813.0	18.96
813.2	19.44
813.4	19.08
813.6	19.58
813.8	20.55
814.0	20.51
814.2	20.18
814.4	20.16
814.6	19.22
814.8	18.87
815.0	18.72
815.2	18.99
815.4	18.67
815.6	18.84
815.8	18.91
816.0	17.91
816.2	17.33
816.4	17.89
816.6	18.21
816.8	18.29
817.0	18.75
817.2	17.50
817.4	16.55
817.6	15.92
817.8	16.04
818.0	15.90
818.2	16.88
818.4	16.87
818.6	16.78
818.8	16.24
819.0	15.72
819.2	15.54
819.4	15.61
819.6	15.63
819.8	16.06
820.0	16.42
820.2	15.75
820.4	15.45
820.6	14.60
820.8	14.81
821.0	14.82
821.2	15.25
821.4	15.05
821.6	14.92
821.8	14.48
822.0	14.37
822.2	14.18
822.4	14.72
822.6	15.07
822.8	14.69
823.0	14.20
823.2	13.30
823.4	13.24
823.6	13.57
823.8	13.86
824.0	13.30
824.2	13.24
824.4	12.82
824.6	13.05
824.8	13.00
825.0	13.30
825.2	13.05
825.4	12.74
825.6	12.30
825.8	12.39
826.0	12.05
826.2	12.10
826.4	12.47
826.6	12.19
826.8	11.85
827.0	11.69
827.2	11.49
827.4	11.35
827.6	11.96
827.8	11.80
828.0	11.99
828.2	11.62
828.4	11.57
828.6	11.38
828.8	11.72
829.0	11.16
829.2	10.70
829.4	10.08
829.6	10.15
829.8	9.965
830.0	10.13
830.2	9.942
830.4	9.634
830.6	9.695
830.8	9.665
831.0	9.471
831.2	9.525
831.4	9.425
831.6	9.720
831.8	10.01
832.0	9.816
832.2	9.652
832.4	9.869
832.6	9.781
832.8	9.858
833.0	9.793
833.2	9.511
833.4	9.199
833.6	8.867
833.8	8.960
834.0	8.730
834.2	8.521
834.4	8.574
834.6	8.519
834.8	8.403
835.0	8.323
835.2	8.020
835.4	7.850
835.6	8.057
835.8	8.062
836.0	8.114
836.2	7.765
836.4	7.587
836.6	7.547
836.8	7.606
837.0	7.578
837.2	7.380
837.4	7.153
837.6	7.426
837.8	7.538
838.0	7.339
838.2	7.054
838.4	7.117
838.6	6.980
838.8	7.064
839.0	7.190
839.2	6.658
839.4	6.728
839.6	7.215
839.8	6.880
840.0	6.976
840.2	7.225
840.4	6.925
840.6	7.056
840.8	6.925
841.0	6.403
841.2	6.343
841.4	6.154
841.6	6.138
841.8	6.063
842.0	5.841
842.2	5.738
842.4	5.759
842.6	5.657
842.8	6.033
843.0	6.301
843.2	5.849
843.4	5.817
843.6	5.426
843.8	5.165
844.0	5.388
844.2	5.230
844.4	4.904
844.6	5.307
844.8	5.136
845.0	5.273
845.2	5.214
845.4	4.483
845.6	4.420
845.8	4.270
846.0	4.480
846.2	4.840
846.4	4.838
846.6	4.679
846.8	4.805
847.0	4.473
847.2	4.235
847.4	4.155
847.6	3.923
847.8	3.925
848.0	4.265
848.2	4.374
848.4	4.265
848.6	4.163
848.8	4.051
849.0	4.179
849.2	4.454
849.4	4.631
849.6	4.524
849.8	4.065
850.0	4.003
