Sample:	'20211010A(EM)
File name:	R-CDs-550.FDS
Run date:	'16:55:45, 05/19/2023
Operator:	Administrator
Comment:	'

Instrument
Model:	F-4700 FL Spectrophotometer
Serial number:	2019-001
ROM Version:	5J24010 00

Instrument parameters
Measurement type:	Wavelength scan
Scan mode:	Emission
Data mode:	Fluorescence
EX WL:	550.0 nm
EM  Start WL:	570.0 nm
EM  End WL:	900.0 nm
Scan speed:	1200 nm/min
Delay:	0.0 s
EX Slit:	5.0 nm
EM Slit:	10.0 nm
PMT Voltage:	600 V
Response:	0.002 s
Corrected spectra:	Off
Shutter control:	On

Processing performed
Savitsky-Golay smoothed
Smoothing order:	3
Number of points:	7
Number of times:	1

Peak integration
Integration method:	Rectangular
Sensitivity:	1
Threshold:	1.000

Peaks
No.	Start(nm)	Apex(nm)	End(nm)	Height(Data)	Valley(nm)	Valley(Data)
1	570.0	595.2	597.2	7493	597.2	7462
2	597.2	598.0	598.8	7487	598.8	7443
3	598.8	599.6	619.0	7467	619.0	6885
4	619.0	620.8	623.2	6901	623.2	6869
5	623.2	625.0	626.4	6902	626.4	6880
6	626.4	627.0	629.0	6921	629.0	6876
7	629.0	629.8	630.2	6900	630.2	6874
8	630.2	631.8	785.4	6911	785.4	47.84
9	785.4	786.0	790.4	49.71	790.4	42.30
10	790.4	791.2	795.8	44.75	795.8	37.27
11	795.8	796.4	802.4	40.07	802.4	30.75
12	802.4	803.0	808.2	33.59	808.2	28.82
13	808.2	808.6	809.8	30.27	809.8	25.39
14	809.8	811.8	822.0	26.75	822.0	17.41
15	822.0	823.4	825.8	19.30	825.8	15.47
16	825.8	826.6	828.4	17.06	828.4	13.51
17	828.4	829.2	835.0	14.53	835.0	9.731
18	835.0	835.8	867.0	10.76	867.0	2.402
19	867.0	868.2	877.4	3.417	877.4	2.158
20	877.4	886.8	890.6	3.187	890.6	1.735
21	890.6	892.6	900.0	3.201	900.0	2.476

Data points
nm	Data
570.0	3796
570.2	3850
570.4	3908
570.6	3967
570.8	4018
571.0	4067
571.2	4102
571.4	4140
571.6	4192
571.8	4245
572.0	4304
572.2	4352
572.4	4398
572.6	4441
572.8	4484
573.0	4530
573.2	4578
573.4	4622
573.6	4672
573.8	4714
574.0	4759
574.2	4814
574.4	4859
574.6	4910
574.8	4957
575.0	4999
575.2	5041
575.4	5082
575.6	5128
575.8	5175
576.0	5206
576.2	5254
576.4	5298
576.6	5352
576.8	5407
577.0	5450
577.2	5475
577.4	5519
577.6	5553
577.8	5604
578.0	5648
578.2	5690
578.4	5717
578.6	5755
578.8	5788
579.0	5849
579.2	5891
579.4	5937
579.6	5968
579.8	5996
580.0	6031
580.2	6079
580.4	6112
580.6	6152
580.8	6181
581.0	6202
581.2	6239
581.4	6284
581.6	6318
581.8	6350
582.0	6371
582.2	6394
582.4	6422
582.6	6458
582.8	6489
583.0	6529
583.2	6569
583.4	6602
583.6	6631
583.8	6647
584.0	6665
584.2	6706
584.4	6748
584.6	6783
584.8	6818
585.0	6826
585.2	6842
585.4	6863
585.6	6880
585.8	6901
586.0	6934
586.2	6957
586.4	6993
586.6	7019
586.8	7041
587.0	7057
587.2	7087
587.4	7110
587.6	7143
587.8	7144
588.0	7159
588.2	7161
588.4	7156
588.6	7180
588.8	7211
589.0	7235
589.2	7261
589.4	7267
589.6	7267
589.8	7293
590.0	7315
590.2	7340
590.4	7339
590.6	7337
590.8	7350
591.0	7367
591.2	7374
591.4	7375
591.6	7387
591.8	7392
592.0	7403
592.2	7411
592.4	7416
592.6	7416
592.8	7437
593.0	7446
593.2	7451
593.4	7459
593.6	7463
593.8	7453
594.0	7456
594.2	7466
594.4	7464
594.6	7470
594.8	7486
595.0	7486
595.2	7493
595.4	7484
595.6	7473
595.8	7457
596.0	7462
596.2	7464
596.4	7469
596.6	7465
596.8	7480
597.0	7469
597.2	7462
597.4	7464
597.6	7468
597.8	7476
598.0	7487
598.2	7480
598.4	7463
598.6	7454
598.8	7443
599.0	7445
599.2	7451
599.4	7463
599.6	7467
599.8	7465
600.0	7454
600.2	7457
600.4	7458
600.6	7451
600.8	7438
601.0	7421
601.2	7415
601.4	7418
601.6	7414
601.8	7400
602.0	7383
602.2	7374
602.4	7382
602.6	7376
602.8	7362
603.0	7350
603.2	7334
603.4	7320
603.6	7306
603.8	7303
604.0	7297
604.2	7310
604.4	7314
604.6	7292
604.8	7272
605.0	7260
605.2	7244
605.4	7251
605.6	7251
605.8	7240
606.0	7236
606.2	7227
606.4	7209
606.6	7199
606.8	7195
607.0	7188
607.2	7186
607.4	7188
607.6	7174
607.8	7165
608.0	7160
608.2	7171
608.4	7177
608.6	7161
608.8	7139
609.0	7119
609.2	7101
609.4	7115
609.6	7126
609.8	7118
610.0	7115
610.2	7097
610.4	7078
610.6	7061
610.8	7047
611.0	7037
611.2	7035
611.4	7025
611.6	7028
611.8	7019
612.0	7013
612.2	7008
612.4	7005
612.6	6985
612.8	6978
613.0	6970
613.2	6967
613.4	6970
613.6	6980
613.8	6971
614.0	6966
614.2	6971
614.4	6959
614.6	6958
614.8	6953
615.0	6943
615.2	6940
615.4	6933
615.6	6925
615.8	6928
616.0	6924
616.2	6920
616.4	6919
616.6	6920
616.8	6919
617.0	6918
617.2	6911
617.4	6902
617.6	6888
617.8	6889
618.0	6895
618.2	6898
618.4	6903
618.6	6902
618.8	6899
619.0	6885
619.2	6888
619.4	6897
619.6	6898
619.8	6896
620.0	6895
620.2	6899
620.4	6901
620.6	6901
620.8	6901
621.0	6891
621.2	6871
621.4	6880
621.6	6885
621.8	6878
622.0	6877
622.2	6874
622.4	6872
622.6	6880
622.8	6883
623.0	6879
623.2	6869
623.4	6873
623.6	6872
623.8	6874
624.0	6874
624.2	6882
624.4	6881
624.6	6892
624.8	6900
625.0	6902
625.2	6896
625.4	6902
625.6	6889
625.8	6889
626.0	6892
626.2	6886
626.4	6880
626.6	6906
626.8	6916
627.0	6921
627.2	6902
627.4	6900
627.6	6885
627.8	6889
628.0	6899
628.2	6897
628.4	6886
628.6	6889
628.8	6880
629.0	6876
629.2	6889
629.4	6894
629.6	6895
629.8	6900
630.0	6883
630.2	6874
630.4	6877
630.6	6881
630.8	6878
631.0	6899
631.2	6894
631.4	6907
631.6	6909
631.8	6911
632.0	6900
632.2	6907
632.4	6895
632.6	6899
632.8	6893
633.0	6901
633.2	6905
633.4	6905
633.6	6901
633.8	6901
634.0	6882
634.2	6870
634.4	6869
634.6	6863
634.8	6874
635.0	6890
635.2	6876
635.4	6869
635.6	6864
635.8	6845
636.0	6846
636.2	6838
636.4	6827
636.6	6820
636.8	6823
637.0	6826
637.2	6839
637.4	6829
637.6	6816
637.8	6796
638.0	6798
638.2	6807
638.4	6797
638.6	6787
638.8	6784
639.0	6780
639.2	6788
639.4	6785
639.6	6763
639.8	6740
640.0	6730
640.2	6709
640.4	6694
640.6	6702
640.8	6719
641.0	6715
641.2	6705
641.4	6668
641.6	6638
641.8	6629
642.0	6634
642.2	6621
642.4	6611
642.6	6598
642.8	6595
643.0	6581
643.2	6559
643.4	6535
643.6	6517
643.8	6508
644.0	6504
644.2	6498
644.4	6479
644.6	6467
644.8	6449
645.0	6430
645.2	6413
645.4	6402
645.6	6389
645.8	6386
646.0	6375
646.2	6370
646.4	6355
646.6	6335
646.8	6298
647.0	6286
647.2	6266
647.4	6249
647.6	6227
647.8	6204
648.0	6190
648.2	6196
648.4	6181
648.6	6158
648.8	6116
649.0	6073
649.2	6043
649.4	6027
649.6	6018
649.8	6021
650.0	6013
650.2	6008
650.4	5986
650.6	5967
650.8	5937
651.0	5908
651.2	5878
651.4	5867
651.6	5852
651.8	5841
652.0	5817
652.2	5786
652.4	5748
652.6	5723
652.8	5697
653.0	5681
653.2	5664
653.4	5637
653.6	5611
653.8	5587
654.0	5563
654.2	5544
654.4	5531
654.6	5501
654.8	5462
655.0	5443
655.2	5417
655.4	5397
655.6	5375
655.8	5348
656.0	5324
656.2	5323
656.4	5310
656.6	5294
656.8	5257
657.0	5223
657.2	5184
657.4	5147
657.6	5111
657.8	5084
658.0	5053
658.2	5037
658.4	5011
658.6	4988
658.8	4973
659.0	4954
659.2	4935
659.4	4926
659.6	4901
659.8	4868
660.0	4829
660.2	4793
660.4	4753
660.6	4729
660.8	4718
661.0	4705
661.2	4682
661.4	4656
661.6	4613
661.8	4568
662.0	4546
662.2	4536
662.4	4519
662.6	4491
662.8	4468
663.0	4432
663.2	4400
663.4	4369
663.6	4344
663.8	4323
664.0	4306
664.2	4293
664.4	4267
664.6	4242
664.8	4227
665.0	4205
665.2	4177
665.4	4147
665.6	4109
665.8	4074
666.0	4042
666.2	4010
666.4	4003
666.6	3982
666.8	3967
667.0	3947
667.2	3918
667.4	3890
667.6	3872
667.8	3847
668.0	3826
668.2	3810
668.4	3778
668.6	3749
668.8	3718
669.0	3688
669.2	3662
669.4	3641
669.6	3605
669.8	3580
670.0	3557
670.2	3531
670.4	3519
670.6	3496
670.8	3469
671.0	3446
671.2	3422
671.4	3392
671.6	3373
671.8	3355
672.0	3334
672.2	3312
672.4	3285
672.6	3261
672.8	3232
673.0	3219
673.2	3204
673.4	3189
673.6	3166
673.8	3151
674.0	3122
674.2	3092
674.4	3064
674.6	3036
674.8	3009
675.0	2996
675.2	2982
675.4	2957
675.6	2935
675.8	2915
676.0	2901
676.2	2886
676.4	2872
676.6	2845
676.8	2815
677.0	2800
677.2	2781
677.4	2762
677.6	2748
677.8	2724
678.0	2706
678.2	2686
678.4	2670
678.6	2651
678.8	2633
679.0	2611
679.2	2584
679.4	2555
679.6	2539
679.8	2522
680.0	2509
680.2	2493
680.4	2481
680.6	2468
680.8	2451
681.0	2430
681.2	2405
681.4	2389
681.6	2375
681.8	2358
682.0	2338
682.2	2313
682.4	2293
682.6	2280
682.8	2272
683.0	2260
683.2	2241
683.4	2223
683.6	2210
683.8	2186
684.0	2176
684.2	2167
684.4	2152
684.6	2137
684.8	2130
685.0	2102
685.2	2084
685.4	2068
685.6	2046
685.8	2029
686.0	2023
686.2	2004
686.4	1998
686.6	1987
686.8	1979
687.0	1966
687.2	1946
687.4	1923
687.6	1910
687.8	1896
688.0	1890
688.2	1880
688.4	1863
688.6	1854
688.8	1839
689.0	1825
689.2	1814
689.4	1805
689.6	1788
689.8	1777
690.0	1761
690.2	1747
690.4	1744
690.6	1736
690.8	1718
691.0	1708
691.2	1689
691.4	1673
691.6	1666
691.8	1654
692.0	1643
692.2	1636
692.4	1621
692.6	1614
692.8	1602
693.0	1590
693.2	1586
693.4	1577
693.6	1566
693.8	1561
694.0	1549
694.2	1541
694.4	1537
694.6	1522
694.8	1504
695.0	1491
695.2	1477
695.4	1471
695.6	1462
695.8	1456
696.0	1452
696.2	1449
696.4	1437
696.6	1425
696.8	1407
697.0	1404
697.2	1402
697.4	1392
697.6	1382
697.8	1367
698.0	1348
698.2	1339
698.4	1335
698.6	1328
698.8	1324
699.0	1315
699.2	1303
699.4	1297
699.6	1294
699.8	1293
700.0	1289
700.2	1285
700.4	1274
700.6	1267
700.8	1256
701.0	1247
701.2	1240
701.4	1235
701.6	1226
701.8	1221
702.0	1216
702.2	1211
702.4	1200
702.6	1193
702.8	1193
703.0	1182
703.2	1174
703.4	1168
703.6	1157
703.8	1153
704.0	1148
704.2	1135
704.4	1130
704.6	1126
704.8	1116
705.0	1110
705.2	1100
705.4	1099
705.6	1093
705.8	1085
706.0	1080
706.2	1075
706.4	1065
706.6	1061
706.8	1052
707.0	1043
707.2	1040
707.4	1033
707.6	1021
707.8	1013
708.0	1005
708.2	998.9
708.4	994.4
708.6	991.6
708.8	990.7
709.0	982.5
709.2	972.8
709.4	966.6
709.6	960.1
709.8	954.5
710.0	951.2
710.2	941.7
710.4	931.4
710.6	927.0
710.8	922.9
711.0	917.4
711.2	916.4
711.4	911.4
711.6	902.7
711.8	899.0
712.0	890.6
712.2	883.0
712.4	877.1
712.6	871.5
712.8	861.9
713.0	858.3
713.2	853.9
713.4	846.4
713.6	840.6
713.8	835.9
714.0	830.8
714.2	826.2
714.4	817.8
714.6	803.7
714.8	795.7
715.0	789.0
715.2	789.9
715.4	788.7
715.6	787.1
715.8	782.1
716.0	775.5
716.2	770.6
716.4	767.8
716.6	760.9
716.8	754.1
717.0	747.0
717.2	737.8
717.4	732.0
717.6	730.4
717.8	724.5
718.0	721.4
718.2	718.1
718.4	711.2
718.6	701.2
718.8	699.9
719.0	697.6
719.2	695.2
719.4	686.3
719.6	674.3
719.8	661.8
720.0	659.1
720.2	657.4
720.4	656.0
720.6	655.5
720.8	652.0
721.0	644.6
721.2	636.4
721.4	631.5
721.6	625.4
721.8	625.1
722.0	618.8
722.2	612.2
722.4	604.6
722.6	601.7
722.8	595.7
723.0	592.7
723.2	585.9
723.4	584.6
723.6	581.8
723.8	577.5
724.0	570.4
724.2	565.5
724.4	560.9
724.6	560.9
724.8	559.1
725.0	554.9
725.2	546.9
725.4	539.3
725.6	532.8
725.8	530.2
726.0	528.8
726.2	525.0
726.4	520.3
726.6	514.9
726.8	511.5
727.0	509.0
727.2	505.0
727.4	494.0
727.6	487.3
727.8	486.6
728.0	486.2
728.2	483.2
728.4	480.2
728.6	473.2
728.8	467.1
729.0	464.5
729.2	460.3
729.4	456.7
729.6	455.2
729.8	453.8
730.0	448.5
730.2	445.1
730.4	440.9
730.6	438.8
730.8	433.7
731.0	428.8
731.2	422.8
731.4	421.6
731.6	420.0
731.8	418.0
732.0	417.3
732.2	414.2
732.4	408.9
732.6	405.0
732.8	402.1
733.0	395.5
733.2	394.1
733.4	393.3
733.6	388.0
733.8	384.0
734.0	381.2
734.2	373.9
734.4	371.2
734.6	369.5
734.8	368.6
735.0	368.3
735.2	363.4
735.4	357.4
735.6	353.8
735.8	348.2
736.0	347.1
736.2	346.1
736.4	341.3
736.6	339.7
736.8	337.3
737.0	335.0
737.2	332.0
737.4	326.6
737.6	320.5
737.8	319.0
738.0	318.2
738.2	317.7
738.4	314.3
738.6	310.4
738.8	309.1
739.0	309.2
739.2	309.3
739.4	305.5
739.6	299.8
739.8	293.9
740.0	291.7
740.2	288.6
740.4	288.7
740.6	290.0
740.8	287.6
741.0	285.3
741.2	281.1
741.4	278.1
741.6	275.4
741.8	274.2
742.0	269.4
742.2	267.8
742.4	265.3
742.6	266.1
742.8	262.1
743.0	259.2
743.2	256.7
743.4	253.9
743.6	251.9
743.8	250.6
744.0	246.7
744.2	244.5
744.4	244.6
744.6	243.1
744.8	241.1
745.0	239.4
745.2	236.4
745.4	232.2
745.6	229.7
745.8	227.1
746.0	226.0
746.2	226.4
746.4	227.4
746.6	224.7
746.8	223.2
747.0	219.7
747.2	216.1
747.4	214.3
747.6	213.6
747.8	209.6
748.0	209.3
748.2	207.1
748.4	205.9
748.6	205.2
748.8	205.6
749.0	204.2
749.2	204.3
749.4	200.1
749.6	196.0
749.8	192.0
750.0	191.6
750.2	190.3
750.4	191.1
750.6	189.5
750.8	189.2
751.0	186.8
751.2	183.6
751.4	178.7
751.6	176.4
751.8	175.9
752.0	177.6
752.2	177.5
752.4	175.0
752.6	171.8
752.8	169.7
753.0	169.5
753.2	171.2
753.4	172.1
753.6	170.5
753.8	167.1
754.0	163.3
754.2	161.7
754.4	160.1
754.6	157.1
754.8	155.9
755.0	153.1
755.2	152.7
755.4	154.7
755.6	154.4
755.8	151.8
756.0	150.6
756.2	147.9
756.4	144.5
756.6	143.7
756.8	144.5
757.0	144.6
757.2	145.4
757.4	145.6
757.6	142.4
757.8	139.8
758.0	139.7
758.2	140.5
758.4	138.3
758.6	136.0
758.8	133.8
759.0	132.6
759.2	132.4
759.4	133.3
759.6	131.4
759.8	130.0
760.0	129.2
760.2	129.7
760.4	127.8
760.6	127.7
760.8	126.5
761.0	126.1
761.2	124.7
761.4	122.7
761.6	119.0
761.8	117.7
762.0	116.8
762.2	117.2
762.4	118.2
762.6	117.1
762.8	115.8
763.0	113.0
763.2	112.7
763.4	111.9
763.6	112.0
763.8	109.1
764.0	108.5
764.2	106.1
764.4	106.5
764.6	106.0
764.8	105.9
765.0	105.1
765.2	104.3
765.4	102.5
765.6	101.2
765.8	100.8
766.0	100.0
766.2	101.9
766.4	100.6
766.6	98.21
766.8	96.53
767.0	96.31
767.2	94.46
767.4	95.30
767.6	94.69
767.8	93.01
768.0	92.06
768.2	91.05
768.4	89.11
768.6	88.78
768.8	87.81
769.0	87.22
769.2	87.48
769.4	88.00
769.6	88.15
769.8	88.15
770.0	86.33
770.2	84.49
770.4	84.33
770.6	84.58
770.8	84.44
771.0	83.25
771.2	81.48
771.4	79.85
771.6	78.30
771.8	77.61
772.0	78.46
772.2	79.84
772.4	79.23
772.6	77.47
772.8	75.44
773.0	74.15
773.2	74.15
773.4	73.54
773.6	74.34
773.8	75.08
774.0	76.28
774.2	75.93
774.4	74.08
774.6	70.73
774.8	70.78
775.0	70.12
775.2	68.79
775.4	68.24
775.6	67.64
775.8	67.69
776.0	68.03
776.2	67.16
776.4	66.81
776.6	66.26
776.8	66.28
777.0	67.20
777.2	66.50
777.4	65.43
777.6	65.66
777.8	64.11
778.0	63.09
778.2	63.85
778.4	63.21
778.6	63.06
778.8	62.99
779.0	61.55
779.2	59.20
779.4	57.96
779.6	57.07
779.8	57.86
780.0	57.26
780.2	57.89
780.4	57.43
780.6	56.92
780.8	56.81
781.0	57.55
781.2	56.00
781.4	56.16
781.6	54.80
781.8	54.05
782.0	54.04
782.2	54.31
782.4	53.62
782.6	53.78
782.8	53.02
783.0	52.48
783.2	52.29
783.4	53.15
783.6	52.44
783.8	52.94
784.0	53.47
784.2	52.48
784.4	50.83
784.6	49.79
784.8	48.04
785.0	48.04
785.2	48.63
785.4	47.84
785.6	48.36
785.8	49.08
786.0	49.71
786.2	49.40
786.4	48.96
786.6	47.71
786.8	47.46
787.0	47.99
787.2	47.75
787.4	47.11
787.6	46.52
787.8	45.97
788.0	45.11
788.2	44.98
788.4	45.63
788.6	45.28
788.8	43.88
789.0	44.30
789.2	44.25
789.4	44.61
789.6	45.84
789.8	44.82
790.0	43.86
790.2	42.85
790.4	42.30
790.6	43.29
790.8	44.01
791.0	44.34
791.2	44.75
791.4	43.06
791.6	43.78
791.8	43.45
792.0	42.81
792.2	43.08
792.4	42.08
792.6	41.51
792.8	42.47
793.0	40.54
793.2	40.79
793.4	41.41
793.6	39.69
793.8	39.64
794.0	39.87
794.2	39.16
794.4	39.19
794.6	39.22
794.8	38.30
795.0	38.58
795.2	39.24
795.4	38.80
795.6	37.71
795.8	37.27
796.0	38.07
796.2	38.70
796.4	40.07
796.6	39.28
796.8	38.77
797.0	37.42
797.2	37.11
797.4	37.21
797.6	36.97
797.8	36.94
798.0	36.97
798.2	36.80
798.4	36.25
798.6	35.83
798.8	35.07
799.0	35.02
799.2	35.55
799.4	36.37
799.6	36.34
799.8	35.77
800.0	35.82
800.2	35.21
800.4	35.49
800.6	35.19
800.8	35.00
801.0	33.82
801.2	32.86
801.4	32.52
801.6	32.51
801.8	33.03
802.0	32.99
802.2	31.72
802.4	30.75
802.6	31.45
802.8	31.94
803.0	33.59
803.2	33.56
803.4	31.93
803.6	30.84
803.8	31.15
804.0	31.46
804.2	31.69
804.4	31.25
804.6	30.46
804.8	29.98
805.0	30.91
805.2	31.77
805.4	31.05
805.6	31.05
805.8	30.72
806.0	29.90
806.2	29.90
806.4	29.83
806.6	29.67
806.8	30.10
807.0	29.68
807.2	29.71
807.4	29.31
807.6	28.96
807.8	29.03
808.0	28.86
808.2	28.82
808.4	30.20
808.6	30.27
808.8	29.44
809.0	28.87
809.2	27.53
809.4	26.08
809.6	26.28
809.8	25.39
810.0	25.41
810.2	25.81
810.4	26.44
810.6	26.11
810.8	26.32
811.0	25.80
811.2	25.69
811.4	25.55
811.6	26.64
811.8	26.75
812.0	26.08
812.2	25.80
812.4	25.36
812.6	25.25
812.8	25.34
813.0	24.42
813.2	23.46
813.4	23.69
813.6	24.48
813.8	25.34
814.0	25.26
814.2	24.26
814.4	23.94
814.6	23.95
814.8	23.66
815.0	23.58
815.2	23.41
815.4	22.79
815.6	23.08
815.8	23.19
816.0	22.96
816.2	22.36
816.4	21.91
816.6	21.56
816.8	21.72
817.0	21.66
817.2	21.70
817.4	21.47
817.6	21.42
817.8	21.91
818.0	21.88
818.2	21.80
818.4	21.67
818.6	21.16
818.8	20.85
819.0	20.34
819.2	20.01
819.4	19.65
819.6	19.88
819.8	20.08
820.0	20.37
820.2	20.21
820.4	20.20
820.6	19.32
820.8	19.24
821.0	19.73
821.2	19.83
821.4	19.72
821.6	19.29
821.8	18.23
822.0	17.41
822.2	17.99
822.4	17.89
822.6	17.99
822.8	18.42
823.0	18.57
823.2	18.65
823.4	19.30
823.6	18.58
823.8	18.01
824.0	17.68
824.2	17.41
824.4	17.24
824.6	17.16
824.8	17.15
825.0	17.10
825.2	16.58
825.4	16.15
825.6	15.56
825.8	15.47
826.0	15.96
826.2	16.45
826.4	17.01
826.6	17.06
826.8	16.37
827.0	14.98
827.2	14.14
827.4	14.11
827.6	14.73
827.8	14.99
828.0	14.74
828.2	14.01
828.4	13.51
828.6	13.72
828.8	13.64
829.0	13.83
829.2	14.53
829.4	14.25
829.6	14.15
829.8	14.13
830.0	13.48
830.2	13.03
830.4	13.38
830.6	12.97
830.8	13.40
831.0	13.34
831.2	13.59
831.4	13.16
831.6	13.05
831.8	12.76
832.0	12.92
832.2	12.54
832.4	12.60
832.6	12.17
832.8	12.22
833.0	12.31
833.2	12.12
833.4	12.03
833.6	11.54
833.8	11.09
834.0	11.26
834.2	11.12
834.4	10.37
834.6	10.47
834.8	9.925
835.0	9.731
835.2	9.887
835.4	9.969
835.6	9.922
835.8	10.76
836.0	10.61
836.2	10.40
836.4	9.586
836.6	9.340
836.8	9.138
837.0	9.676
837.2	9.556
837.4	9.222
837.6	8.745
837.8	8.714
838.0	8.745
838.2	8.677
838.4	8.762
838.6	8.579
838.8	8.947
839.0	8.737
839.2	8.659
839.4	8.392
839.6	8.167
839.8	8.218
840.0	8.284
840.2	8.320
840.4	8.130
840.6	7.852
840.8	7.250
841.0	6.931
841.2	6.418
841.4	6.671
841.6	6.652
841.8	6.840
842.0	7.060
842.2	6.826
842.4	7.063
842.6	7.302
842.8	7.321
843.0	7.393
843.2	7.024
843.4	6.473
843.6	6.572
843.8	6.440
844.0	6.530
844.2	6.179
844.4	5.880
844.6	5.725
844.8	5.999
845.0	5.797
845.2	6.058
845.4	5.645
845.6	5.322
845.8	4.704
846.0	4.771
846.2	4.776
846.4	5.387
846.6	5.599
846.8	5.518
847.0	5.024
847.2	4.951
847.4	4.791
847.6	5.004
847.8	4.867
848.0	5.160
848.2	4.934
848.4	4.889
848.6	4.589
848.8	4.691
849.0	4.606
849.2	4.879
849.4	4.592
849.6	4.317
849.8	4.144
850.0	4.477
850.2	4.686
850.4	4.562
850.6	4.656
850.8	4.451
851.0	4.289
851.2	4.130
851.4	3.947
851.6	3.625
851.8	3.961
852.0	4.138
852.2	4.173
852.4	4.161
852.6	4.167
852.8	4.126
853.0	4.089
853.2	4.061
853.4	3.885
853.6	4.179
853.8	4.081
854.0	3.968
854.2	3.756
854.4	3.514
854.6	3.676
854.8	3.907
855.0	3.833
855.2	3.789
855.4	3.771
855.6	3.642
855.8	3.863
856.0	3.770
856.2	3.604
856.4	3.436
856.6	3.438
856.8	3.213
857.0	3.124
857.2	3.268
857.4	3.321
857.6	3.282
857.8	3.225
858.0	3.237
858.2	2.992
858.4	3.250
858.6	3.262
858.8	3.233
859.0	3.341
859.2	3.659
859.4	3.586
859.6	3.597
859.8	3.377
860.0	3.133
860.2	3.101
860.4	3.006
860.6	2.737
860.8	2.501
861.0	2.571
861.2	2.738
861.4	3.037
861.6	3.114
861.8	3.156
862.0	3.210
862.2	3.167
862.4	3.058
