Sample:	'20211010A(EM)
File name:	R-CDs-540.FDS
Run date:	'16:54:17, 05/19/2023
Operator:	Administrator
Comment:	'

Instrument
Model:	F-4700 FL Spectrophotometer
Serial number:	2019-001
ROM Version:	5J24010 00

Instrument parameters
Measurement type:	Wavelength scan
Scan mode:	Emission
Data mode:	Fluorescence
EX WL:	540.0 nm
EM  Start WL:	560.0 nm
EM  End WL:	900.0 nm
Scan speed:	1200 nm/min
Delay:	0.0 s
EX Slit:	5.0 nm
EM Slit:	10.0 nm
PMT Voltage:	600 V
Response:	0.002 s
Corrected spectra:	Off
Shutter control:	On

Processing performed
Savitsky-Golay smoothed
Smoothing order:	3
Number of points:	7
Number of times:	1

Peak integration
Integration method:	Rectangular
Sensitivity:	1
Threshold:	1.000

Peaks
No.	Start(nm)	Apex(nm)	End(nm)	Height(Data)	Valley(nm)	Valley(Data)
1	560.0	596.8	597.8	6418	597.8	6396
2	597.8	598.6	599.8	6422	599.8	6385
3	599.8	600.4	606.8	6410	606.8	6244
4	606.8	607.4	613.4	6269	613.4	6057
5	613.4	614.2	615.0	6097	615.0	6049
6	615.0	616.0	623.0	6065	623.0	5973
7	623.0	624.0	626.6	6011	626.6	5974
8	626.6	628.0	629.8	5989	629.8	5957
9	629.8	632.0	774.4	5982	774.4	60.34
10	774.4	775.2	780.4	62.30	780.4	47.04
11	780.4	781.4	790.4	49.88	790.4	35.91
12	790.4	791.2	797.8	38.21	797.8	29.35
13	797.8	798.6	800.4	34.39	800.4	27.83
14	800.4	801.4	804.6	29.53	804.6	26.90
15	804.6	805.6	813.2	28.20	813.2	20.75
16	813.2	813.8	815.4	22.31	815.4	19.82
17	815.4	816.0	817.0	21.55	817.0	18.19
18	817.0	817.8	823.4	20.63	823.4	14.53
19	823.4	824.2	831.0	15.89	831.0	10.41
20	831.0	831.6	838.2	11.75	838.2	7.052
21	838.2	839.0	850.2	8.052	850.2	3.124
22	850.2	851.8	867.0	4.194	867.0	1.848
23	867.0	872.2	882.4	2.997	882.4	1.862
24	882.4	883.8	900.0	2.867	900.0	2.672

Data points
nm	Data
560.0	1700
560.2	1703
560.4	1726
560.6	1760
560.8	1796
561.0	1827
561.2	1852
561.4	1878
561.6	1895
561.8	1928
562.0	1955
562.2	1980
562.4	2006
562.6	2040
562.8	2072
563.0	2114
563.2	2144
563.4	2174
563.6	2204
563.8	2243
564.0	2278
564.2	2306
564.4	2327
564.6	2354
564.8	2392
565.0	2438
565.2	2476
565.4	2514
565.6	2546
565.8	2581
566.0	2622
566.2	2660
566.4	2689
566.6	2720
566.8	2752
567.0	2779
567.2	2813
567.4	2848
567.6	2882
567.8	2919
568.0	2965
568.2	3007
568.4	3041
568.6	3068
568.8	3097
569.0	3129
569.2	3167
569.4	3209
569.6	3247
569.8	3274
570.0	3306
570.2	3348
570.4	3396
570.6	3439
570.8	3486
571.0	3525
571.2	3557
571.4	3594
571.6	3622
571.8	3649
572.0	3692
572.2	3742
572.4	3785
572.6	3829
572.8	3856
573.0	3879
573.2	3912
573.4	3950
573.6	3983
573.8	4033
574.0	4077
574.2	4112
574.4	4141
574.6	4176
574.8	4194
575.0	4238
575.2	4270
575.4	4307
575.6	4337
575.8	4383
576.0	4416
576.2	4462
576.4	4485
576.6	4518
576.8	4544
577.0	4594
577.2	4624
577.4	4663
577.6	4696
577.8	4726
578.0	4755
578.2	4808
578.4	4832
578.6	4858
578.8	4885
579.0	4912
579.2	4938
579.4	4974
579.6	4999
579.8	5024
580.0	5065
580.2	5115
580.4	5144
580.6	5175
580.8	5198
581.0	5218
581.2	5254
581.4	5285
581.6	5311
581.8	5346
582.0	5384
582.2	5411
582.4	5437
582.6	5465
582.8	5489
583.0	5506
583.2	5538
583.4	5566
583.6	5587
583.8	5616
584.0	5638
584.2	5652
584.4	5671
584.6	5695
584.8	5726
585.0	5756
585.2	5787
585.4	5808
585.6	5821
585.8	5832
586.0	5848
586.2	5871
586.4	5887
586.6	5900
586.8	5915
587.0	5937
587.2	5961
587.4	5993
587.6	6003
587.8	6020
588.0	6025
588.2	6038
588.4	6059
588.6	6084
588.8	6097
589.0	6123
589.2	6127
589.4	6140
589.6	6157
589.8	6171
590.0	6170
590.2	6172
590.4	6173
590.6	6181
590.8	6201
591.0	6232
591.2	6250
591.4	6268
591.6	6289
591.8	6299
592.0	6301
592.2	6306
592.4	6310
592.6	6304
592.8	6312
593.0	6318
593.2	6318
593.4	6324
593.6	6333
593.8	6323
594.0	6335
594.2	6344
594.4	6350
594.6	6361
594.8	6365
595.0	6362
595.2	6356
595.4	6367
595.6	6366
595.8	6370
596.0	6378
596.2	6385
596.4	6396
596.6	6416
596.8	6418
597.0	6417
597.2	6406
597.4	6397
597.6	6401
597.8	6396
598.0	6397
598.2	6403
598.4	6415
598.6	6422
598.8	6421
599.0	6419
599.2	6404
599.4	6391
599.6	6389
599.8	6385
600.0	6395
600.2	6409
600.4	6410
600.6	6407
600.8	6392
601.0	6379
601.2	6378
601.4	6368
601.6	6371
601.8	6376
602.0	6375
602.2	6376
602.4	6375
602.6	6371
602.8	6373
603.0	6368
603.2	6340
603.4	6317
603.6	6302
603.8	6303
604.0	6319
604.2	6331
604.4	6324
604.6	6318
604.8	6304
605.0	6287
605.2	6285
605.4	6290
605.6	6297
605.8	6298
606.0	6296
606.2	6267
606.4	6251
606.6	6245
606.8	6244
607.0	6253
607.2	6263
607.4	6269
607.6	6266
607.8	6256
608.0	6248
608.2	6234
608.4	6228
608.6	6234
608.8	6220
609.0	6208
609.2	6204
609.4	6182
609.6	6186
609.8	6163
610.0	6156
610.2	6159
610.4	6155
610.6	6153
610.8	6159
611.0	6147
611.2	6159
611.4	6161
611.6	6148
611.8	6139
612.0	6127
612.2	6120
612.4	6123
612.6	6121
612.8	6108
613.0	6094
613.2	6084
613.4	6057
613.6	6070
613.8	6083
614.0	6094
614.2	6097
614.4	6091
614.6	6061
614.8	6060
615.0	6049
615.2	6050
615.4	6050
615.6	6056
615.8	6058
616.0	6065
616.2	6059
616.4	6051
616.6	6041
616.8	6046
617.0	6046
617.2	6052
617.4	6041
617.6	6022
617.8	6001
618.0	6001
618.2	6011
618.4	6015
618.6	6015
618.8	6008
619.0	5997
619.2	6003
619.4	6006
619.6	6013
619.8	6015
620.0	6010
620.2	5995
620.4	6002
620.6	6003
620.8	6005
621.0	5992
621.2	5997
621.4	5977
621.6	5984
621.8	5986
622.0	5984
622.2	5988
622.4	5998
622.6	5981
622.8	5976
623.0	5973
623.2	5984
623.4	6003
623.6	6006
623.8	6006
624.0	6011
624.2	6007
624.4	5996
624.6	5992
624.8	5985
625.0	5984
625.2	5986
625.4	5987
625.6	5988
625.8	5995
626.0	5991
626.2	5983
626.4	5976
626.6	5974
626.8	5979
627.0	5981
627.2	5981
627.4	5976
627.6	5983
627.8	5984
628.0	5989
628.2	5988
628.4	5980
628.6	5969
628.8	5970
629.0	5980
629.2	5982
629.4	5985
629.6	5972
629.8	5957
630.0	5959
630.2	5962
630.4	5962
630.6	5963
630.8	5966
631.0	5961
631.2	5971
631.4	5966
631.6	5972
631.8	5972
632.0	5982
632.2	5978
632.4	5974
632.6	5977
632.8	5973
633.0	5961
633.2	5964
633.4	5957
633.6	5942
633.8	5938
634.0	5931
634.2	5914
634.4	5914
634.6	5924
634.8	5920
635.0	5918
635.2	5924
635.4	5912
635.6	5899
635.8	5896
636.0	5890
636.2	5890
636.4	5896
636.6	5883
636.8	5880
637.0	5874
637.2	5873
637.4	5870
637.6	5872
637.8	5867
638.0	5873
638.2	5864
638.4	5848
638.6	5827
638.8	5814
639.0	5812
639.2	5814
639.4	5812
639.6	5802
639.8	5803
640.0	5800
640.2	5790
640.4	5775
640.6	5770
640.8	5756
641.0	5750
641.2	5741
641.4	5727
641.6	5705
641.8	5698
642.0	5682
642.2	5676
642.4	5674
642.6	5670
642.8	5652
643.0	5643
643.2	5641
643.4	5643
643.6	5638
643.8	5622
644.0	5586
644.2	5560
644.4	5545
644.6	5536
644.8	5521
645.0	5511
645.2	5494
645.4	5498
645.6	5484
645.8	5474
646.0	5450
646.2	5428
646.4	5407
646.6	5404
646.8	5388
647.0	5384
647.2	5377
647.4	5361
647.6	5338
647.8	5310
648.0	5274
648.2	5257
648.4	5251
648.6	5250
648.8	5245
649.0	5225
649.2	5204
649.4	5192
649.6	5174
649.8	5156
650.0	5125
650.2	5096
650.4	5078
650.6	5064
650.8	5055
651.0	5037
651.2	5019
651.4	5000
651.6	4971
651.8	4964
652.0	4961
652.2	4949
652.4	4927
652.6	4898
652.8	4861
653.0	4844
653.2	4830
653.4	4817
653.6	4796
653.8	4766
654.0	4743
654.2	4719
654.4	4709
654.6	4693
654.8	4674
655.0	4638
655.2	4610
655.4	4588
655.6	4577
655.8	4563
656.0	4542
656.2	4520
656.4	4493
656.6	4475
656.8	4471
657.0	4461
657.2	4444
657.4	4423
657.6	4379
657.8	4343
658.0	4325
658.2	4301
658.4	4281
658.6	4256
658.8	4229
659.0	4220
659.2	4216
659.4	4196
659.6	4174
659.8	4145
660.0	4124
660.2	4100
660.4	4083
660.6	4055
660.8	4028
661.0	3997
661.2	3978
661.4	3950
661.6	3931
661.8	3915
662.0	3896
662.2	3871
662.4	3856
662.6	3831
662.8	3812
663.0	3794
663.2	3772
663.4	3751
663.6	3729
663.8	3693
664.0	3672
664.2	3655
664.4	3640
664.6	3620
664.8	3600
665.0	3561
665.2	3540
665.4	3528
665.6	3515
665.8	3486
666.0	3462
666.2	3423
666.4	3400
666.6	3391
666.8	3376
667.0	3356
667.2	3335
667.4	3306
667.6	3282
667.8	3268
668.0	3250
668.2	3225
668.4	3200
668.6	3178
668.8	3155
669.0	3141
669.2	3128
669.4	3107
669.6	3091
669.8	3072
670.0	3050
670.2	3030
670.4	3011
670.6	2984
670.8	2966
671.0	2942
671.2	2925
671.4	2908
671.6	2894
671.8	2875
672.0	2863
672.2	2839
672.4	2814
672.6	2792
672.8	2769
673.0	2747
673.2	2728
673.4	2705
673.6	2686
673.8	2667
674.0	2647
674.2	2622
674.4	2605
674.6	2590
674.8	2582
675.0	2563
675.2	2547
675.4	2525
675.6	2510
675.8	2496
676.0	2482
676.2	2462
676.4	2444
676.6	2421
676.8	2400
677.0	2386
677.2	2370
677.4	2357
677.6	2345
677.8	2327
678.0	2317
678.2	2296
678.4	2277
678.6	2258
678.8	2243
679.0	2234
679.2	2226
679.4	2200
679.6	2181
679.8	2158
680.0	2140
680.2	2132
680.4	2124
680.6	2118
680.8	2103
681.0	2077
681.2	2051
681.4	2040
681.6	2034
681.8	2026
682.0	2015
682.2	1991
682.4	1969
682.6	1953
682.8	1937
683.0	1922
683.2	1926
683.4	1912
683.6	1897
683.8	1876
684.0	1859
684.2	1841
684.4	1840
684.6	1827
684.8	1812
685.0	1795
685.2	1782
685.4	1771
685.6	1759
685.8	1747
686.0	1727
686.2	1708
686.4	1697
686.6	1689
686.8	1675
687.0	1668
687.2	1654
687.4	1648
687.6	1636
687.8	1625
688.0	1608
688.2	1604
688.4	1586
688.6	1575
688.8	1562
689.0	1553
689.2	1538
689.4	1539
689.6	1529
689.8	1521
690.0	1511
690.2	1501
690.4	1490
690.6	1481
690.8	1464
691.0	1449
691.2	1439
691.4	1424
691.6	1421
691.8	1418
692.0	1400
692.2	1390
692.4	1385
692.6	1371
692.8	1368
693.0	1366
693.2	1354
693.4	1340
693.6	1331
693.8	1321
694.0	1313
694.2	1308
694.4	1309
694.6	1300
694.8	1290
695.0	1280
695.2	1268
695.4	1256
695.6	1251
695.8	1243
696.0	1236
696.2	1231
696.4	1222
696.6	1214
696.8	1211
697.0	1204
697.2	1197
697.4	1194
697.6	1180
697.8	1172
698.0	1165
698.2	1157
698.4	1145
698.6	1141
698.8	1133
699.0	1128
699.2	1127
699.4	1123
699.6	1122
699.8	1111
700.0	1105
700.2	1093
700.4	1087
700.6	1082
700.8	1080
701.0	1067
701.2	1071
701.4	1062
701.6	1058
701.8	1051
702.0	1044
702.2	1032
702.4	1030
702.6	1023
702.8	1018
703.0	1009
703.2	1003
703.4	993.2
703.6	984.8
703.8	982.7
704.0	977.0
704.2	971.1
704.4	961.2
704.6	954.8
704.8	951.8
705.0	950.6
705.2	945.3
705.4	946.1
705.6	939.4
705.8	936.0
706.0	928.2
706.2	914.0
706.4	901.5
706.6	898.5
706.8	896.4
707.0	900.4
707.2	896.6
707.4	884.8
707.6	876.4
707.8	864.6
708.0	856.0
708.2	856.1
708.4	856.1
708.6	855.4
708.8	857.2
709.0	850.9
709.2	843.9
709.4	835.9
709.6	827.6
709.8	821.3
710.0	818.1
710.2	814.0
710.4	809.5
710.6	800.1
710.8	792.0
711.0	784.1
711.2	778.6
711.4	773.1
711.6	768.3
711.8	760.7
712.0	757.4
712.2	756.8
712.4	761.0
712.6	759.7
712.8	754.2
713.0	743.6
713.2	734.7
713.4	727.3
713.6	720.6
713.8	712.5
714.0	704.6
714.2	699.6
714.4	696.8
714.6	694.3
714.8	688.5
715.0	685.5
715.2	685.4
715.4	681.6
715.6	672.8
715.8	664.5
716.0	655.4
716.2	650.2
716.4	649.3
716.6	646.8
716.8	641.6
717.0	636.9
717.2	630.9
717.4	625.4
717.6	622.9
717.8	623.1
718.0	620.7
718.2	619.3
718.4	612.2
718.6	602.5
718.8	595.5
719.0	591.8
719.2	588.7
719.4	586.8
719.6	585.8
719.8	579.9
720.0	569.9
720.2	563.4
720.4	557.9
720.6	552.3
720.8	552.5
721.0	550.3
721.2	548.3
721.4	547.8
721.6	542.5
721.8	538.3
722.0	529.5
722.2	521.5
722.4	516.4
722.6	510.6
722.8	508.7
723.0	511.4
723.2	507.4
723.4	504.7
723.6	499.7
723.8	492.7
724.0	492.0
724.2	493.3
724.4	487.3
724.6	485.2
724.8	479.0
725.0	471.6
725.2	469.7
725.4	468.1
725.6	460.7
725.8	459.5
726.0	451.9
726.2	445.4
726.4	444.6
726.6	442.5
726.8	442.1
727.0	440.8
727.2	433.2
727.4	427.2
727.6	425.1
727.8	421.5
728.0	420.6
728.2	414.3
728.4	408.3
728.6	404.2
728.8	402.4
729.0	402.8
729.2	402.2
729.4	395.5
729.6	392.8
729.8	390.2
730.0	388.3
730.2	384.9
730.4	380.8
730.6	371.8
730.8	368.8
731.0	365.7
731.2	364.0
731.4	361.0
731.6	361.1
731.8	355.1
732.0	355.1
732.2	352.9
732.4	350.4
732.6	348.9
732.8	345.7
733.0	339.6
733.2	340.4
733.4	341.4
733.6	336.0
733.8	330.9
734.0	323.3
734.2	316.7
734.4	316.4
734.6	319.2
734.8	318.7
735.0	317.1
735.2	313.9
735.4	308.0
735.6	304.8
735.8	302.6
736.0	301.1
736.2	299.0
736.4	296.2
736.6	292.5
736.8	290.6
737.0	286.6
737.2	283.0
737.4	280.8
737.6	277.0
737.8	277.7
738.0	276.7
738.2	274.8
738.4	271.0
738.6	266.9
738.8	262.7
739.0	263.3
739.2	258.7
739.4	255.4
739.6	253.8
739.8	252.5
740.0	251.2
740.2	253.9
740.4	250.7
740.6	246.0
740.8	243.5
741.0	242.6
741.2	240.1
741.4	239.5
741.6	236.4
741.8	233.9
742.0	229.9
742.2	231.2
742.4	228.8
742.6	227.7
742.8	225.7
743.0	222.7
743.2	221.1
743.4	220.3
743.6	219.4
743.8	217.8
744.0	214.4
744.2	209.3
744.4	208.6
744.6	206.6
744.8	208.8
745.0	209.0
745.2	205.5
745.4	201.9
745.6	199.1
745.8	196.6
746.0	194.5
746.2	193.5
746.4	192.4
746.6	190.8
746.8	189.6
747.0	188.2
747.2	184.2
747.4	181.3
747.6	180.6
747.8	177.9
748.0	177.3
748.2	177.8
748.4	178.0
748.6	175.4
748.8	173.2
749.0	171.1
749.2	170.5
749.4	169.9
749.6	166.8
749.8	163.6
750.0	163.5
750.2	164.1
750.4	164.2
750.6	163.8
750.8	158.2
751.0	156.6
751.2	157.8
751.4	158.4
751.6	157.8
751.8	156.1
752.0	151.5
752.2	149.8
752.4	149.7
752.6	152.0
752.8	151.0
753.0	147.7
753.2	145.5
753.4	145.2
753.6	144.1
753.8	145.4
754.0	142.3
754.2	138.5
754.4	139.2
754.6	137.4
754.8	137.0
755.0	136.7
755.2	134.0
755.4	133.3
755.6	133.0
755.8	130.8
756.0	132.6
756.2	131.9
756.4	129.2
756.6	127.5
756.8	125.4
757.0	124.5
757.2	124.7
757.4	124.3
757.6	124.3
757.8	122.5
758.0	121.8
758.2	119.0
758.4	116.5
758.6	115.9
758.8	118.0
759.0	118.6
759.2	119.5
759.4	117.7
759.6	116.4
759.8	115.3
760.0	113.4
760.2	112.4
760.4	109.0
760.6	106.2
760.8	105.9
761.0	105.8
761.2	103.3
761.4	103.2
761.6	101.2
761.8	99.63
762.0	99.71
762.2	100.3
762.4	100.5
762.6	100.3
762.8	100.0
763.0	97.92
763.2	96.83
763.4	95.54
763.6	94.99
763.8	94.09
764.0	93.34
764.2	93.81
764.4	92.62
764.6	91.69
764.8	90.51
765.0	89.97
765.2	88.85
765.4	88.82
765.6	86.01
765.8	85.63
766.0	85.81
766.2	86.26
766.4	85.77
766.6	84.59
766.8	84.14
767.0	83.68
767.2	84.55
767.4	84.05
767.6	81.84
767.8	79.80
768.0	80.11
768.2	78.47
768.4	78.40
768.6	78.81
768.8	76.90
769.0	76.04
769.2	76.44
769.4	74.63
769.6	75.12
769.8	75.91
770.0	74.39
770.2	73.48
770.4	72.80
770.6	71.51
770.8	72.09
771.0	71.05
771.2	70.24
771.4	69.24
771.6	68.24
771.8	68.11
772.0	68.82
772.2	68.76
772.4	68.03
772.6	65.99
772.8	63.95
773.0	63.01
773.2	63.49
773.4	64.56
773.6	64.43
773.8	63.46
774.0	62.17
774.2	60.72
774.4	60.34
774.6	61.10
774.8	61.10
775.0	61.52
775.2	62.30
775.4	61.54
775.6	60.69
775.8	60.56
776.0	59.04
776.2	58.51
776.4	58.77
776.6	57.32
776.8	56.14
777.0	54.69
777.2	55.12
777.4	55.52
777.6	56.64
777.8	56.15
778.0	55.90
778.2	54.29
778.4	55.38
778.6	54.84
778.8	54.63
779.0	53.38
779.2	52.71
779.4	51.54
779.6	51.11
779.8	49.77
780.0	48.06
780.2	47.34
780.4	47.04
780.6	47.18
780.8	47.68
781.0	48.19
781.2	48.98
781.4	49.88
781.6	49.14
781.8	49.13
782.0	48.26
782.2	46.70
782.4	45.93
782.6	44.84
782.8	43.29
783.0	44.24
783.2	44.65
783.4	44.67
783.6	45.36
783.8	45.30
784.0	44.42
784.2	44.01
784.4	43.31
784.6	43.74
784.8	44.38
785.0	44.10
785.2	43.85
785.4	42.03
785.6	40.56
785.8	41.17
786.0	41.10
786.2	42.02
786.4	42.73
786.6	41.18
786.8	40.63
787.0	40.46
787.2	40.04
787.4	41.57
787.6	42.51
787.8	41.59
788.0	40.74
788.2	39.56
788.4	39.07
788.6	39.51
788.8	39.65
789.0	39.48
789.2	39.45
789.4	39.00
789.6	38.59
789.8	37.57
790.0	36.60
790.2	35.99
790.4	35.91
790.6	36.18
790.8	37.26
791.0	37.70
791.2	38.21
791.4	37.95
791.6	37.07
791.8	36.83
792.0	36.31
792.2	35.53
792.4	35.18
792.6	35.19
792.8	35.79
793.0	35.13
793.2	34.97
793.4	35.15
793.6	34.85
793.8	35.11
794.0	35.89
794.2	34.06
794.4	33.24
794.6	33.23
794.8	33.06
795.0	34.12
795.2	34.44
795.4	33.75
795.6	32.94
795.8	33.11
796.0	32.89
796.2	33.32
796.4	32.76
796.6	32.63
796.8	33.09
797.0	33.32
797.2	33.02
797.4	31.94
797.6	30.25
797.8	29.35
798.0	30.34
798.2	32.04
798.4	33.47
798.6	34.39
798.8	33.44
799.0	32.55
799.2	32.22
799.4	31.44
799.6	31.00
799.8	29.94
800.0	28.81
800.2	28.13
800.4	27.83
800.6	27.85
800.8	28.31
801.0	28.13
801.2	29.35
801.4	29.53
801.6	29.53
801.8	28.84
802.0	27.46
802.2	27.34
802.4	27.74
802.6	28.42
802.8	29.02
803.0	28.56
803.2	27.72
803.4	27.03
803.6	27.24
803.8	27.75
804.0	27.36
804.2	28.13
804.4	27.63
804.6	26.90
804.8	27.45
805.0	27.98
805.2	27.36
805.4	28.09
805.6	28.20
805.8	28.13
806.0	27.07
806.2	26.52
806.4	25.52
806.6	25.15
806.8	25.71
807.0	26.17
807.2	26.26
807.4	26.02
807.6	25.61
807.8	25.97
808.0	25.11
808.2	25.03
808.4	24.50
808.6	23.97
808.8	23.67
809.0	23.71
809.2	23.94
809.4	24.99
809.6	23.92
809.8	24.05
810.0	23.75
810.2	23.14
810.4	23.94
810.6	24.24
810.8	23.73
811.0	23.77
811.2	23.82
811.4	23.91
811.6	23.79
811.8	24.02
812.0	23.36
812.2	23.31
812.4	23.22
812.6	22.89
812.8	21.38
813.0	21.25
813.2	20.75
813.4	21.26
813.6	22.01
813.8	22.31
814.0	21.72
814.2	21.44
814.4	21.17
814.6	20.83
814.8	20.75
815.0	20.29
815.2	19.84
815.4	19.82
815.6	20.52
815.8	20.89
816.0	21.55
816.2	21.33
816.4	20.60
816.6	20.25
816.8	19.46
817.0	18.19
817.2	18.24
817.4	18.67
817.6	19.75
817.8	20.63
818.0	20.23
818.2	19.38
818.4	18.85
818.6	17.99
818.8	18.17
819.0	18.20
819.2	18.43
819.4	18.99
819.6	18.54
819.8	17.64
820.0	17.12
820.2	17.02
820.4	17.31
820.6	17.79
820.8	17.15
821.0	16.28
821.2	15.45
821.4	15.23
821.6	15.40
821.8	16.12
822.0	16.37
822.2	15.66
822.4	15.61
822.6	15.16
822.8	14.95
823.0	15.34
823.2	15.30
823.4	14.53
823.6	14.98
823.8	15.15
824.0	15.42
824.2	15.89
824.4	15.66
824.6	14.91
824.8	14.78
825.0	14.87
825.2	15.08
825.4	15.18
825.6	14.93
825.8	15.31
826.0	14.47
826.2	13.73
826.4	13.06
826.6	12.53
826.8	12.33
827.0	13.30
827.2	13.26
827.4	13.03
827.6	13.26
827.8	13.15
828.0	13.09
828.2	12.95
828.4	12.76
828.6	12.46
828.8	12.14
829.0	11.83
829.2	12.09
829.4	11.74
829.6	11.30
829.8	11.64
830.0	11.15
830.2	11.48
830.4	11.65
830.6	11.14
830.8	10.67
831.0	10.41
831.2	10.50
831.4	11.24
831.6	11.75
831.8	11.39
832.0	11.50
832.2	10.73
832.4	10.67
832.6	10.17
832.8	10.31
833.0	10.16
833.2	10.27
833.4	10.07
833.6	9.919
833.8	9.359
834.0	9.589
834.2	9.781
834.4	9.479
834.6	9.395
834.8	9.061
835.0	8.945
835.2	8.780
835.4	8.712
835.6	8.311
835.8	8.361
836.0	8.621
836.2	8.771
836.4	8.861
836.6	8.923
836.8	8.449
837.0	7.999
837.2	8.018
837.4	8.102
837.6	8.384
837.8	8.181
838.0	7.689
838.2	7.052
838.4	7.282
838.6	7.829
838.8	7.948
839.0	8.052
839.2	7.866
839.4	7.555
839.6	7.739
839.8	7.577
840.0	7.176
840.2	7.337
840.4	7.276
840.6	7.029
840.8	6.757
841.0	6.429
841.2	6.565
841.4	6.646
841.6	6.677
841.8	6.200
842.0	5.967
842.2	5.877
842.4	6.106
842.6	5.952
842.8	5.699
843.0	5.405
843.2	5.720
843.4	5.838
843.6	5.765
843.8	5.591
844.0	5.382
844.2	5.250
844.4	5.191
844.6	5.387
844.8	5.444
845.0	5.562
845.2	5.503
845.4	5.600
845.6	5.399
845.8	5.334
846.0	5.043
846.2	4.907
846.4	4.502
846.6	4.373
846.8	4.329
847.0	4.560
847.2	4.632
847.4	4.999
847.6	4.883
847.8	4.402
848.0	4.173
848.2	4.172
848.4	3.999
848.6	3.885
848.8	3.626
849.0	3.523
849.2	3.878
849.4	4.076
849.6	4.145
849.8	3.885
850.0	3.481
850.2	3.124
850.4	3.391
850.6	3.613
850.8	3.905
851.0	4.076
