Sample:	'20211010A(EM)
File name:	B-NI 4.FDS
Run date:	'08:32:40, 06/20/2023
Operator:	Administrator
Comment:	'

Instrument
Model:	F-4700 FL Spectrophotometer
Serial number:	2019-001
ROM Version:	5J24010 00

Instrument parameters
Measurement type:	Wavelength scan
Scan mode:	Emission
Data mode:	Fluorescence
EX WL:	350.0 nm
EM  Start WL:	370.0 nm
EM  End WL:	700.0 nm
Scan speed:	1200 nm/min
Delay:	0.0 s
EX Slit:	10.0 nm
EM Slit:	10.0 nm
PMT Voltage:	300 V
Response:	0.002 s
Corrected spectra:	Off
Shutter control:	On

Processing performed
Savitsky-Golay smoothed
Smoothing order:	3
Number of points:	7
Number of times:	1

Peak integration
Integration method:	Rectangular
Sensitivity:	1
Threshold:	1.000

Peaks
No.	Start(nm)	Apex(nm)	End(nm)	Height(Data)	Valley(nm)	Valley(Data)
1	370.0	458.4	460.6	792.8	460.6	788.9
2	460.6	461.6	700.0	792.4	700.0	1.055

Data points
nm	Data
370.0	0.754
370.2	0.813
370.4	0.824
370.6	0.815
370.8	0.838
371.0	0.865
371.2	0.881
371.4	0.885
371.6	0.867
371.8	0.879
372.0	0.917
372.2	0.925
372.4	0.925
372.6	0.934
372.8	0.925
373.0	0.938
373.2	0.971
373.4	1.004
373.6	1.028
373.8	1.019
374.0	0.966
374.2	0.932
374.4	0.954
374.6	1.030
374.8	1.058
375.0	1.071
375.2	1.050
375.4	1.073
375.6	1.090
375.8	1.125
376.0	1.129
376.2	1.180
376.4	1.165
376.6	1.187
376.8	1.162
377.0	1.178
377.2	1.187
377.4	1.239
377.6	1.276
377.8	1.329
378.0	1.340
378.2	1.374
378.4	1.373
378.6	1.391
378.8	1.431
379.0	1.467
379.2	1.484
379.4	1.473
379.6	1.451
379.8	1.449
380.0	1.476
380.2	1.520
380.4	1.559
380.6	1.566
380.8	1.582
381.0	1.603
381.2	1.622
381.4	1.664
381.6	1.701
381.8	1.747
382.0	1.790
382.2	1.821
382.4	1.814
382.6	1.869
382.8	1.908
383.0	1.984
383.2	2.006
383.4	2.026
383.6	2.019
383.8	2.091
384.0	2.110
384.2	2.188
384.4	2.194
384.6	2.276
384.8	2.328
385.0	2.424
385.2	2.420
385.4	2.479
385.6	2.531
385.8	2.640
386.0	2.671
386.2	2.707
386.4	2.669
386.6	2.705
386.8	2.759
387.0	2.847
387.2	2.877
387.4	2.962
387.6	3.044
387.8	3.132
388.0	3.161
388.2	3.221
388.4	3.255
388.6	3.329
388.8	3.455
389.0	3.572
389.2	3.659
389.4	3.789
389.6	3.887
389.8	3.980
390.0	4.096
390.2	4.184
390.4	4.235
390.6	4.342
390.8	4.428
391.0	4.513
391.2	4.651
391.4	4.785
391.6	4.868
391.8	4.957
392.0	5.090
392.2	5.200
392.4	5.423
392.6	5.576
392.8	5.718
393.0	5.856
393.2	6.033
393.4	6.145
393.6	6.306
393.8	6.466
394.0	6.724
394.2	7.019
394.4	7.285
394.6	7.430
394.8	7.586
395.0	7.799
395.2	8.091
395.4	8.338
395.6	8.590
395.8	8.836
396.0	9.117
396.2	9.414
396.4	9.720
396.6	10.02
396.8	10.35
397.0	10.67
397.2	10.94
397.4	11.27
397.6	11.57
397.8	11.89
398.0	12.28
398.2	12.73
398.4	13.16
398.6	13.69
398.8	14.11
399.0	14.55
399.2	15.08
399.4	15.62
399.6	16.06
399.8	16.60
400.0	17.14
400.2	17.73
400.4	18.37
400.6	19.04
400.8	19.63
401.0	20.36
401.2	20.98
401.4	21.64
401.6	22.41
401.8	23.20
402.0	23.93
402.2	24.81
402.4	25.52
402.6	26.23
402.8	27.06
403.0	27.87
403.2	28.62
403.4	29.59
403.6	30.51
403.8	31.52
404.0	32.54
404.2	33.73
404.4	34.86
404.6	36.16
404.8	37.27
405.0	38.43
405.2	39.43
405.4	40.69
405.6	42.06
405.8	43.59
406.0	44.85
406.2	46.03
406.4	47.33
406.6	48.89
406.8	50.51
407.0	52.27
407.2	53.84
407.4	55.43
407.6	57.04
407.8	58.73
408.0	60.29
408.2	62.18
408.4	63.89
408.6	65.68
408.8	67.42
409.0	69.23
409.2	71.26
409.4	73.61
409.6	75.77
409.8	78.19
410.0	80.55
410.2	82.75
410.4	85.30
410.6	87.64
410.8	89.66
411.0	91.87
411.2	94.09
411.4	96.44
411.6	99.03
411.8	101.6
412.0	104.1
412.2	106.7
412.4	109.4
412.6	112.4
412.8	115.1
413.0	118.2
413.2	121.2
413.4	124.2
413.6	127.3
413.8	130.1
414.0	132.9
414.2	135.9
414.4	139.2
414.6	142.6
414.8	146.2
415.0	149.6
415.2	153.0
415.4	156.4
415.6	159.6
415.8	163.2
416.0	166.7
416.2	170.2
416.4	173.7
416.6	177.5
416.8	181.2
417.0	185.2
417.2	188.7
417.4	192.4
417.6	195.9
417.8	199.6
418.0	203.6
418.2	207.6
418.4	211.7
418.6	215.9
418.8	219.6
419.0	223.3
419.2	227.2
419.4	231.7
419.6	236.2
419.8	240.8
420.0	245.4
420.2	249.6
420.4	253.6
420.6	258.5
420.8	262.5
421.0	266.8
421.2	271.1
421.4	275.0
421.6	279.1
421.8	284.1
422.0	288.7
422.2	293.4
422.4	298.4
422.6	302.8
422.8	306.8
423.0	311.5
423.2	315.4
423.4	319.8
423.6	324.5
423.8	328.8
424.0	333.0
424.2	337.7
424.4	342.1
424.6	346.7
424.8	351.7
425.0	357.2
425.2	362.1
425.4	367.2
425.6	371.8
425.8	376.0
426.0	381.2
426.2	386.9
426.4	390.8
426.6	395.0
426.8	399.2
427.0	403.4
427.2	408.8
427.4	414.0
427.6	418.2
427.8	423.6
428.0	428.4
428.2	432.9
428.4	437.1
428.6	440.9
428.8	444.6
429.0	449.5
429.2	454.1
429.4	459.3
429.6	464.6
429.8	469.1
430.0	473.7
430.2	478.3
430.4	483.3
430.6	488.5
430.8	492.5
431.0	496.2
431.2	500.6
431.4	505.4
431.6	510.5
431.8	514.4
432.0	517.1
432.2	520.4
432.4	524.9
432.6	530.0
432.8	535.3
433.0	539.5
433.2	543.7
433.4	547.5
433.6	551.0
433.8	554.7
434.0	558.0
434.2	561.1
434.4	564.7
434.6	568.7
434.8	573.3
435.0	577.9
435.2	582.0
435.4	585.8
435.6	589.0
435.8	592.2
436.0	596.9
436.2	601.6
436.4	606.0
436.6	610.3
436.8	613.4
437.0	616.0
437.2	619.5
437.4	623.7
437.6	626.9
437.8	631.2
438.0	634.1
438.2	637.3
438.4	640.2
438.6	643.7
438.8	645.5
439.0	648.9
439.2	652.0
439.4	654.2
439.6	656.9
439.8	660.8
440.0	663.8
440.2	668.3
440.4	671.1
440.6	673.2
440.8	676.7
441.0	680.1
441.2	682.9
441.4	685.6
441.6	686.6
441.8	688.9
442.0	691.7
442.2	695.2
442.4	697.8
442.6	699.7
442.8	700.9
443.0	701.7
443.2	703.4
443.4	706.7
443.6	710.8
443.8	714.5
444.0	718.5
444.2	720.0
444.4	720.2
444.6	720.5
444.8	721.9
445.0	724.7
445.2	729.1
445.4	732.1
445.6	732.5
445.8	733.2
446.0	734.1
446.2	736.8
446.4	739.2
446.6	740.8
446.8	741.6
447.0	743.4
447.2	744.9
447.4	746.9
447.6	749.2
447.8	749.6
448.0	751.2
448.2	754.1
448.4	755.0
448.6	756.0
448.8	758.4
449.0	759.6
449.2	761.9
449.4	764.3
449.6	763.8
449.8	762.6
450.0	763.7
450.2	765.1
450.4	768.4
450.6	770.7
450.8	770.9
451.0	770.7
451.2	771.4
451.4	772.9
451.6	775.0
451.8	776.3
452.0	776.5
452.2	777.4
452.4	779.1
452.6	781.1
452.8	781.7
453.0	782.1
453.2	781.5
453.4	781.5
453.6	782.3
453.8	783.4
454.0	784.3
454.2	785.8
454.4	785.9
454.6	786.4
454.8	785.7
455.0	785.8
455.2	786.4
455.4	787.5
455.6	788.5
455.8	789.9
456.0	790.0
456.2	790.4
456.4	791.9
456.6	791.5
456.8	791.4
457.0	790.8
457.2	790.5
457.4	790.9
457.6	791.8
457.8	792.0
458.0	792.4
458.2	792.6
458.4	792.8
458.6	791.6
458.8	791.2
459.0	791.7
459.2	791.7
459.4	792.0
459.6	791.5
459.8	791.6
460.0	790.3
460.2	789.5
460.4	789.3
460.6	788.9
460.8	789.7
461.0	790.9
461.2	790.7
461.4	791.8
461.6	792.4
461.8	791.4
462.0	790.6
462.2	789.2
462.4	789.2
462.6	789.9
462.8	789.8
463.0	788.3
463.2	786.8
463.4	786.3
463.6	786.2
463.8	785.1
464.0	784.1
464.2	782.1
464.4	781.4
464.6	781.3
464.8	781.3
465.0	780.4
465.2	779.0
465.4	777.8
465.6	776.1
465.8	775.0
466.0	773.9
466.2	773.2
466.4	773.2
466.6	773.1
466.8	771.9
467.0	771.9
467.2	770.8
467.4	769.8
467.6	768.0
467.8	765.8
468.0	763.8
468.2	763.2
468.4	763.8
468.6	764.4
468.8	761.9
469.0	758.9
469.2	754.8
469.4	751.8
469.6	751.7
469.8	753.6
470.0	753.9
470.2	752.5
470.4	749.7
470.6	745.9
470.8	743.4
471.0	743.0
471.2	741.9
471.4	741.2
471.6	741.3
471.8	740.2
472.0	739.5
472.2	737.6
472.4	734.3
472.6	731.4
472.8	729.7
473.0	729.3
473.2	729.2
473.4	729.1
473.6	728.2
473.8	725.8
474.0	723.5
474.2	720.8
474.4	718.5
474.6	717.2
474.8	716.4
475.0	713.8
475.2	710.7
475.4	707.7
475.6	706.6
475.8	705.4
476.0	705.1
476.2	703.1
476.4	701.4
476.6	700.1
476.8	698.4
477.0	696.4
477.2	694.6
477.4	693.0
477.6	691.6
477.8	689.9
478.0	687.7
478.2	684.6
478.4	682.0
478.6	680.7
478.8	678.8
479.0	677.2
479.2	676.7
479.4	674.9
479.6	671.9
479.8	669.9
480.0	668.1
480.2	665.4
480.4	664.6
480.6	663.9
480.8	661.2
481.0	659.0
481.2	657.5
481.4	655.0
481.6	653.3
481.8	652.0
482.0	649.3
482.2	646.2
482.4	644.5
482.6	643.4
482.8	642.0
483.0	641.0
483.2	640.2
483.4	638.1
483.6	636.2
483.8	633.9
484.0	631.1
484.2	628.7
484.4	627.6
484.6	625.0
484.8	622.8
485.0	621.2
485.2	619.7
485.4	617.2
485.6	615.4
485.8	613.4
486.0	611.1
486.2	609.3
486.4	607.3
486.6	605.4
486.8	603.9
487.0	601.5
487.2	599.3
487.4	596.8
487.6	595.0
487.8	593.0
488.0	591.3
488.2	588.7
488.4	588.4
488.6	586.6
488.8	584.1
489.0	580.4
489.2	577.5
489.4	575.7
489.6	575.2
489.8	573.2
490.0	570.6
490.2	567.7
490.4	564.2
490.6	562.5
490.8	561.7
491.0	560.8
491.2	559.8
491.4	558.1
491.6	555.0
491.8	551.9
492.0	549.6
492.2	547.4
492.4	545.3
492.6	543.2
492.8	541.5
493.0	538.9
493.2	536.9
493.4	535.4
493.6	533.3
493.8	531.5
494.0	530.0
494.2	527.3
494.4	525.0
494.6	523.1
494.8	520.3
495.0	517.7
495.2	514.9
495.4	512.5
495.6	510.9
495.8	509.5
496.0	507.1
496.2	504.7
496.4	502.4
496.6	500.1
496.8	497.9
497.0	497.1
497.2	495.7
497.4	493.8
497.6	492.3
497.8	489.4
498.0	486.5
498.2	484.6
498.4	482.2
498.6	480.1
498.8	478.4
499.0	475.8
499.2	474.1
499.4	471.3
499.6	468.7
499.8	466.6
500.0	463.9
500.2	462.0
500.4	460.4
500.6	457.6
500.8	456.0
501.0	454.4
501.2	452.5
501.4	450.6
501.6	447.7
501.8	445.2
502.0	442.8
502.2	441.4
502.4	439.7
502.6	437.6
502.8	434.8
503.0	432.4
503.2	430.1
503.4	428.4
503.6	425.9
503.8	423.8
504.0	420.5
504.2	418.5
504.4	417.4
504.6	416.3
504.8	414.7
505.0	412.5
505.2	409.9
505.4	407.3
505.6	404.5
505.8	402.6
506.0	401.4
506.2	399.6
506.4	398.6
506.6	396.6
506.8	394.3
507.0	392.5
507.2	390.9
507.4	388.3
507.6	385.8
507.8	383.6
508.0	381.6
508.2	380.1
508.4	377.9
508.6	375.9
508.8	373.7
509.0	371.8
509.2	370.0
509.4	367.8
509.6	365.5
509.8	364.1
510.0	362.5
510.2	360.6
510.4	358.8
510.6	356.8
510.8	354.8
511.0	352.3
511.2	349.8
511.4	347.5
511.6	345.9
511.8	344.4
512.0	342.5
512.2	340.6
512.4	339.1
512.6	337.0
512.8	335.4
513.0	333.4
513.2	331.7
513.4	330.1
513.6	328.4
513.8	326.4
514.0	325.2
514.2	323.4
514.4	322.0
514.6	320.6
514.8	318.6
515.0	316.9
515.2	315.4
515.4	313.3
515.6	311.7
515.8	309.8
516.0	308.0
516.2	306.0
516.4	304.4
516.6	303.0
516.8	301.1
517.0	298.9
517.2	296.9
517.4	294.9
517.6	293.5
517.8	292.1
518.0	290.5
518.2	288.9
518.4	287.7
518.6	286.5
518.8	285.1
519.0	283.3
519.2	281.6
519.4	280.0
519.6	278.4
519.8	276.8
520.0	275.3
520.2	273.8
520.4	272.4
520.6	270.5
520.8	268.4
521.0	266.8
521.2	265.9
521.4	264.9
521.6	263.4
521.8	261.3
522.0	259.9
522.2	258.4
522.4	257.2
522.6	255.9
522.8	254.4
523.0	253.0
523.2	252.6
523.4	251.4
523.6	249.9
523.8	247.9
524.0	246.3
524.2	244.7
524.4	243.6
524.6	242.1
524.8	240.7
525.0	238.8
525.2	237.1
525.4	235.6
525.6	234.4
525.8	233.1
526.0	232.3
526.2	231.1
526.4	229.7
526.6	228.4
526.8	227.0
527.0	225.5
527.2	224.2
527.4	222.8
527.6	221.6
527.8	220.5
528.0	219.2
528.2	217.7
528.4	216.2
528.6	214.9
528.8	213.7
529.0	212.4
529.2	211.3
529.4	210.1
529.6	209.1
529.8	208.0
530.0	206.8
530.2	205.6
530.4	204.4
530.6	203.2
530.8	201.7
531.0	200.4
531.2	199.5
531.4	198.9
531.6	198.0
531.8	196.7
532.0	195.3
532.2	194.1
532.4	193.0
532.6	192.1
532.8	190.8
533.0	189.5
533.2	188.4
533.4	187.3
533.6	186.4
533.8	185.5
534.0	184.6
534.2	183.9
534.4	182.7
534.6	181.7
534.8	180.1
535.0	178.5
535.2	177.7
535.4	177.0
535.6	175.9
535.8	175.2
536.0	173.5
536.2	172.1
536.4	171.4
536.6	170.3
536.8	169.4
537.0	168.4
537.2	167.5
537.4	166.4
537.6	165.7
537.8	164.8
538.0	163.9
538.2	163.1
538.4	162.6
538.6	161.5
538.8	160.3
539.0	159.1
539.2	157.6
539.4	156.6
539.6	155.8
539.8	154.9
540.0	154.0
540.2	152.8
540.4	151.6
540.6	150.3
540.8	149.7
541.0	148.7
541.2	148.3
541.4	147.5
541.6	147.2
541.8	146.4
542.0	145.6
542.2	144.3
542.4	143.4
542.6	142.2
542.8	141.6
543.0	140.5
543.2	139.6
543.4	138.6
543.6	138.2
543.8	137.2
544.0	136.5
544.2	135.2
544.4	134.3
544.6	133.4
544.8	132.9
545.0	132.2
545.2	131.9
545.4	130.6
545.6	129.3
545.8	128.2
546.0	127.4
546.2	126.8
546.4	126.3
546.6	125.3
546.8	124.5
547.0	123.9
547.2	123.3
547.4	122.6
547.6	121.9
547.8	121.1
548.0	120.5
548.2	119.8
548.4	119.1
548.6	118.2
548.8	117.6
549.0	116.5
549.2	115.8
549.4	115.3
549.6	114.9
549.8	114.2
550.0	113.7
550.2	112.5
550.4	111.7
550.6	111.1
550.8	110.6
551.0	109.8
551.2	109.1
551.4	108.0
551.6	107.3
551.8	106.9
552.0	106.4
552.2	106.0
552.4	105.4
552.6	104.4
552.8	103.5
553.0	102.8
553.2	102.0
553.4	101.4
553.6	100.8
553.8	100.3
554.0	100.1
554.2	99.59
554.4	98.84
554.6	97.80
554.8	96.97
555.0	95.98
555.2	95.53
555.4	94.88
555.6	94.41
555.8	94.02
556.0	93.73
556.2	93.19
556.4	92.66
556.6	91.74
556.8	91.08
557.0	90.40
557.2	89.97
557.4	89.28
557.6	88.33
557.8	87.51
558.0	86.96
558.2	86.47
558.4	86.33
558.6	85.68
558.8	85.35
559.0	84.76
559.2	83.90
559.4	83.27
559.6	82.53
559.8	82.00
560.0	82.00
560.2	81.53
560.4	80.92
560.6	80.43
560.8	79.70
561.0	79.34
561.2	78.76
561.4	78.19
561.6	77.63
561.8	77.28
562.0	76.82
562.2	76.50
562.4	75.92
562.6	75.56
562.8	74.94
563.0	74.47
563.2	73.85
563.4	73.36
563.6	72.93
563.8	72.63
564.0	71.99
564.2	71.45
564.4	70.94
564.6	70.55
564.8	70.24
565.0	69.79
565.2	69.19
565.4	68.85
565.6	68.39
565.8	68.05
566.0	67.77
566.2	67.28
566.4	66.76
566.6	66.13
566.8	65.22
567.0	64.67
567.2	64.46
567.4	64.40
567.6	64.23
567.8	63.76
568.0	63.16
568.2	62.82
568.4	62.52
568.6	62.29
568.8	61.93
569.0	61.38
569.2	60.97
569.4	60.64
569.6	60.20
569.8	59.77
570.0	59.33
570.2	58.76
570.4	58.50
570.6	58.00
570.8	57.65
571.0	57.41
571.2	57.06
571.4	56.64
571.6	56.30
571.8	55.72
572.0	55.24
572.2	55.00
572.4	54.67
572.6	54.45
572.8	54.15
573.0	53.81
573.2	53.38
573.4	53.01
573.6	52.68
573.8	52.43
574.0	51.93
574.2	51.41
574.4	50.84
574.6	50.46
574.8	50.32
575.0	50.19
575.2	49.93
575.4	49.76
575.6	49.37
575.8	49.14
576.0	48.99
576.2	48.54
576.4	48.04
576.6	47.61
576.8	47.28
577.0	47.15
577.2	47.07
577.4	46.92
577.6	46.64
577.8	46.23
578.0	45.96
578.2	45.63
578.4	45.08
578.6	44.77
578.8	44.31
579.0	43.98
579.2	43.73
579.4	43.50
579.6	43.28
579.8	43.27
580.0	42.94
580.2	42.64
580.4	42.19
580.6	41.87
580.8	41.57
581.0	41.50
581.2	41.21
581.4	40.97
581.6	40.58
581.8	40.45
582.0	40.19
582.2	40.12
582.4	39.88
582.6	39.56
582.8	39.22
583.0	38.86
583.2	38.45
583.4	38.27
583.6	37.93
583.8	37.72
584.0	37.57
584.2	37.41
584.4	37.29
584.6	37.19
584.8	36.89
585.0	36.55
585.2	36.13
585.4	35.81
585.6	35.66
585.8	35.40
586.0	35.22
586.2	35.12
586.4	34.83
586.6	34.66
586.8	34.60
587.0	34.22
587.2	34.16
587.4	34.02
587.6	33.60
587.8	33.21
588.0	32.91
588.2	32.58
588.4	32.63
588.6	32.53
588.8	32.34
589.0	31.89
589.2	31.66
589.4	31.40
589.6	31.28
589.8	31.07
590.0	31.02
590.2	30.82
590.4	30.67
590.6	30.40
590.8	30.20
591.0	29.83
591.2	29.82
591.4	29.74
591.6	29.55
591.8	29.30
592.0	29.07
592.2	28.69
592.4	28.44
592.6	28.27
592.8	28.23
593.0	28.17
593.2	28.19
593.4	28.05
593.6	27.80
593.8	27.56
594.0	27.25
594.2	26.88
594.4	26.64
594.6	26.43
594.8	26.41
595.0	26.56
595.2	26.49
595.4	26.33
595.6	25.97
595.8	25.65
596.0	25.37
596.2	25.29
596.4	25.25
596.6	25.09
596.8	24.85
597.0	24.63
597.2	24.44
597.4	24.33
597.6	24.35
597.8	24.20
598.0	24.07
598.2	23.82
598.4	23.74
598.6	23.51
598.8	23.25
599.0	23.13
599.2	23.08
599.4	22.98
599.6	22.94
599.8	22.77
600.0	22.43
600.2	22.19
600.4	22.05
600.6	21.88
600.8	21.83
601.0	21.89
601.2	21.71
601.4	21.40
601.6	21.17
601.8	20.94
602.0	20.82
602.2	20.84
602.4	20.65
602.6	20.49
602.8	20.40
603.0	20.31
603.2	20.08
603.4	19.95
603.6	19.79
603.8	19.74
604.0	19.64
604.2	19.51
604.4	19.27
604.6	19.07
604.8	18.99
605.0	18.98
605.2	18.90
605.4	18.79
605.6	18.71
605.8	18.53
606.0	18.39
606.2	18.19
606.4	18.00
606.6	17.90
606.8	17.79
607.0	17.66
607.2	17.60
607.4	17.52
607.6	17.53
607.8	17.50
608.0	17.31
608.2	17.08
608.4	16.95
608.6	16.81
608.8	16.78
609.0	16.66
609.2	16.54
609.4	16.37
609.6	16.26
609.8	16.05
610.0	15.89
610.2	15.69
610.4	15.60
610.6	15.53
610.8	15.48
611.0	15.48
611.2	15.43
611.4	15.21
611.6	15.06
611.8	14.97
612.0	14.82
612.2	14.80
612.4	14.78
612.6	14.64
612.8	14.61
613.0	14.53
613.2	14.48
613.4	14.39
613.6	14.23
613.8	14.03
614.0	13.85
614.2	13.67
614.4	13.69
614.6	13.67
614.8	13.69
615.0	13.62
615.2	13.37
615.4	13.14
615.6	13.03
615.8	12.97
616.0	13.06
616.2	13.05
616.4	12.99
616.6	12.90
616.8	12.77
617.0	12.64
617.2	12.57
617.4	12.48
617.6	12.48
617.8	12.44
618.0	12.24
618.2	12.11
618.4	11.97
618.6	11.90
618.8	11.86
619.0	11.79
619.2	11.60
619.4	11.52
619.6	11.46
619.8	11.46
620.0	11.40
620.2	11.27
620.4	11.10
620.6	11.05
620.8	11.06
621.0	11.02
621.2	10.96
621.4	10.85
621.6	10.66
621.8	10.63
622.0	10.63
622.2	10.52
622.4	10.45
622.6	10.41
622.8	10.33
623.0	10.40
623.2	10.34
623.4	10.24
623.6	10.10
623.8	9.977
624.0	9.851
624.2	9.789
624.4	9.663
624.6	9.598
624.8	9.514
625.0	9.461
625.2	9.393
625.4	9.327
625.6	9.232
625.8	9.195
626.0	9.113
626.2	9.081
626.4	9.113
626.6	9.053
626.8	8.977
627.0	8.951
627.2	8.850
627.4	8.781
627.6	8.714
627.8	8.565
628.0	8.506
628.2	8.458
628.4	8.382
628.6	8.400
628.8	8.339
629.0	8.321
629.2	8.303
629.4	8.232
629.6	8.124
629.8	8.065
630.0	8.027
630.2	8.027
630.4	7.985
630.6	7.892
630.8	7.772
631.0	7.637
631.2	7.609
631.4	7.565
631.6	7.558
631.8	7.485
632.0	7.448
632.2	7.386
632.4	7.356
632.6	7.362
632.8	7.348
633.0	7.233
633.2	7.165
633.4	7.099
633.6	7.062
633.8	7.043
634.0	7.030
634.2	6.930
634.4	6.864
634.6	6.841
634.8	6.803
635.0	6.750
635.2	6.732
635.4	6.644
635.6	6.590
635.8	6.578
636.0	6.547
636.2	6.495
636.4	6.452
636.6	6.344
636.8	6.255
637.0	6.203
637.2	6.151
637.4	6.094
637.6	6.110
637.8	6.104
638.0	6.124
638.2	6.085
638.4	6.024
638.6	5.876
638.8	5.804
639.0	5.794
639.2	5.824
639.4	5.820
639.6	5.810
639.8	5.695
640.0	5.665
640.2	5.604
640.4	5.525
640.6	5.486
640.8	5.452
641.0	5.387
641.2	5.420
641.4	5.390
641.6	5.311
641.8	5.262
642.0	5.250
642.2	5.249
642.4	5.205
642.6	5.130
642.8	5.030
643.0	4.958
643.2	5.000
643.4	5.073
643.6	5.051
643.8	5.057
644.0	4.990
644.2	4.903
644.4	4.835
644.6	4.771
644.8	4.738
645.0	4.769
645.2	4.726
645.4	4.701
645.6	4.663
645.8	4.629
646.0	4.614
646.2	4.594
646.4	4.550
646.6	4.473
646.8	4.446
647.0	4.398
647.2	4.398
647.4	4.388
647.6	4.369
647.8	4.303
648.0	4.255
648.2	4.191
648.4	4.190
648.6	4.196
648.8	4.211
649.0	4.172
649.2	4.127
649.4	4.085
649.6	3.981
649.8	3.948
650.0	3.941
650.2	3.907
650.4	3.908
650.6	3.918
650.8	3.874
651.0	3.901
651.2	3.883
651.4	3.834
651.6	3.773
651.8	3.727
652.0	3.673
652.2	3.674
652.4	3.642
652.6	3.632
652.8	3.636
653.0	3.662
653.2	3.646
653.4	3.626
653.6	3.583
653.8	3.536
654.0	3.473
654.2	3.422
654.4	3.411
654.6	3.378
654.8	3.402
655.0	3.409
655.2	3.407
655.4	3.338
655.6	3.321
655.8	3.253
656.0	3.229
656.2	3.212
656.4	3.214
656.6	3.204
656.8	3.214
657.0	3.197
657.2	3.190
657.4	3.147
657.6	3.106
657.8	3.068
658.0	3.041
658.2	2.987
658.4	2.979
658.6	2.951
658.8	2.925
659.0	2.916
659.2	2.930
659.4	2.908
659.6	2.939
659.8	2.956
660.0	2.922
660.2	2.891
660.4	2.828
660.6	2.760
660.8	2.716
661.0	2.684
661.2	2.671
661.4	2.663
661.6	2.681
661.8	2.665
662.0	2.643
662.2	2.601
662.4	2.581
662.6	2.593
662.8	2.617
663.0	2.569
663.2	2.529
