Sample:	'20211010A(EM)
File name:	600.FDS
Run date:	'16:05:35, 03/23/2023
Operator:	Administrator
Comment:	'

Instrument
Model:	F-4700 FL Spectrophotometer
Serial number:	2019-001
ROM Version:	5J24010 00

Instrument parameters
Measurement type:	Wavelength scan
Scan mode:	Emission
Data mode:	Fluorescence
EX WL:	400.0 nm
EM  Start WL:	420.0 nm
EM  End WL:	850.0 nm
Scan speed:	1200 nm/min
Delay:	0.0 s
EX Slit:	10.0 nm
EM Slit:	10.0 nm
PMT Voltage:	465 V
Response:	0.002 s
Corrected spectra:	Off
Shutter control:	On

Processing performed
Savitsky-Golay smoothed
Smoothing order:	3
Number of points:	7
Number of times:	1

Peak integration
Integration method:	Rectangular
Sensitivity:	1
Threshold:	1.000

Peaks
No.	Start(nm)	Apex(nm)	End(nm)	Height(Data)	Valley(nm)	Valley(Data)
1	420.0	548.0	551.6	5727	551.6	5694
2	551.6	552.6	779.6	5705	779.6	6.980
3	779.6	799.4	850.0	19.64	850.0	1.771

Data points
nm	Data
420.0	7.398
420.2	7.731
420.4	7.896
420.6	7.947
420.8	8.010
421.0	7.883
421.2	7.850
421.4	7.947
421.6	8.209
421.8	8.258
422.0	8.437
422.2	8.353
422.4	8.343
422.6	8.221
422.8	8.232
423.0	8.195
423.2	8.217
423.4	8.249
423.6	8.399
423.8	8.607
424.0	8.859
424.2	9.024
424.4	8.926
424.6	8.714
424.8	8.640
425.0	8.740
425.2	8.814
425.4	8.910
425.6	8.942
425.8	8.943
426.0	8.992
426.2	8.963
426.4	8.995
426.6	9.021
426.8	9.239
427.0	9.523
427.2	9.419
427.4	9.344
427.6	9.267
427.8	9.225
428.0	9.265
428.2	9.391
428.4	9.439
428.6	9.526
428.8	9.565
429.0	9.735
429.2	9.654
429.4	9.666
429.6	9.928
429.8	9.900
430.0	10.05
430.2	9.975
430.4	9.793
430.6	9.753
430.8	9.932
431.0	10.05
431.2	10.23
431.4	10.19
431.6	10.32
431.8	10.45
432.0	10.50
432.2	10.68
432.4	10.84
432.6	10.91
432.8	11.01
433.0	10.88
433.2	10.82
433.4	10.91
433.6	11.11
433.8	11.14
434.0	11.29
434.2	11.28
434.4	11.44
434.6	11.34
434.8	11.25
435.0	11.27
435.2	11.42
435.4	11.37
435.6	11.69
435.8	11.75
436.0	11.79
436.2	12.02
436.4	12.06
436.6	12.02
436.8	12.35
437.0	12.91
437.2	13.15
437.4	13.28
437.6	12.99
437.8	12.79
438.0	12.60
438.2	12.75
438.4	13.05
438.6	13.41
438.8	13.45
439.0	13.74
439.2	13.81
439.4	13.75
439.6	14.14
439.8	14.33
440.0	14.35
440.2	14.31
440.4	14.50
440.6	14.58
440.8	14.91
441.0	15.02
441.2	15.29
441.4	15.51
441.6	15.92
441.8	16.02
442.0	15.96
442.2	16.04
442.4	16.23
442.6	16.46
442.8	16.45
443.0	16.45
443.2	16.43
443.4	16.74
443.6	16.96
443.8	17.44
444.0	17.60
444.2	17.94
444.4	18.21
444.6	18.31
444.8	18.52
445.0	19.00
445.2	19.18
445.4	19.58
445.6	19.93
445.8	20.15
446.0	20.42
446.2	20.75
446.4	20.86
446.6	20.78
446.8	20.81
447.0	20.86
447.2	21.04
447.4	21.65
447.6	22.13
447.8	22.41
448.0	22.75
448.2	22.94
448.4	23.03
448.6	23.11
448.8	23.19
449.0	23.42
449.2	23.58
449.4	23.98
449.6	24.63
449.8	25.00
450.0	25.36
450.2	25.69
450.4	25.59
450.6	25.70
450.8	26.07
451.0	26.13
451.2	26.53
451.4	27.26
451.6	27.65
451.8	28.21
452.0	28.51
452.2	28.41
452.4	28.39
452.6	28.74
452.8	28.96
453.0	29.22
453.2	29.38
453.4	29.62
453.6	29.87
453.8	30.44
454.0	31.07
454.2	31.12
454.4	31.18
454.6	31.10
454.8	31.26
455.0	31.39
455.2	31.98
455.4	32.02
455.6	32.71
455.8	33.28
456.0	33.58
456.2	33.60
456.4	33.56
456.6	33.39
456.8	33.91
457.0	34.49
457.2	34.94
457.4	35.38
457.6	35.75
457.8	35.71
458.0	35.85
458.2	35.68
458.4	35.95
458.6	36.12
458.8	36.65
459.0	37.00
459.2	37.50
459.4	37.51
459.6	37.87
459.8	37.73
460.0	37.98
460.2	38.41
460.4	38.52
460.6	38.56
460.8	38.66
461.0	38.59
461.2	39.03
461.4	39.88
461.6	40.31
461.8	40.74
462.0	41.35
462.2	41.51
462.4	41.43
462.6	41.90
462.8	42.01
463.0	42.24
463.2	42.91
463.4	43.17
463.6	43.33
463.8	43.81
464.0	44.31
464.2	45.09
464.4	45.70
464.6	46.07
464.8	46.17
465.0	46.06
465.2	46.46
465.4	46.97
465.6	47.93
465.8	48.53
466.0	48.86
466.2	48.91
466.4	49.73
466.6	49.94
466.8	50.77
467.0	50.98
467.2	51.68
467.4	52.54
467.6	53.67
467.8	54.21
468.0	54.75
468.2	54.92
468.4	56.14
468.6	57.36
468.8	58.39
469.0	58.86
469.2	58.56
469.4	58.68
469.6	60.03
469.8	61.32
470.0	62.42
470.2	63.27
470.4	63.58
470.6	64.44
470.8	65.69
471.0	66.86
471.2	67.59
471.4	69.02
471.6	70.23
471.8	71.58
472.0	72.25
472.2	73.34
472.4	74.27
472.6	75.91
472.8	76.93
473.0	77.80
473.2	78.53
473.4	79.63
473.6	81.00
473.8	82.61
474.0	83.72
474.2	85.21
474.4	86.49
474.6	88.28
474.8	90.95
475.0	92.68
475.2	94.37
475.4	96.26
475.6	97.42
475.8	99.46
476.0	101.7
476.2	103.4
476.4	105.2
476.6	106.8
476.8	109.0
477.0	110.8
477.2	112.7
477.4	115.0
477.6	117.0
477.8	118.4
478.0	120.7
478.2	123.4
478.4	126.1
478.6	129.4
478.8	132.0
479.0	134.1
479.2	135.8
479.4	139.1
479.6	140.8
479.8	144.0
480.0	147.1
480.2	151.3
480.4	154.6
480.6	158.8
480.8	161.0
481.0	163.3
481.2	165.9
481.4	169.8
481.6	174.1
481.8	178.7
482.0	181.5
482.2	184.1
482.4	186.6
482.6	190.4
482.8	194.3
483.0	199.7
483.2	203.7
483.4	208.2
483.6	211.2
483.8	214.6
484.0	217.7
484.2	222.8
484.4	228.0
484.6	233.6
484.8	238.1
485.0	242.7
485.2	247.7
485.4	253.2
485.6	258.9
485.8	264.0
486.0	268.6
486.2	273.5
486.4	278.9
486.6	284.4
486.8	289.6
487.0	295.3
487.2	301.6
487.4	308.4
487.6	316.0
487.8	321.7
488.0	326.9
488.2	332.3
488.4	338.4
488.6	346.1
488.8	355.0
489.0	363.2
489.2	370.8
489.4	377.9
489.6	384.9
489.8	392.1
490.0	398.9
490.2	407.9
490.4	416.1
490.6	424.7
490.8	432.5
491.0	441.1
491.2	448.4
491.4	458.7
491.6	468.5
491.8	477.6
492.0	487.1
492.2	497.9
492.4	506.8
492.6	516.9
492.8	525.4
493.0	534.2
493.2	543.0
493.4	553.0
493.6	563.3
493.8	575.5
494.0	586.9
494.2	598.8
494.4	609.0
494.6	620.4
494.8	632.8
495.0	647.7
495.2	660.8
495.4	673.2
495.6	685.2
495.8	697.2
496.0	708.0
496.2	722.0
496.4	734.1
496.6	748.5
496.8	763.8
497.0	778.5
497.2	789.6
497.4	804.0
497.6	817.5
497.8	831.8
498.0	847.0
498.2	862.3
498.4	876.7
498.6	892.0
498.8	908.2
499.0	924.0
499.2	939.6
499.4	955.4
499.6	971.8
499.8	989.2
500.0	1007
500.2	1026
500.4	1044
500.6	1060
500.8	1076
501.0	1094
501.2	1114
501.4	1133
501.6	1153
501.8	1170
502.0	1189
502.2	1207
502.4	1225
502.6	1244
502.8	1264
503.0	1283
503.2	1305
503.4	1327
503.6	1346
503.8	1366
504.0	1385
504.2	1405
504.4	1429
504.6	1453
504.8	1476
505.0	1498
505.2	1518
505.4	1539
505.6	1558
505.8	1578
506.0	1601
506.2	1626
506.4	1651
506.6	1676
506.8	1696
507.0	1720
507.2	1742
507.4	1767
507.6	1795
507.8	1820
508.0	1843
508.2	1868
508.4	1888
508.6	1913
508.8	1939
509.0	1966
509.2	1993
509.4	2017
509.6	2039
509.8	2066
510.0	2089
510.2	2118
510.4	2143
510.6	2166
510.8	2192
511.0	2221
511.2	2250
511.4	2279
511.6	2304
511.8	2330
512.0	2355
512.2	2384
512.4	2414
512.6	2440
512.8	2464
513.0	2487
513.2	2512
513.4	2539
513.6	2569
513.8	2596
514.0	2625
514.2	2652
514.4	2680
514.6	2707
514.8	2736
515.0	2764
515.2	2792
515.4	2817
515.6	2844
515.8	2877
516.0	2905
516.2	2933
516.4	2962
516.6	2989
516.8	3019
517.0	3053
517.2	3077
517.4	3105
517.6	3136
517.8	3162
518.0	3188
518.2	3218
518.4	3243
518.6	3270
518.8	3298
519.0	3325
519.2	3354
519.4	3383
519.6	3413
519.8	3438
520.0	3464
520.2	3495
520.4	3523
520.6	3549
520.8	3577
521.0	3606
521.2	3633
521.4	3662
521.6	3687
521.8	3711
522.0	3739
522.2	3772
522.4	3799
522.6	3826
522.8	3850
523.0	3874
523.2	3902
523.4	3933
523.6	3959
523.8	3986
524.0	4008
524.2	4031
524.4	4058
524.6	4086
524.8	4112
525.0	4136
525.2	4162
525.4	4190
525.6	4219
525.8	4241
526.0	4263
526.2	4283
526.4	4307
526.6	4334
526.8	4360
527.0	4382
527.2	4405
527.4	4428
527.6	4448
527.8	4474
528.0	4500
528.2	4525
528.4	4555
528.6	4576
528.8	4599
529.0	4619
529.2	4635
529.4	4653
529.6	4679
529.8	4700
530.0	4727
530.2	4746
530.4	4762
530.6	4778
530.8	4794
531.0	4816
531.2	4842
531.4	4866
531.6	4889
531.8	4907
532.0	4921
532.2	4940
532.4	4959
532.6	4979
532.8	5001
533.0	5023
533.2	5043
533.4	5061
533.6	5079
533.8	5089
534.0	5100
534.2	5111
534.4	5123
534.6	5140
534.8	5166
535.0	5187
535.2	5200
535.4	5209
535.6	5217
535.8	5226
536.0	5243
536.2	5266
536.4	5282
536.6	5298
536.8	5311
537.0	5322
537.2	5335
537.4	5356
537.6	5369
537.8	5384
538.0	5396
538.2	5412
538.4	5426
538.6	5441
538.8	5449
539.0	5458
539.2	5461
539.4	5469
539.6	5482
539.8	5492
540.0	5504
540.2	5513
540.4	5520
540.6	5525
540.8	5533
541.0	5540
541.2	5553
541.4	5564
541.6	5577
541.8	5587
542.0	5595
542.2	5599
542.4	5609
542.6	5611
542.8	5618
543.0	5627
543.2	5635
543.4	5645
543.6	5658
543.8	5666
544.0	5672
544.2	5673
544.4	5674
544.6	5677
544.8	5680
545.0	5685
545.2	5687
545.4	5686
545.6	5684
545.8	5684
546.0	5686
546.2	5692
546.4	5701
546.6	5709
546.8	5716
547.0	5717
547.2	5717
547.4	5721
547.6	5725
547.8	5724
548.0	5727
548.2	5722
548.4	5717
548.6	5719
548.8	5720
549.0	5719
549.2	5721
549.4	5722
549.6	5719
549.8	5717
550.0	5713
550.2	5714
550.4	5713
550.6	5715
550.8	5716
551.0	5710
551.2	5704
551.4	5701
551.6	5694
551.8	5698
552.0	5702
552.2	5704
552.4	5704
552.6	5705
552.8	5699
553.0	5696
553.2	5689
553.4	5683
553.6	5678
553.8	5678
554.0	5672
554.2	5671
554.4	5673
554.6	5661
554.8	5654
555.0	5642
555.2	5632
555.4	5623
555.6	5616
555.8	5601
556.0	5592
556.2	5588
556.4	5586
556.6	5576
556.8	5574
557.0	5573
557.2	5567
557.4	5566
557.6	5561
557.8	5555
558.0	5554
558.2	5551
558.4	5539
558.6	5527
558.8	5513
559.0	5498
559.2	5489
559.4	5480
559.6	5469
559.8	5459
560.0	5448
560.2	5438
560.4	5428
560.6	5423
560.8	5414
561.0	5408
561.2	5400
561.4	5393
561.6	5381
561.8	5369
562.0	5358
562.2	5347
562.4	5335
562.6	5328
562.8	5321
563.0	5311
563.2	5305
563.4	5296
563.6	5283
563.8	5271
564.0	5258
564.2	5251
564.4	5239
564.6	5229
564.8	5217
565.0	5196
565.2	5186
565.4	5177
565.6	5165
565.8	5155
566.0	5137
566.2	5121
566.4	5116
566.6	5106
566.8	5096
567.0	5086
567.2	5072
567.4	5059
567.6	5050
567.8	5041
568.0	5030
568.2	5018
568.4	5010
568.6	4995
568.8	4981
569.0	4968
569.2	4952
569.4	4935
569.6	4917
569.8	4900
570.0	4883
570.2	4871
570.4	4864
570.6	4855
570.8	4842
571.0	4830
571.2	4816
571.4	4802
571.6	4789
571.8	4771
572.0	4761
572.2	4750
572.4	4742
572.6	4730
572.8	4713
573.0	4691
573.2	4679
573.4	4664
573.6	4653
573.8	4642
574.0	4628
574.2	4614
574.4	4598
574.6	4584
574.8	4569
575.0	4557
575.2	4543
575.4	4528
575.6	4510
575.8	4496
576.0	4483
576.2	4471
576.4	4457
576.6	4449
576.8	4440
577.0	4428
577.2	4415
577.4	4396
577.6	4374
577.8	4363
578.0	4350
578.2	4338
578.4	4323
578.6	4310
578.8	4291
579.0	4278
579.2	4265
579.4	4249
579.6	4232
579.8	4215
580.0	4198
580.2	4183
580.4	4171
580.6	4154
580.8	4142
581.0	4128
581.2	4114
581.4	4098
581.6	4086
581.8	4068
582.0	4058
582.2	4048
582.4	4033
582.6	4017
582.8	4005
583.0	3990
583.2	3978
583.4	3964
583.6	3949
583.8	3935
584.0	3922
584.2	3909
584.4	3892
584.6	3874
584.8	3859
585.0	3847
585.2	3838
585.4	3823
585.6	3805
585.8	3786
586.0	3769
586.2	3755
586.4	3743
586.6	3731
586.8	3716
587.0	3703
587.2	3690
587.4	3678
587.6	3665
587.8	3652
588.0	3641
588.2	3630
588.4	3617
588.6	3604
588.8	3588
589.0	3574
589.2	3563
589.4	3546
589.6	3531
589.8	3512
590.0	3492
590.2	3477
590.4	3464
590.6	3448
590.8	3435
591.0	3422
591.2	3407
591.4	3395
591.6	3387
591.8	3373
592.0	3358
592.2	3343
592.4	3330
592.6	3316
592.8	3306
593.0	3291
593.2	3276
593.4	3263
593.6	3253
593.8	3238
594.0	3227
594.2	3217
594.4	3200
594.6	3186
594.8	3171
595.0	3152
595.2	3141
595.4	3133
595.6	3119
595.8	3102
596.0	3086
596.2	3066
596.4	3057
596.6	3048
596.8	3040
597.0	3031
597.2	3019
597.4	3002
597.6	2991
597.8	2975
598.0	2959
598.2	2945
598.4	2933
598.6	2925
598.8	2916
599.0	2906
599.2	2891
599.4	2874
599.6	2856
599.8	2844
600.0	2831
600.2	2818
600.4	2806
600.6	2791
600.8	2776
601.0	2762
601.2	2749
601.4	2736
601.6	2726
601.8	2716
602.0	2707
602.2	2694
602.4	2681
602.6	2669
602.8	2658
603.0	2647
603.2	2634
603.4	2622
603.6	2605
603.8	2592
604.0	2580
604.2	2567
604.4	2556
604.6	2544
604.8	2529
605.0	2516
605.2	2505
605.4	2492
605.6	2479
605.8	2469
606.0	2457
606.2	2443
606.4	2432
606.6	2418
606.8	2403
607.0	2396
607.2	2388
607.4	2374
607.6	2365
607.8	2353
608.0	2340
608.2	2332
608.4	2322
608.6	2307
608.8	2296
609.0	2282
609.2	2268
609.4	2257
609.6	2249
609.8	2238
610.0	2228
610.2	2217
610.4	2205
610.6	2195
610.8	2184
611.0	2171
611.2	2157
611.4	2147
611.6	2135
611.8	2122
612.0	2109
612.2	2100
612.4	2089
612.6	2082
612.8	2073
613.0	2062
613.2	2049
613.4	2042
613.6	2029
613.8	2016
614.0	2005
614.2	1996
614.4	1987
614.6	1975
614.8	1964
615.0	1949
615.2	1935
615.4	1925
615.6	1913
615.8	1902
616.0	1895
616.2	1887
616.4	1879
616.6	1866
616.8	1854
617.0	1846
617.2	1837
617.4	1827
617.6	1815
617.8	1803
618.0	1794
618.2	1787
618.4	1781
618.6	1767
618.8	1756
619.0	1746
619.2	1736
619.4	1729
619.6	1719
619.8	1707
620.0	1696
620.2	1685
620.4	1676
620.6	1668
620.8	1658
621.0	1650
621.2	1639
621.4	1630
621.6	1621
621.8	1614
622.0	1605
622.2	1597
622.4	1589
622.6	1578
622.8	1568
623.0	1559
623.2	1551
623.4	1544
623.6	1537
623.8	1529
624.0	1521
624.2	1511
624.4	1500
624.6	1487
624.8	1478
625.0	1470
625.2	1461
625.4	1454
625.6	1443
625.8	1431
626.0	1422
626.2	1413
626.4	1405
626.6	1398
626.8	1390
627.0	1384
627.2	1376
627.4	1367
627.6	1358
627.8	1349
628.0	1340
628.2	1333
628.4	1325
628.6	1321
628.8	1314
629.0	1306
629.2	1299
629.4	1288
629.6	1279
629.8	1272
630.0	1262
630.2	1254
630.4	1244
630.6	1234
630.8	1228
631.0	1221
631.2	1214
631.4	1208
631.6	1199
631.8	1191
632.0	1184
632.2	1178
632.4	1174
632.6	1168
632.8	1161
633.0	1154
633.2	1146
633.4	1140
633.6	1134
633.8	1127
634.0	1118
634.2	1109
634.4	1101
634.6	1095
634.8	1088
635.0	1079
635.2	1073
635.4	1066
635.6	1060
635.8	1055
636.0	1046
636.2	1038
636.4	1033
636.6	1027
636.8	1022
637.0	1015
637.2	1009
637.4	1005
637.6	998.9
637.8	990.9
638.0	982.3
638.2	974.1
638.4	969.6
638.6	966.3
638.8	960.7
639.0	954.5
639.2	947.4
639.4	940.9
639.6	935.2
639.8	931.2
640.0	925.0
640.2	919.0
640.4	910.9
640.6	903.8
640.8	899.3
641.0	895.7
641.2	891.0
641.4	884.5
641.6	875.3
641.8	868.0
642.0	861.6
642.2	857.7
642.4	853.5
642.6	848.8
642.8	844.2
643.0	840.6
643.2	835.4
643.4	830.0
643.6	823.7
643.8	817.0
644.0	811.4
644.2	806.2
644.4	800.8
644.6	794.6
644.8	789.5
645.0	783.5
645.2	779.5
645.4	773.7
645.6	768.3
645.8	763.1
646.0	759.5
646.2	753.6
646.4	747.9
646.6	741.1
646.8	734.9
647.0	729.7
647.2	727.3
647.4	724.2
647.6	721.1
647.8	717.5
648.0	712.0
648.2	707.6
648.4	703.1
648.6	698.4
648.8	692.1
649.0	687.2
649.2	681.7
649.4	677.8
649.6	673.3
649.8	669.2
650.0	664.4
650.2	662.3
650.4	658.9
650.6	653.8
650.8	646.5
651.0	642.8
651.2	638.4
651.4	634.0
651.6	628.9
651.8	623.5
652.0	618.7
652.2	616.7
652.4	614.4
652.6	609.9
652.8	605.4
653.0	602.0
653.2	599.1
653.4	594.9
653.6	591.9
653.8	586.1
654.0	579.8
654.2	574.9
654.4	571.0
654.6	568.4
654.8	567.9
655.0	565.4
655.2	561.6
655.4	556.7
655.6	551.3
655.8	547.1
656.0	544.8
656.2	540.6
656.4	536.3
656.6	531.0
656.8	525.4
657.0	521.6
657.2	520.8
657.4	517.3
657.6	514.6
657.8	511.7
658.0	508.4
658.2	505.0
658.4	502.1
658.6	496.9
658.8	493.0
659.0	489.8
659.2	488.4
659.4	485.5
659.6	482.4
659.8	478.4
660.0	473.7
660.2	470.4
660.4	466.9
660.6	462.7
660.8	460.4
661.0	456.8
661.2	453.7
661.4	450.6
661.6	446.7
661.8	442.9
662.0	441.7
662.2	437.9
662.4	435.2
662.6	430.7
662.8	427.6
663.0	424.2
663.2	422.3
663.4	419.0
663.6	417.1
663.8	414.3
664.0	411.7
664.2	408.4
664.4	405.4
664.6	402.5
664.8	400.3
665.0	398.0
665.2	394.9
665.4	392.2
665.6	388.9
665.8	385.8
666.0	383.5
666.2	379.9
666.4	377.0
666.6	374.5
666.8	371.5
667.0	368.7
667.2	366.6
667.4	363.9
667.6	362.8
667.8	360.3
668.0	358.5
668.2	356.0
668.4	352.0
668.6	349.5
668.8	346.6
669.0	342.9
669.2	342.1
669.4	341.1
669.6	338.9
669.8	337.0
670.0	333.6
670.2	330.7
670.4	329.5
670.6	327.7
670.8	324.8
671.0	322.0
671.2	319.6
671.4	318.0
671.6	315.8
671.8	312.3
672.0	308.4
672.2	306.5
672.4	305.7
672.6	304.5
672.8	302.4
673.0	300.3
673.2	297.5
673.4	295.9
673.6	294.0
673.8	292.5
674.0	290.6
674.2	287.1
674.4	284.1
674.6	281.2
674.8	278.3
675.0	277.3
675.2	276.3
675.4	273.5
675.6	272.1
675.8	270.3
676.0	268.1
676.2	266.3
676.4	265.3
676.6	262.5
676.8	259.5
677.0	255.6
677.2	254.1
677.4	252.8
677.6	252.4
677.8	251.1
678.0	248.5
678.2	245.6
678.4	244.8
678.6	243.2
678.8	242.0
679.0	239.7
679.2	237.5
679.4	236.2
679.6	234.3
679.8	232.9
680.0	231.7
680.2	229.1
680.4	228.1
680.6	227.2
680.8	224.9
681.0	222.9
681.2	220.6
681.4	217.9
681.6	216.9
681.8	216.6
682.0	214.5
682.2	212.9
682.4	211.8
682.6	210.5
682.8	209.3
683.0	208.5
683.2	205.9
683.4	203.6
683.6	202.5
683.8	201.5
684.0	200.0
684.2	198.8
684.4	197.2
684.6	195.2
684.8	194.1
685.0	193.6
685.2	192.2
685.4	191.0
685.6	189.8
685.8	188.0
686.0	186.6
686.2	185.3
686.4	182.7
686.6	181.1
686.8	180.1
687.0	179.5
687.2	179.0
687.4	178.6
687.6	176.5
687.8	174.2
688.0	172.3
688.2	170.4
688.4	169.7
688.6	169.3
688.8	168.5
689.0	166.5
689.2	164.7
689.4	162.9
689.6	162.2
689.8	161.8
690.0	161.3
690.2	159.8
690.4	158.6
690.6	156.8
690.8	155.5
691.0	154.7
691.2	154.2
691.4	152.9
691.6	152.1
691.8	150.7
692.0	149.9
692.2	148.6
692.4	148.0
692.6	146.3
692.8	145.1
693.0	144.3
693.2	143.2
693.4	141.7
693.6	140.7
693.8	140.2
694.0	139.8
694.2	139.6
694.4	138.9
694.6	137.5
694.8	136.0
695.0	134.7
695.2	133.0
695.4	131.6
695.6	131.4
695.8	131.0
696.0	130.7
696.2	130.0
696.4	128.8
696.6	128.0
696.8	127.7
697.0	127.0
697.2	125.9
697.4	124.6
697.6	123.6
697.8	123.1
698.0	122.3
698.2	121.9
698.4	120.6
698.6	119.8
698.8	119.8
699.0	118.8
699.2	117.4
699.4	116.3
699.6	114.6
699.8	113.6
700.0	113.9
700.2	114.0
700.4	113.7
700.6	112.4
700.8	111.2
701.0	109.7
701.2	108.8
701.4	108.5
701.6	108.7
701.8	107.5
702.0	107.5
702.2	106.4
702.4	105.2
702.6	104.5
702.8	104.5
703.0	103.8
703.2	103.8
703.4	102.6
703.6	101.5
703.8	100.4
704.0	99.78
704.2	99.16
704.4	99.15
704.6	98.68
704.8	98.18
705.0	97.01
705.2	96.03
705.4	95.30
705.6	95.05
705.8	94.55
706.0	93.98
706.2	93.26
706.4	92.84
706.6	91.86
706.8	90.85
707.0	90.15
707.2	89.85
707.4	89.48
707.6	88.98
707.8	87.92
708.0	87.97
708.2	87.48
708.4	87.46
708.6	86.75
708.8	85.61
709.0	84.83
709.2	84.47
709.4	82.81
709.6	81.86
709.8	81.46
710.0	81.56
710.2	82.24
710.4	81.86
710.6	81.26
710.8	80.70
711.0	79.93
711.2	78.99
711.4	78.13
711.6	76.87
711.8	76.37
712.0	76.72
712.2	76.42
712.4	76.57
712.6	76.40
712.8	75.93
713.0	75.14
713.2	74.03
713.4	73.27
713.6	73.08
713.8	72.95
714.0	72.35
714.2	71.67
714.4	70.87
714.6	70.76
714.8	70.16
715.0	69.77
715.2	68.70
715.4	67.94
715.6	67.48
715.8	66.97
716.0	66.42
716.2	66.16
716.4	65.31
716.6	64.90
716.8	64.24
717.0	63.56
717.2	63.48
717.4	63.21
717.6	62.70
717.8	62.60
718.0	62.14
718.2	61.63
718.4	61.10
718.6	60.38
718.8	59.70
719.0	59.55
719.2	59.67
719.4	59.73
719.6	59.18
719.8	58.80
720.0	58.42
720.2	58.00
720.4	57.32
720.6	56.18
720.8	54.90
721.0	54.37
721.2	54.54
721.4	54.29
721.6	53.86
721.8	53.80
722.0	53.73
722.2	52.96
722.4	52.01
722.6	51.10
722.8	50.67
723.0	50.78
723.2	50.89
