Sample:	'20211010A(EM)
File name:	G-CDS.FDS
Run date:	'15:23:55, 03/23/2023
Operator:	Administrator
Comment:	'

Instrument
Model:	F-4700 FL Spectrophotometer
Serial number:	2019-001
ROM Version:	5J24010 00

Instrument parameters
Measurement type:	Wavelength scan
Scan mode:	Emission
Data mode:	Fluorescence
EX WL:	400.0 nm
EM  Start WL:	420.0 nm
EM  End WL:	850.0 nm
Scan speed:	1200 nm/min
Delay:	0.0 s
EX Slit:	10.0 nm
EM Slit:	10.0 nm
PMT Voltage:	465 V
Response:	0.002 s
Corrected spectra:	Off
Shutter control:	On

Processing performed
Savitsky-Golay smoothed
Smoothing order:	3
Number of points:	7
Number of times:	1

Peak integration
Integration method:	Rectangular
Sensitivity:	1
Threshold:	1.000

Peaks
No.	Start(nm)	Apex(nm)	End(nm)	Height(Data)	Valley(nm)	Valley(Data)
1	420.0	538.0	539.2	2858	539.2	2843
2	539.2	540.6	779.6	2848	779.6	2.763
3	779.6	800.6	850.0	4.564	850.0	0.823

Data points
nm	Data
420.0	1.648
420.2	1.630
420.4	1.655
420.6	1.697
420.8	1.721
421.0	1.706
421.2	1.657
421.4	1.571
421.6	1.464
421.8	1.462
422.0	1.536
422.2	1.586
422.4	1.649
422.6	1.645
422.8	1.593
423.0	1.572
423.2	1.647
423.4	1.629
423.6	1.612
423.8	1.598
424.0	1.541
424.2	1.505
424.4	1.531
424.6	1.565
424.8	1.585
425.0	1.627
425.2	1.639
425.4	1.612
425.6	1.645
425.8	1.684
426.0	1.717
426.2	1.698
426.4	1.706
426.6	1.757
426.8	1.773
427.0	1.755
427.2	1.739
427.4	1.654
427.6	1.610
427.8	1.575
428.0	1.554
428.2	1.625
428.4	1.679
428.6	1.715
428.8	1.703
429.0	1.684
429.2	1.695
429.4	1.726
429.6	1.724
429.8	1.741
430.0	1.742
430.2	1.764
430.4	1.779
430.6	1.773
430.8	1.782
431.0	1.796
431.2	1.819
431.4	1.789
431.6	1.816
431.8	1.822
432.0	1.795
432.2	1.826
432.4	1.763
432.6	1.783
432.8	1.835
433.0	1.886
433.2	1.907
433.4	1.922
433.6	1.857
433.8	1.905
434.0	1.799
434.2	1.812
434.4	1.868
434.6	1.852
434.8	1.907
435.0	1.968
435.2	1.894
435.4	1.975
435.6	2.019
435.8	2.060
436.0	2.020
436.2	2.086
436.4	2.087
436.6	2.158
436.8	2.178
437.0	2.190
437.2	2.158
437.4	2.126
437.6	2.117
437.8	2.134
438.0	2.106
438.2	2.034
438.4	2.153
438.6	2.223
438.8	2.335
439.0	2.352
439.2	2.264
439.4	2.142
439.6	2.231
439.8	2.301
440.0	2.373
440.2	2.344
440.4	2.422
440.6	2.429
440.8	2.426
441.0	2.402
441.2	2.325
441.4	2.263
441.6	2.393
441.8	2.474
442.0	2.485
442.2	2.459
442.4	2.443
442.6	2.520
442.8	2.598
443.0	2.628
443.2	2.680
443.4	2.624
443.6	2.739
443.8	2.877
444.0	2.913
444.2	2.893
444.4	2.874
444.6	2.793
444.8	2.861
445.0	2.911
445.2	2.906
445.4	2.919
445.6	2.838
445.8	2.822
446.0	3.061
446.2	3.199
446.4	3.296
446.6	3.297
446.8	3.222
447.0	3.110
447.2	3.200
447.4	3.272
447.6	3.281
447.8	3.265
448.0	3.386
448.2	3.543
448.4	3.748
448.6	3.882
448.8	3.846
449.0	3.761
449.2	3.683
449.4	3.649
449.6	3.709
449.8	3.815
450.0	3.858
450.2	3.943
450.4	3.884
450.6	3.777
450.8	3.764
451.0	3.959
451.2	4.044
451.4	4.208
451.6	4.253
451.8	4.331
452.0	4.350
452.2	4.414
452.4	4.336
452.6	4.271
452.8	4.243
453.0	4.337
453.2	4.318
453.4	4.345
453.6	4.351
453.8	4.384
454.0	4.518
454.2	4.603
454.4	4.603
454.6	4.649
454.8	4.731
455.0	4.899
455.2	4.963
455.4	5.047
455.6	4.978
455.8	4.965
456.0	4.919
456.2	5.071
456.4	5.151
456.6	5.234
456.8	5.280
457.0	5.367
457.2	5.331
457.4	5.420
457.6	5.706
457.8	5.882
458.0	6.037
458.2	5.989
458.4	5.845
458.6	5.764
458.8	5.867
459.0	6.104
459.2	6.419
459.4	6.585
459.6	6.762
459.8	6.959
460.0	6.900
460.2	7.083
460.4	7.089
460.6	7.085
460.8	7.266
461.0	7.484
461.2	7.576
461.4	7.644
461.6	7.571
461.8	7.795
462.0	7.941
462.2	8.060
462.4	8.188
462.6	8.173
462.8	8.373
463.0	8.800
463.2	8.976
463.4	9.250
463.6	9.433
463.8	9.616
464.0	9.950
464.2	10.06
464.4	10.22
464.6	10.60
464.8	10.76
465.0	11.12
465.2	11.47
465.4	11.68
465.6	11.81
465.8	12.04
466.0	12.19
466.2	12.49
466.4	12.72
466.6	13.06
466.8	13.13
467.0	13.47
467.2	13.89
467.4	14.63
467.6	15.19
467.8	15.78
468.0	16.01
468.2	16.20
468.4	16.41
468.6	16.82
468.8	17.00
469.0	17.57
469.2	18.37
469.4	18.72
469.6	19.29
469.8	19.91
470.0	20.32
470.2	20.96
470.4	21.75
470.6	22.08
470.8	22.59
471.0	23.12
471.2	23.69
471.4	24.24
471.6	24.79
471.8	25.73
472.0	26.50
472.2	27.17
472.4	27.80
472.6	28.22
472.8	28.73
473.0	29.72
473.2	30.32
473.4	31.20
473.6	32.21
473.8	33.31
474.0	34.36
474.2	35.48
474.4	36.13
474.6	36.71
474.8	37.27
475.0	38.27
475.2	39.36
475.4	40.59
475.6	41.96
475.8	43.31
476.0	44.69
476.2	45.89
476.4	46.98
476.6	47.57
476.8	48.34
477.0	49.75
477.2	51.32
477.4	53.00
477.6	54.72
477.8	56.41
478.0	57.70
478.2	59.24
478.4	60.26
478.6	61.55
478.8	62.69
479.0	64.85
479.2	66.88
479.4	69.24
479.6	70.99
479.8	73.06
480.0	74.71
480.2	76.73
480.4	78.44
480.6	80.45
480.8	82.08
481.0	84.30
481.2	86.46
481.4	88.96
481.6	91.39
481.8	93.54
482.0	96.39
482.2	99.06
482.4	101.4
482.6	103.5
482.8	105.9
483.0	107.2
483.2	110.3
483.4	113.7
483.6	117.1
483.8	120.5
484.0	124.0
484.2	126.7
484.4	130.0
484.6	132.8
484.8	136.4
485.0	140.2
485.2	143.6
485.4	147.4
485.6	151.0
485.8	154.9
486.0	159.8
486.2	164.2
486.4	167.9
486.6	171.5
486.8	174.7
487.0	179.3
487.2	184.0
487.4	188.6
487.6	193.7
487.8	198.2
488.0	203.1
488.2	208.4
488.4	213.2
488.6	217.2
488.8	222.1
489.0	227.6
489.2	233.3
489.4	239.8
489.6	245.6
489.8	250.8
490.0	257.4
490.2	264.9
490.4	271.7
490.6	278.8
490.8	284.5
491.0	290.1
491.2	296.3
491.4	303.1
491.6	310.3
491.8	318.3
492.0	325.4
492.2	332.5
492.4	338.3
492.6	346.0
492.8	353.8
493.0	362.1
493.2	369.9
493.4	378.5
493.6	386.4
493.8	396.2
494.0	405.4
494.2	413.5
494.4	421.9
494.6	430.0
494.8	440.2
495.0	451.3
495.2	461.0
495.4	471.5
495.6	481.1
495.8	490.3
496.0	501.2
496.2	510.5
496.4	519.4
496.6	530.5
496.8	540.8
497.0	552.6
497.2	563.7
497.4	574.5
497.6	585.6
497.8	597.4
498.0	607.6
498.2	618.8
498.4	630.2
498.6	643.8
498.8	656.3
499.0	668.0
499.2	679.2
499.4	691.5
499.6	704.7
499.8	718.4
500.0	731.3
500.2	743.5
500.4	757.0
500.6	770.2
500.8	783.0
501.0	795.7
501.2	808.3
501.4	820.3
501.6	833.7
501.8	848.2
502.0	864.3
502.2	881.7
502.4	898.2
502.6	911.0
502.8	923.2
503.0	936.2
503.2	950.0
503.4	965.5
503.6	982.5
503.8	998.0
504.0	1014
504.2	1032
504.4	1047
504.6	1062
504.8	1077
505.0	1092
505.2	1107
505.4	1123
505.6	1137
505.8	1153
506.0	1171
506.2	1187
506.4	1203
506.6	1220
506.8	1235
507.0	1253
507.2	1271
507.4	1289
507.6	1306
507.8	1323
508.0	1338
508.2	1354
508.4	1366
508.6	1383
508.8	1399
509.0	1415
509.2	1435
509.4	1452
509.6	1468
509.8	1486
510.0	1502
510.2	1517
510.4	1534
510.6	1547
510.8	1563
511.0	1581
511.2	1598
511.4	1617
511.6	1634
511.8	1651
512.0	1665
512.2	1681
512.4	1697
512.6	1717
512.8	1737
513.0	1753
513.2	1765
513.4	1778
513.6	1795
513.8	1813
514.0	1832
514.2	1844
514.4	1856
514.6	1870
514.8	1885
515.0	1904
515.2	1923
515.4	1939
515.6	1953
515.8	1968
516.0	1982
516.2	1995
516.4	2011
516.6	2027
516.8	2041
517.0	2057
517.2	2070
517.4	2084
517.6	2100
517.8	2116
518.0	2131
518.2	2146
518.4	2159
518.6	2175
518.8	2189
519.0	2201
519.2	2211
519.4	2222
519.6	2235
519.8	2250
520.0	2267
520.2	2280
520.4	2291
520.6	2301
520.8	2312
521.0	2326
521.2	2342
521.4	2355
521.6	2367
521.8	2377
522.0	2388
522.2	2396
522.4	2404
522.6	2418
522.8	2432
523.0	2444
523.2	2458
523.4	2469
523.6	2477
523.8	2487
524.0	2497
524.2	2509
524.4	2521
524.6	2531
524.8	2539
525.0	2544
525.2	2551
525.4	2562
525.6	2569
525.8	2579
526.0	2590
526.2	2600
526.4	2609
526.6	2619
526.8	2627
527.0	2637
527.2	2642
527.4	2652
527.6	2656
527.8	2665
528.0	2674
528.2	2682
528.4	2687
528.6	2697
528.8	2701
529.0	2704
529.2	2708
529.4	2709
529.6	2715
529.8	2721
530.0	2728
530.2	2735
530.4	2745
530.6	2752
530.8	2757
531.0	2759
531.2	2760
531.4	2767
531.6	2775
531.8	2784
532.0	2790
532.2	2795
532.4	2795
532.6	2795
532.8	2797
533.0	2800
533.2	2804
533.4	2812
533.6	2816
533.8	2821
534.0	2822
534.2	2821
534.4	2819
534.6	2823
534.8	2827
535.0	2832
535.2	2831
535.4	2830
535.6	2834
535.8	2838
536.0	2839
536.2	2841
536.4	2839
536.6	2840
536.8	2845
537.0	2846
537.2	2848
537.4	2854
537.6	2855
537.8	2858
538.0	2858
538.2	2856
538.4	2854
538.6	2854
538.8	2850
539.0	2848
539.2	2843
539.4	2845
539.6	2845
539.8	2844
540.0	2845
540.2	2846
540.4	2846
540.6	2848
540.8	2847
541.0	2842
541.2	2840
541.4	2843
541.6	2841
541.8	2842
542.0	2844
542.2	2843
542.4	2844
542.6	2842
542.8	2840
543.0	2835
543.2	2830
543.4	2825
543.6	2824
543.8	2823
544.0	2825
544.2	2819
544.4	2815
544.6	2807
544.8	2806
545.0	2802
545.2	2798
545.4	2796
545.6	2797
545.8	2794
546.0	2793
546.2	2787
546.4	2784
546.6	2782
546.8	2781
547.0	2780
547.2	2777
547.4	2775
547.6	2774
547.8	2771
548.0	2764
548.2	2754
548.4	2747
548.6	2742
548.8	2738
549.0	2735
549.2	2728
549.4	2722
549.6	2717
549.8	2713
550.0	2710
550.2	2705
550.4	2700
550.6	2696
550.8	2692
551.0	2687
551.2	2684
551.4	2680
551.6	2674
551.8	2670
552.0	2664
552.2	2658
552.4	2654
552.6	2649
552.8	2644
553.0	2639
553.2	2636
553.4	2631
553.6	2626
553.8	2620
554.0	2616
554.2	2609
554.4	2606
554.6	2598
554.8	2588
555.0	2582
555.2	2575
555.4	2569
555.6	2567
555.8	2565
556.0	2559
556.2	2551
556.4	2541
556.6	2532
556.8	2526
557.0	2522
557.2	2521
557.4	2516
557.6	2512
557.8	2507
558.0	2499
558.2	2491
558.4	2481
558.6	2474
558.8	2466
559.0	2463
559.2	2459
559.4	2456
559.6	2449
559.8	2442
560.0	2434
560.2	2426
560.4	2418
560.6	2411
560.8	2403
561.0	2396
561.2	2393
561.4	2388
561.6	2381
561.8	2374
562.0	2363
562.2	2353
562.4	2348
562.6	2343
562.8	2341
563.0	2335
563.2	2326
563.4	2317
563.6	2309
563.8	2301
564.0	2297
564.2	2291
564.4	2282
564.6	2277
564.8	2270
565.0	2263
565.2	2254
565.4	2245
565.6	2236
565.8	2231
566.0	2222
566.2	2219
566.4	2210
566.6	2199
566.8	2189
567.0	2185
567.2	2179
567.4	2178
567.6	2174
567.8	2165
568.0	2155
568.2	2149
568.4	2143
568.6	2138
568.8	2131
569.0	2120
569.2	2110
569.4	2102
569.6	2093
569.8	2085
570.0	2080
570.2	2074
570.4	2069
570.6	2064
570.8	2056
571.0	2046
571.2	2036
571.4	2026
571.6	2016
571.8	2012
572.0	2005
572.2	2000
572.4	1992
572.6	1984
572.8	1976
573.0	1971
573.2	1963
573.4	1955
573.6	1947
573.8	1937
574.0	1930
574.2	1925
574.4	1921
574.6	1914
574.8	1906
575.0	1897
575.2	1890
575.4	1882
575.6	1880
575.8	1873
576.0	1864
576.2	1857
576.4	1851
576.6	1842
576.8	1837
577.0	1827
577.2	1818
577.4	1809
577.6	1801
577.8	1794
578.0	1788
578.2	1781
578.4	1775
578.6	1768
578.8	1761
579.0	1753
579.2	1743
579.4	1736
579.6	1729
579.8	1725
580.0	1720
580.2	1712
580.4	1700
580.6	1693
580.8	1686
581.0	1680
581.2	1674
581.4	1666
581.6	1660
581.8	1657
582.0	1650
582.2	1642
582.4	1637
582.6	1631
582.8	1625
583.0	1618
583.2	1610
583.4	1600
583.6	1593
583.8	1585
584.0	1575
584.2	1568
584.4	1563
584.6	1557
584.8	1552
585.0	1546
585.2	1540
585.4	1533
585.6	1526
585.8	1518
586.0	1511
586.2	1503
586.4	1497
586.6	1492
586.8	1486
587.0	1477
587.2	1473
587.4	1466
587.6	1460
587.8	1456
588.0	1450
588.2	1445
588.4	1439
588.6	1432
588.8	1423
589.0	1418
589.2	1411
589.4	1405
589.6	1396
589.8	1389
590.0	1379
590.2	1371
590.4	1363
590.6	1358
590.8	1352
591.0	1348
591.2	1342
591.4	1337
591.6	1332
591.8	1326
592.0	1318
592.2	1310
592.4	1301
592.6	1296
592.8	1292
593.0	1288
593.2	1285
593.4	1281
593.6	1274
593.8	1267
594.0	1259
594.2	1250
594.4	1245
594.6	1241
594.8	1235
595.0	1230
595.2	1224
595.4	1215
595.6	1208
595.8	1201
596.0	1192
596.2	1187
596.4	1182
596.6	1178
596.8	1173
597.0	1169
597.2	1161
597.4	1156
597.6	1151
597.8	1146
598.0	1140
598.2	1135
598.4	1129
598.6	1125
598.8	1122
599.0	1119
599.2	1113
599.4	1106
599.6	1098
599.8	1092
600.0	1087
600.2	1084
600.4	1078
600.6	1073
600.8	1068
601.0	1061
601.2	1054
601.4	1049
601.6	1043
601.8	1038
602.0	1033
602.2	1028
602.4	1023
602.6	1019
602.8	1015
603.0	1010
603.2	1004
603.4	998.5
603.6	993.1
603.8	986.3
604.0	981.5
604.2	975.9
604.4	970.0
604.6	965.4
604.8	960.4
605.0	953.8
605.2	949.5
605.4	944.1
605.6	940.0
605.8	936.2
606.0	929.9
606.2	923.1
606.4	918.8
606.6	914.1
606.8	909.5
607.0	904.7
607.2	900.2
607.4	895.2
607.6	891.7
607.8	887.5
608.0	882.4
608.2	877.0
608.4	873.6
608.6	868.8
608.8	865.1
609.0	858.7
609.2	853.2
609.4	847.2
609.6	843.0
609.8	838.6
610.0	835.7
610.2	830.1
610.4	824.0
610.6	818.2
610.8	813.5
611.0	810.6
611.2	807.8
611.4	801.5
611.6	795.5
611.8	788.6
612.0	786.0
612.2	784.0
612.4	779.9
612.6	774.7
612.8	771.3
613.0	764.8
613.2	761.1
613.4	756.7
613.6	751.7
613.8	748.1
614.0	746.7
614.2	742.0
614.4	738.4
614.6	734.5
614.8	729.5
615.0	724.4
615.2	721.3
615.4	717.2
615.6	714.2
615.8	709.4
616.0	704.5
616.2	700.4
616.4	696.4
616.6	692.4
616.8	689.0
617.0	683.5
617.2	679.6
617.4	674.6
617.6	671.4
617.8	667.2
618.0	664.7
618.2	660.6
618.4	657.1
618.6	652.0
618.8	647.6
619.0	643.5
619.2	639.9
619.4	636.4
619.6	632.2
619.8	627.7
620.0	622.6
620.2	620.0
620.4	616.5
620.6	614.5
620.8	611.1
621.0	607.4
621.2	602.7
621.4	597.4
621.6	593.5
621.8	591.9
622.0	589.5
622.2	586.2
622.4	582.6
622.6	577.5
622.8	573.5
623.0	571.2
623.2	567.2
623.4	564.1
623.6	561.1
623.8	559.3
624.0	555.7
624.2	552.9
624.4	548.5
624.6	545.6
624.8	541.7
625.0	539.4
625.2	535.3
625.4	532.3
625.6	529.5
625.8	527.1
626.0	523.3
626.2	519.3
626.4	513.7
626.6	510.3
626.8	507.2
627.0	503.8
627.2	501.1
627.4	499.1
627.6	494.9
627.8	492.6
628.0	489.0
628.2	485.3
628.4	482.4
628.6	480.1
628.8	477.3
629.0	474.2
629.2	470.8
629.4	467.8
629.6	465.2
629.8	463.8
630.0	461.8
630.2	457.2
630.4	452.8
630.6	449.2
630.8	446.6
631.0	443.6
631.2	440.9
631.4	438.4
631.6	436.0
631.8	433.4
632.0	430.9
632.2	427.2
632.4	424.5
632.6	422.3
632.8	420.2
633.0	416.7
633.2	413.5
633.4	410.9
633.6	409.2
633.8	407.6
634.0	405.1
634.2	401.9
634.4	398.8
634.6	396.8
634.8	394.9
635.0	393.3
635.2	389.2
635.4	386.1
635.6	383.0
635.8	381.1
636.0	378.1
636.2	376.2
636.4	372.8
636.6	370.3
636.8	367.5
637.0	365.8
637.2	363.5
637.4	361.2
637.6	358.3
637.8	355.6
638.0	354.6
638.2	354.1
638.4	352.4
638.6	349.9
638.8	346.7
639.0	343.3
639.2	341.6
639.4	339.7
639.6	337.6
639.8	335.2
640.0	332.6
640.2	329.6
640.4	327.1
640.6	323.7
640.8	321.7
641.0	319.3
641.2	318.7
641.4	318.1
641.6	317.1
641.8	314.4
642.0	311.7
642.2	308.4
642.4	306.0
642.6	303.6
642.8	301.9
643.0	301.1
643.2	299.9
643.4	298.7
643.6	296.6
643.8	293.7
644.0	291.0
644.2	289.3
644.4	287.4
644.6	286.2
644.8	284.5
645.0	281.5
645.2	278.6
645.4	276.3
645.6	273.9
645.8	272.9
646.0	272.0
646.2	270.1
646.4	269.1
646.6	266.9
646.8	264.0
647.0	262.2
647.2	260.6
647.4	258.9
647.6	258.4
647.8	256.5
648.0	254.2
648.2	251.4
648.4	249.2
648.6	247.5
648.8	247.2
649.0	246.9
649.2	245.7
649.4	242.6
649.6	240.5
649.8	239.1
650.0	238.1
650.2	236.2
650.4	233.9
650.6	230.8
650.8	229.2
651.0	228.7
651.2	228.4
651.4	227.3
651.6	226.3
651.8	224.2
652.0	222.5
652.2	219.4
652.4	216.9
652.6	216.3
652.8	216.6
653.0	216.0
653.2	215.0
653.4	212.2
653.6	209.7
653.8	208.3
654.0	207.2
654.2	205.0
654.4	203.5
654.6	201.1
654.8	199.9
655.0	198.5
655.2	197.4
655.4	196.5
655.6	195.6
655.8	193.8
656.0	192.3
656.2	190.4
656.4	189.6
656.6	188.4
656.8	187.3
657.0	186.8
657.2	184.8
657.4	183.3
657.6	182.6
657.8	181.7
658.0	180.6
658.2	179.7
658.4	178.0
658.6	176.6
658.8	174.8
659.0	174.0
659.2	172.8
659.4	171.6
659.6	169.9
659.8	168.4
660.0	166.6
660.2	165.7
660.4	165.4
660.6	165.2
660.8	163.9
661.0	162.5
661.2	161.2
661.4	160.0
661.6	158.9
661.8	157.8
662.0	156.2
662.2	154.8
662.4	153.5
662.6	152.4
662.8	151.1
663.0	150.8
663.2	150.1
663.4	149.7
663.6	148.8
663.8	147.8
664.0	146.3
664.2	145.6
664.4	143.9
664.6	142.8
664.8	141.6
665.0	140.6
665.2	139.8
665.4	139.0
665.6	137.7
665.8	136.9
666.0	135.9
666.2	134.8
666.4	133.5
666.6	133.1
666.8	132.1
667.0	130.8
667.2	129.9
667.4	129.2
667.6	128.3
667.8	127.8
668.0	125.9
668.2	124.1
668.4	123.5
668.6	123.6
668.8	123.4
669.0	122.7
669.2	121.3
669.4	119.8
669.6	119.1
669.8	118.9
670.0	117.7
670.2	117.2
670.4	116.4
670.6	115.7
670.8	114.8
671.0	113.7
671.2	112.5
671.4	111.6
671.6	110.3
671.8	109.8
672.0	109.2
672.2	108.5
672.4	108.6
672.6	107.9
672.8	106.6
673.0	105.5
673.2	104.6
673.4	103.9
673.6	103.3
673.8	102.9
674.0	102.4
674.2	101.7
674.4	101.2
674.6	100.3
674.8	99.23
675.0	98.57
675.2	98.11
675.4	97.84
675.6	97.19
675.8	95.87
676.0	94.95
676.2	93.91
676.4	92.74
676.6	92.38
676.8	92.48
677.0	91.26
677.2	90.71
677.4	90.03
677.6	88.67
677.8	88.45
678.0	88.82
678.2	87.98
678.4	87.61
678.6	86.84
678.8	86.10
679.0	85.48
679.2	85.30
679.4	84.97
679.6	84.04
679.8	82.86
680.0	82.15
680.2	81.01
680.4	80.44
680.6	80.14
680.8	79.67
681.0	78.78
681.2	78.56
681.4	78.02
681.6	77.67
681.8	77.32
682.0	77.12
682.2	76.22
682.4	75.26
682.6	74.62
682.8	73.98
683.0	73.23
683.2	73.11
683.4	73.02
683.6	72.74
683.8	72.48
684.0	71.48
684.2	70.50
684.4	69.91
684.6	69.47
684.8	69.07
685.0	68.43
685.2	67.61
685.4	66.86
685.6	66.43
685.8	65.90
686.0	65.47
686.2	64.70
686.4	63.98
686.6	63.49
686.8	63.46
687.0	63.26
687.2	63.05
687.4	62.24
687.6	61.77
687.8	61.48
688.0	61.48
688.2	61.15
688.4	60.55
688.6	59.59
688.8	58.94
689.0	58.58
689.2	58.72
689.4	58.71
689.6	58.49
689.8	58.03
690.0	57.26
690.2	56.64
690.4	56.28
690.6	56.05
690.8	55.47
691.0	55.40
691.2	54.97
691.4	54.84
691.6	54.77
691.8	54.39
692.0	53.47
692.2	52.79
692.4	51.85
692.6	51.95
692.8	51.79
693.0	51.68
693.2	51.47
693.4	50.92
693.6	50.29
693.8	50.26
694.0	50.05
694.2	49.87
694.4	49.47
694.6	49.31
694.8	48.87
695.0	48.60
695.2	48.28
695.4	47.89
695.6	47.37
695.8	47.22
696.0	46.79
696.2	46.33
696.4	46.17
696.6	45.99
696.8	45.60
697.0	45.06
697.2	44.96
697.4	44.60
697.6	44.68
697.8	44.28
698.0	43.78
698.2	43.11
698.4	43.05
698.6	42.75
698.8	42.46
699.0	42.12
699.2	41.98
699.4	41.71
699.6	42.01
699.8	42.03
700.0	41.56
700.2	41.29
700.4	41.25
700.6	41.01
700.8	40.90
701.0	40.62
701.2	39.77
701.4	39.40
701.6	39.08
701.8	39.12
702.0	38.98
702.2	39.11
702.4	38.71
702.6	38.18
702.8	37.75
703.0	37.68
703.2	37.53
703.4	37.44
703.6	37.41
703.8	36.85
704.0	36.69
704.2	36.51
704.4	36.08
704.6	35.88
704.8	35.55
705.0	34.85
705.2	34.66
705.4	34.70
705.6	34.42
705.8	34.12
706.0	34.01
706.2	33.63
706.4	33.77
706.6	33.98
706.8	34.07
707.0	33.79
707.2	33.44
707.4	33.00
707.6	32.55
707.8	32.12
708.0	32.12
708.2	32.18
708.4	31.77
708.6	31.83
708.8	31.50
709.0	31.25
709.2	30.96
709.4	30.83
709.6	30.55
709.8	30.15
710.0	29.87
710.2	29.59
710.4	28.99
710.6	29.21
710.8	29.34
711.0	29.09
711.2	28.94
711.4	28.93
711.6	28.65
711.8	28.69
712.0	28.57
712.2	27.95
712.4	27.32
712.6	27.23
712.8	27.41
713.0	27.29
713.2	27.23
713.4	27.02
713.6	26.67
713.8	26.48
714.0	26.75
714.2	26.51
714.4	26.37
714.6	26.16
714.8	25.79
715.0	25.44
715.2	25.59
715.4	25.39
715.6	25.17
715.8	24.65
716.0	24.35
716.2	24.06
716.4	24.38
716.6	24.59
716.8	24.53
717.0	24.04
717.2	23.79
717.4	23.58
717.6	23.24
717.8	22.82
718.0	22.67
718.2	22.40
718.4	22.74
718.6	22.93
718.8	22.78
719.0	22.47
719.2	22.47
719.4	22.01
719.6	21.68
719.8	21.16
720.0	20.84
720.2	20.77
720.4	20.92
