Sample:	'20211010A(EM)
File name:	YUAN S2-.FDS
Run date:	'16:07:05, 03/23/2023
Operator:	Administrator
Comment:	'

Instrument
Model:	F-4700 FL Spectrophotometer
Serial number:	2019-001
ROM Version:	5J24010 00

Instrument parameters
Measurement type:	Wavelength scan
Scan mode:	Emission
Data mode:	Fluorescence
EX WL:	400.0 nm
EM  Start WL:	420.0 nm
EM  End WL:	850.0 nm
Scan speed:	1200 nm/min
Delay:	0.0 s
EX Slit:	10.0 nm
EM Slit:	10.0 nm
PMT Voltage:	465 V
Response:	0.002 s
Corrected spectra:	Off
Shutter control:	On

Processing performed
Savitsky-Golay smoothed
Smoothing order:	3
Number of points:	7
Number of times:	1

Peak integration
Integration method:	Rectangular
Sensitivity:	1
Threshold:	1.000

Peaks
No.	Start(nm)	Apex(nm)	End(nm)	Height(Data)	Valley(nm)	Valley(Data)
1	420.0	548.6	786.0	8032	786.0	8.681
2	786.0	799.4	850.0	13.42	850.0	2.624

Data points
nm	Data
420.0	12.71
420.2	12.91
420.4	12.98
420.6	12.99
420.8	13.08
421.0	13.08
421.2	13.02
421.4	13.18
421.6	13.33
421.8	13.40
422.0	13.50
422.2	13.42
422.4	13.35
422.6	13.60
422.8	14.00
423.0	14.00
423.2	13.91
423.4	13.96
423.6	14.03
423.8	14.19
424.0	14.52
424.2	14.51
424.4	14.52
424.6	14.70
424.8	14.95
425.0	15.10
425.2	15.28
425.4	15.27
425.6	15.47
425.8	15.60
426.0	15.81
426.2	15.77
426.4	15.92
426.6	16.05
426.8	16.34
427.0	16.52
427.2	16.55
427.4	16.37
427.6	16.38
427.8	16.45
428.0	16.51
428.2	16.76
428.4	16.80
428.6	16.93
428.8	16.99
429.0	17.31
429.2	17.58
429.4	17.67
429.6	17.64
429.8	17.73
430.0	17.79
430.2	18.34
430.4	18.78
430.6	18.70
430.8	18.45
431.0	18.37
431.2	18.28
431.4	18.52
431.6	18.99
431.8	19.30
432.0	19.40
432.2	19.58
432.4	19.69
432.6	19.65
432.8	19.76
433.0	19.84
433.2	20.22
433.4	20.44
433.6	20.58
433.8	20.57
434.0	20.40
434.2	20.23
434.4	20.71
434.6	21.04
434.8	21.43
435.0	21.69
435.2	21.92
435.4	22.19
435.6	22.39
435.8	22.57
436.0	22.66
436.2	22.72
436.4	22.76
436.6	22.76
436.8	22.82
437.0	23.00
437.2	23.35
437.4	24.06
437.6	24.20
437.8	24.11
438.0	24.33
438.2	24.43
438.4	24.76
438.6	25.03
438.8	25.28
439.0	25.77
439.2	26.22
439.4	26.66
439.6	26.84
439.8	26.55
440.0	26.58
440.2	26.86
440.4	26.83
440.6	27.46
440.8	28.15
441.0	28.48
441.2	29.01
441.4	29.19
441.6	29.37
441.8	29.90
442.0	30.61
442.2	31.06
442.4	31.25
442.6	31.26
442.8	31.07
443.0	30.99
443.2	31.43
443.4	31.72
443.6	31.95
443.8	32.25
444.0	32.78
444.2	33.50
444.4	34.27
444.6	34.53
444.8	34.72
445.0	34.42
445.2	34.80
445.4	35.03
445.6	35.54
445.8	36.21
446.0	36.94
446.2	37.66
446.4	38.05
446.6	38.47
446.8	38.96
447.0	39.70
447.2	40.11
447.4	40.80
447.6	40.96
447.8	41.38
448.0	41.60
448.2	42.31
448.4	42.36
448.6	42.70
448.8	42.78
449.0	42.96
449.2	43.37
449.4	44.13
449.6	44.99
449.8	46.02
450.0	46.84
450.2	47.58
450.4	47.90
450.6	48.25
450.8	49.11
451.0	49.65
451.2	50.39
451.4	50.65
451.6	50.54
451.8	51.00
452.0	51.77
452.2	52.34
452.4	52.68
452.6	53.26
452.8	53.44
453.0	54.07
453.2	54.47
453.4	54.92
453.6	55.46
453.8	56.26
454.0	57.05
454.2	58.02
454.4	58.17
454.6	58.49
454.8	58.81
455.0	58.81
455.2	59.56
455.4	59.90
455.6	60.24
455.8	60.66
456.0	61.14
456.2	61.87
456.4	62.90
456.6	63.23
456.8	63.98
457.0	64.36
457.2	64.62
457.4	64.87
457.6	65.50
457.8	65.70
458.0	66.48
458.2	67.34
458.4	68.04
458.6	68.53
458.8	68.39
459.0	68.61
459.2	68.49
459.4	68.99
459.6	69.69
459.8	70.59
460.0	71.02
460.2	72.20
460.4	72.34
460.6	72.46
460.8	73.27
461.0	73.97
461.2	74.63
461.4	75.56
461.6	76.03
461.8	76.45
462.0	76.93
462.2	77.43
462.4	77.98
462.6	78.81
462.8	79.63
463.0	80.67
463.2	80.94
463.4	81.50
463.6	81.61
463.8	82.39
464.0	82.93
464.2	83.73
464.4	84.37
464.6	84.88
464.8	85.00
465.0	86.58
465.2	87.40
465.4	88.10
465.6	88.82
465.8	89.33
466.0	89.41
466.2	90.70
466.4	91.84
466.6	93.37
466.8	94.56
467.0	94.96
467.2	95.64
467.4	96.90
467.6	98.16
467.8	99.69
468.0	100.3
468.2	101.4
468.4	102.5
468.6	103.6
468.8	104.2
469.0	104.6
469.2	105.0
469.4	106.4
469.6	107.5
469.8	108.8
470.0	110.7
470.2	112.6
470.4	114.5
470.6	116.1
470.8	117.1
471.0	118.1
471.2	119.3
471.4	121.0
471.6	122.1
471.8	124.4
472.0	126.3
472.2	128.0
472.4	129.3
472.6	131.1
472.8	132.5
473.0	134.9
473.2	136.2
473.4	137.4
473.6	138.7
473.8	141.4
474.0	143.8
474.2	146.8
474.4	149.3
474.6	151.6
474.8	154.2
475.0	156.4
475.2	158.0
475.4	160.0
475.6	162.7
475.8	165.1
476.0	167.4
476.2	169.6
476.4	173.2
476.6	177.0
476.8	180.3
477.0	183.1
477.2	184.9
477.4	187.5
477.6	190.9
477.8	195.2
478.0	198.7
478.2	202.8
478.4	206.4
478.6	209.3
478.8	211.6
479.0	215.4
479.2	219.8
479.4	224.0
479.6	228.6
479.8	232.0
480.0	234.0
480.2	238.3
480.4	243.0
480.6	247.1
480.8	252.9
481.0	258.0
481.2	262.5
481.4	268.0
481.6	272.8
481.8	277.7
482.0	282.6
482.2	286.9
482.4	292.5
482.6	298.3
482.8	303.4
483.0	309.4
483.2	314.1
483.4	317.7
483.6	322.8
483.8	329.4
484.0	336.5
484.2	344.6
484.4	351.2
484.6	356.7
484.8	364.1
485.0	370.6
485.2	377.2
485.4	384.0
485.6	390.1
485.8	395.2
486.0	403.4
486.2	412.4
486.4	421.3
486.6	429.2
486.8	437.6
487.0	444.6
487.2	453.2
487.4	464.0
487.6	472.9
487.8	480.1
488.0	487.9
488.2	496.8
488.4	506.0
488.6	517.2
488.8	526.9
489.0	536.0
489.2	544.3
489.4	553.9
489.6	564.3
489.8	576.4
490.0	588.3
490.2	599.5
490.4	610.2
490.6	622.0
490.8	635.7
491.0	649.6
491.2	661.6
491.4	672.3
491.6	682.5
491.8	693.9
492.0	707.2
492.2	720.7
492.4	733.1
492.6	746.3
492.8	758.8
493.0	773.3
493.2	788.5
493.4	805.1
493.6	819.8
493.8	834.5
494.0	847.8
494.2	863.9
494.4	880.6
494.6	899.6
494.8	914.9
495.0	930.4
495.2	944.5
495.4	962.4
495.6	980.7
495.8	1002
496.0	1019
496.2	1036
496.4	1052
496.6	1070
496.8	1089
497.0	1110
497.2	1129
497.4	1147
497.6	1166
497.8	1186
498.0	1208
498.2	1229
498.4	1249
498.6	1268
498.8	1289
499.0	1310
499.2	1332
499.4	1356
499.6	1379
499.8	1404
500.0	1426
500.2	1449
500.4	1474
500.6	1499
500.8	1524
501.0	1549
501.2	1572
501.4	1596
501.6	1624
501.8	1653
502.0	1677
502.2	1704
502.4	1729
502.6	1754
502.8	1780
503.0	1807
503.2	1833
503.4	1860
503.6	1887
503.8	1916
504.0	1946
504.2	1977
504.4	2007
504.6	2035
504.8	2060
505.0	2088
505.2	2118
505.4	2151
505.6	2183
505.8	2219
506.0	2248
506.2	2279
506.4	2310
506.6	2343
506.8	2378
507.0	2412
507.2	2444
507.4	2474
507.6	2509
507.8	2540
508.0	2573
508.2	2604
508.4	2635
508.6	2670
508.8	2704
509.0	2741
509.2	2779
509.4	2815
509.6	2849
509.8	2888
510.0	2921
510.2	2956
510.4	2990
510.6	3026
510.8	3062
511.0	3100
511.2	3135
511.4	3170
511.6	3205
511.8	3241
512.0	3276
512.2	3315
512.4	3357
512.6	3397
512.8	3439
513.0	3473
513.2	3508
513.4	3549
513.6	3588
513.8	3624
514.0	3660
514.2	3693
514.4	3733
514.6	3775
514.8	3814
515.0	3849
515.2	3883
515.4	3917
515.6	3959
515.8	4004
516.0	4047
516.2	4092
516.4	4130
516.6	4163
516.8	4202
517.0	4243
517.2	4280
517.4	4323
517.6	4358
517.8	4391
518.0	4426
518.2	4463
518.4	4500
518.6	4544
518.8	4590
519.0	4628
519.2	4663
519.4	4697
519.6	4730
519.8	4768
520.0	4809
520.2	4847
520.4	4886
520.6	4928
520.8	4966
521.0	5007
521.2	5050
521.4	5091
521.6	5128
521.8	5170
522.0	5208
522.2	5248
522.4	5287
522.6	5322
522.8	5353
523.0	5389
523.2	5424
523.4	5461
523.6	5500
523.8	5532
524.0	5563
524.2	5602
524.4	5635
524.6	5673
524.8	5709
525.0	5743
525.2	5775
525.4	5812
525.6	5848
525.8	5884
526.0	5919
526.2	5957
526.4	5993
526.6	6023
526.8	6056
527.0	6088
527.2	6123
527.4	6160
527.6	6199
527.8	6227
528.0	6255
528.2	6286
528.4	6315
528.6	6347
528.8	6377
529.0	6404
529.2	6433
529.4	6467
529.6	6496
529.8	6527
530.0	6557
530.2	6591
530.4	6623
530.6	6653
530.8	6678
531.0	6704
531.2	6731
531.4	6766
531.6	6793
531.8	6815
532.0	6843
532.2	6870
532.4	6899
532.6	6933
532.8	6956
533.0	6979
533.2	7004
533.4	7031
533.6	7056
533.8	7079
534.0	7103
534.2	7128
534.4	7144
534.6	7165
534.8	7186
535.0	7207
535.2	7235
535.4	7264
535.6	7286
535.8	7305
536.0	7322
536.2	7342
536.4	7371
536.6	7404
536.8	7427
537.0	7446
537.2	7453
537.4	7471
537.6	7488
537.8	7510
538.0	7523
538.2	7547
538.4	7570
538.6	7596
538.8	7613
539.0	7625
539.2	7625
539.4	7640
539.6	7653
539.8	7666
540.0	7682
540.2	7692
540.4	7706
540.6	7720
540.8	7729
541.0	7743
541.2	7750
541.4	7760
541.6	7778
541.8	7799
542.0	7820
542.2	7835
542.4	7845
542.6	7858
542.8	7863
543.0	7879
543.2	7884
543.4	7886
543.6	7886
543.8	7888
544.0	7894
544.2	7906
544.4	7915
544.6	7927
544.8	7934
545.0	7940
545.2	7950
545.4	7956
545.6	7962
545.8	7963
546.0	7964
546.2	7967
546.4	7975
546.6	7983
546.8	7999
547.0	8007
547.2	8010
547.4	8021
547.6	8020
547.8	8015
548.0	8027
548.2	8029
548.4	8031
548.6	8032
548.8	8021
549.0	8019
549.2	8022
549.4	8024
549.6	8021
549.8	8018
550.0	8015
550.2	8026
550.4	8020
550.6	8013
550.8	7999
551.0	7998
551.2	7998
551.4	8006
551.6	8005
551.8	8005
552.0	7996
552.2	7992
552.4	7990
552.6	7990
552.8	7988
553.0	7987
553.2	7977
553.4	7975
553.6	7968
553.8	7960
554.0	7944
554.2	7934
554.4	7927
554.6	7924
554.8	7915
555.0	7906
555.2	7895
555.4	7891
555.6	7885
555.8	7880
556.0	7872
556.2	7861
556.4	7855
556.6	7847
556.8	7835
557.0	7828
557.2	7822
557.4	7815
557.6	7816
557.8	7813
558.0	7798
558.2	7784
558.4	7769
558.6	7750
558.8	7742
559.0	7731
559.2	7718
559.4	7713
559.6	7703
559.8	7688
560.0	7676
560.2	7655
560.4	7644
560.6	7634
560.8	7625
561.0	7612
561.2	7605
561.4	7589
561.6	7581
561.8	7563
562.0	7548
562.2	7531
562.4	7524
562.6	7513
562.8	7506
563.0	7494
563.2	7478
563.4	7467
563.6	7454
563.8	7433
564.0	7419
564.2	7402
564.4	7381
564.6	7366
564.8	7344
565.0	7323
565.2	7311
565.4	7290
565.6	7274
565.8	7260
566.0	7247
566.2	7240
566.4	7227
566.6	7203
566.8	7183
567.0	7162
567.2	7150
567.4	7139
567.6	7123
567.8	7109
568.0	7090
568.2	7069
568.4	7053
568.6	7037
568.8	7021
569.0	7002
569.2	6984
569.4	6965
569.6	6954
569.8	6939
570.0	6918
570.2	6900
570.4	6877
570.6	6851
570.8	6833
571.0	6814
571.2	6799
571.4	6785
571.6	6764
571.8	6743
572.0	6725
572.2	6711
572.4	6700
572.6	6680
572.8	6666
573.0	6647
573.2	6627
573.4	6603
573.6	6578
573.8	6554
574.0	6537
574.2	6524
574.4	6509
574.6	6491
574.8	6464
575.0	6442
575.2	6424
575.4	6405
575.6	6385
575.8	6363
576.0	6338
576.2	6321
576.4	6301
576.6	6281
576.8	6262
577.0	6241
577.2	6227
577.4	6213
577.6	6188
577.8	6166
578.0	6146
578.2	6133
578.4	6123
578.6	6105
578.8	6082
579.0	6057
579.2	6034
579.4	6007
579.6	5988
579.8	5968
580.0	5946
580.2	5926
580.4	5908
580.6	5883
580.8	5863
581.0	5844
581.2	5822
581.4	5802
581.6	5783
581.8	5762
582.0	5741
582.2	5724
582.4	5709
582.6	5693
582.8	5673
583.0	5650
583.2	5634
583.4	5616
583.6	5601
583.8	5580
584.0	5554
584.2	5532
584.4	5510
584.6	5495
584.8	5481
585.0	5459
585.2	5432
585.4	5402
585.6	5377
585.8	5358
586.0	5342
586.2	5323
586.4	5301
586.6	5281
586.8	5267
587.0	5249
587.2	5235
587.4	5220
587.6	5198
587.8	5180
588.0	5160
588.2	5143
588.4	5123
588.6	5104
588.8	5082
589.0	5061
589.2	5042
589.4	5027
589.6	5010
589.8	4986
590.0	4961
590.2	4935
590.4	4912
590.6	4891
590.8	4871
591.0	4846
591.2	4828
591.4	4813
591.6	4796
591.8	4783
592.0	4764
592.2	4743
592.4	4725
592.6	4709
592.8	4687
593.0	4671
593.2	4653
593.4	4637
593.6	4621
593.8	4604
594.0	4583
594.2	4559
594.4	4537
594.6	4517
594.8	4495
595.0	4479
595.2	4462
595.4	4440
595.6	4424
595.8	4403
596.0	4381
596.2	4362
596.4	4345
596.6	4325
596.8	4308
597.0	4287
597.2	4267
597.4	4252
597.6	4238
597.8	4229
598.0	4216
598.2	4198
598.4	4175
598.6	4154
598.8	4134
599.0	4119
599.2	4098
599.4	4080
599.6	4062
599.8	4038
600.0	4021
600.2	4002
600.4	3980
600.6	3963
600.8	3948
601.0	3931
601.2	3913
601.4	3895
601.6	3878
601.8	3858
602.0	3838
602.2	3821
602.4	3798
602.6	3783
602.8	3769
603.0	3756
603.2	3739
603.4	3723
603.6	3703
603.8	3687
604.0	3673
604.2	3656
604.4	3639
604.6	3621
604.8	3601
605.0	3582
605.2	3564
605.4	3545
605.6	3527
605.8	3510
606.0	3495
606.2	3476
606.4	3455
606.6	3442
606.8	3427
607.0	3411
607.2	3395
607.4	3377
607.6	3358
607.8	3343
608.0	3330
608.2	3310
608.4	3294
608.6	3280
608.8	3266
609.0	3250
609.2	3236
609.4	3218
609.6	3199
609.8	3181
610.0	3161
610.2	3142
610.4	3126
610.6	3111
610.8	3094
611.0	3079
611.2	3067
611.4	3053
611.6	3034
611.8	3014
612.0	2997
612.2	2981
612.4	2971
612.6	2958
612.8	2944
613.0	2931
613.2	2915
613.4	2897
613.6	2880
613.8	2866
614.0	2856
614.2	2846
614.4	2831
614.6	2812
614.8	2793
615.0	2779
615.2	2764
615.4	2749
615.6	2731
615.8	2715
616.0	2697
616.2	2682
616.4	2669
616.6	2654
616.8	2640
617.0	2627
617.2	2610
617.4	2597
617.6	2585
617.8	2574
618.0	2562
618.2	2547
618.4	2533
618.6	2522
618.8	2507
619.0	2493
619.2	2477
619.4	2458
619.6	2446
619.8	2433
620.0	2418
620.2	2402
620.4	2387
620.6	2368
620.8	2356
621.0	2348
621.2	2336
621.4	2324
621.6	2311
621.8	2296
622.0	2285
622.2	2275
622.4	2262
622.6	2250
622.8	2236
623.0	2221
623.2	2205
623.4	2193
623.6	2182
623.8	2172
624.0	2159
624.2	2147
624.4	2133
624.6	2120
624.8	2108
625.0	2094
625.2	2079
625.4	2068
625.6	2056
625.8	2041
626.0	2030
626.2	2015
626.4	2001
626.6	1988
626.8	1978
627.0	1970
627.2	1966
627.4	1955
627.6	1942
627.8	1924
628.0	1909
628.2	1896
628.4	1888
628.6	1878
628.8	1871
629.0	1863
629.2	1851
629.4	1836
629.6	1824
629.8	1811
630.0	1801
630.2	1791
630.4	1779
630.6	1764
630.8	1751
631.0	1740
631.2	1729
631.4	1720
631.6	1709
631.8	1701
632.0	1693
632.2	1683
632.4	1674
632.6	1664
632.8	1653
633.0	1644
633.2	1637
633.4	1626
633.6	1618
633.8	1606
634.0	1594
634.2	1583
634.4	1573
634.6	1563
634.8	1554
635.0	1545
635.2	1533
635.4	1525
635.6	1515
635.8	1504
636.0	1491
636.2	1484
636.4	1473
636.6	1466
636.8	1457
637.0	1447
637.2	1437
637.4	1431
637.6	1422
637.8	1414
638.0	1403
638.2	1392
638.4	1384
638.6	1376
638.8	1369
639.0	1361
639.2	1356
639.4	1347
639.6	1338
639.8	1329
640.0	1321
640.2	1311
640.4	1305
640.6	1296
640.8	1286
641.0	1278
641.2	1270
641.4	1261
641.6	1252
641.8	1244
642.0	1235
642.2	1225
642.4	1216
642.6	1208
642.8	1202
643.0	1197
643.2	1191
643.4	1182
643.6	1174
643.8	1166
644.0	1159
644.2	1153
644.4	1146
644.6	1139
644.8	1131
645.0	1123
645.2	1114
645.4	1105
645.6	1099
645.8	1093
646.0	1085
646.2	1078
646.4	1069
646.6	1059
646.8	1054
647.0	1046
647.2	1040
647.4	1035
647.6	1029
647.8	1023
648.0	1019
648.2	1014
648.4	1009
648.6	1001
648.8	994.3
649.0	985.1
649.2	978.1
649.4	970.7
649.6	966.7
649.8	959.3
650.0	953.5
650.2	945.8
650.4	937.6
650.6	929.1
650.8	923.5
651.0	917.5
651.2	911.8
651.4	905.8
651.6	900.6
651.8	893.7
652.0	888.0
652.2	881.9
652.4	875.3
652.6	870.5
652.8	866.9
653.0	859.9
653.2	854.1
653.4	847.6
653.6	842.8
653.8	838.8
654.0	833.7
654.2	826.7
654.4	820.2
654.6	813.3
654.8	808.8
655.0	804.5
655.2	799.2
655.4	794.4
655.6	787.0
655.8	779.3
656.0	774.3
656.2	768.5
656.4	765.5
656.6	762.1
656.8	758.2
657.0	753.4
657.2	747.5
657.4	740.3
657.6	734.7
657.8	727.9
658.0	723.3
658.2	719.1
658.4	716.0
658.6	712.9
658.8	708.4
659.0	704.6
659.2	696.9
659.4	689.9
659.6	684.2
659.8	680.8
660.0	676.0
660.2	672.6
660.4	666.3
660.6	662.0
660.8	658.7
661.0	656.6
661.2	650.8
661.4	646.4
661.6	640.0
661.8	635.9
662.0	632.9
662.2	628.0
662.4	623.1
662.6	619.1
662.8	614.8
663.0	610.9
663.2	606.7
663.4	599.5
663.6	595.0
663.8	590.7
664.0	588.2
664.2	583.9
664.4	581.1
664.6	576.7
664.8	573.2
665.0	568.7
665.2	564.0
665.4	558.9
665.6	555.5
665.8	552.4
666.0	549.8
666.2	545.9
666.4	542.0
666.6	537.8
666.8	533.5
667.0	529.0
667.2	525.9
667.4	522.6
667.6	518.6
667.8	515.4
668.0	511.4
668.2	507.7
668.4	505.8
668.6	504.2
668.8	500.7
669.0	496.4
669.2	491.5
669.4	486.8
669.6	482.5
669.8	479.7
670.0	475.5
670.2	471.2
670.4	468.4
670.6	465.6
670.8	463.0
671.0	461.2
671.2	458.8
671.4	454.5
671.6	450.6
671.8	446.8
672.0	442.5
672.2	438.9
672.4	436.5
672.6	432.8
672.8	429.9
673.0	427.2
673.2	424.8
673.4	422.0
673.6	419.0
673.8	415.9
674.0	413.1
674.2	409.2
674.4	406.5
674.6	402.5
674.8	400.2
675.0	398.1
675.2	396.7
675.4	395.0
675.6	392.0
675.8	389.1
676.0	387.2
676.2	384.6
676.4	379.7
676.6	377.1
676.8	372.7
677.0	370.7
677.2	368.1
677.4	366.1
677.6	362.1
677.8	360.1
678.0	356.7
678.2	354.2
678.4	351.8
678.6	348.9
678.8	346.6
679.0	344.2
679.2	343.1
679.4	342.0
679.6	339.5
679.8	335.5
680.0	331.5
680.2	327.8
680.4	326.3
680.6	324.6
680.8	322.1
681.0	320.0
681.2	317.3
681.4	315.1
681.6	313.3
681.8	310.4
682.0	308.4
682.2	306.0
682.4	303.6
682.6	301.4
682.8	299.9
683.0	297.1
683.2	295.0
683.4	292.1
683.6	290.0
683.8	288.2
684.0	287.4
684.2	285.3
684.4	283.3
684.6	280.7
684.8	278.8
685.0	276.7
685.2	275.5
685.4	273.5
685.6	271.3
685.8	268.5
686.0	267.4
686.2	265.6
686.4	263.7
686.6	261.8
686.8	258.7
687.0	255.7
687.2	253.6
687.4	251.7
687.6	249.3
687.8	247.8
688.0	246.1
688.2	244.8
688.4	243.2
688.6	241.9
688.8	239.6
689.0	237.2
689.2	235.3
689.4	233.6
689.6	232.3
689.8	231.4
690.0	230.1
690.2	229.3
690.4	228.8
690.6	227.5
690.8	225.2
691.0	222.7
691.2	220.4
691.4	218.8
691.6	217.9
691.8	216.9
692.0	215.2
692.2	213.7
692.4	211.7
692.6	208.9
692.8	206.8
693.0	205.7
693.2	204.9
693.4	204.7
693.6	203.9
693.8	202.1
694.0	200.1
694.2	198.8
694.4	197.3
694.6	195.2
694.8	193.8
695.0	192.1
695.2	190.3
695.4	188.9
695.6	188.1
695.8	186.7
696.0	186.3
696.2	184.4
696.4	182.8
696.6	181.2
696.8	180.8
697.0	180.0
697.2	179.4
697.4	177.7
697.6	176.2
697.8	174.8
698.0	173.6
698.2	172.0
698.4	170.8
698.6	170.6
698.8	169.5
699.0	168.8
699.2	167.7
699.4	165.7
699.6	165.1
699.8	165.0
700.0	164.1
700.2	163.2
700.4	162.2
700.6	160.4
700.8	159.5
701.0	157.7
701.2	157.1
701.4	156.5
701.6	156.2
701.8	154.8
702.0	153.1
702.2	151.3
702.4	151.0
702.6	149.8
702.8	149.1
703.0	147.8
703.2	147.1
703.4	146.9
703.6	146.1
703.8	144.6
704.0	143.2
704.2	141.8
704.4	141.4
704.6	141.3
704.8	140.4
705.0	140.1
705.2	138.6
705.4	137.4
705.6	135.9
705.8	134.6
706.0	133.9
706.2	134.3
706.4	133.0
706.6	132.5
706.8	131.4
707.0	130.3
707.2	129.5
707.4	128.8
707.6	127.4
707.8	126.3
708.0	125.1
708.2	124.7
708.4	123.9
708.6	123.4
708.8	122.7
709.0	122.0
709.2	120.8
709.4	120.6
709.6	120.3
709.8	120.1
710.0	119.3
710.2	118.8
710.4	117.3
710.6	115.6
710.8	113.8
711.0	112.5
711.2	112.0
711.4	112.0
711.6	111.7
711.8	110.9
712.0	109.9
712.2	109.1
712.4	108.2
712.6	107.0
712.8	105.6
713.0	104.9
713.2	103.9
713.4	103.8
713.6	103.7
713.8	102.9
714.0	102.3
714.2	101.5
714.4	99.94
714.6	98.97
714.8	98.75
715.0	98.39
715.2	98.50
715.4	98.29
715.6	97.41
715.8	96.62
716.0	95.88
716.2	94.81
716.4	93.92
716.6	93.01
716.8	92.22
717.0	91.89
717.2	91.69
717.4	91.05
717.6	90.63
717.8	89.33
718.0	88.56
718.2	88.08
718.4	87.85
718.6	87.57
718.8	87.15
719.0	85.55
719.2	84.51
719.4	83.52
719.6	83.12
719.8	83.22
720.0	83.10
720.2	82.50
720.4	81.84
720.6	80.77
720.8	80.02
721.0	79.39
721.2	78.71
721.4	78.10
721.6	77.11
721.8	76.92
722.0	76.12
722.2	76.13
722.4	75.62
722.6	74.80
722.8	74.46
723.0	74.22
723.2	73.35
723.4	73.50
723.6	72.65
723.8	71.16
724.0	70.56
724.2	69.86
724.4	69.41
724.6	69.57
724.8	69.08
725.0	68.29
