Sample:	'20211010A(EM)
File name:	B-NI 5 500.FDS
Run date:	'10:35:21, 06/20/2023
Operator:	Administrator
Comment:	'

Instrument
Model:	F-4700 FL Spectrophotometer
Serial number:	2019-001
ROM Version:	5J24010 00

Instrument parameters
Measurement type:	Wavelength scan
Scan mode:	Emission
Data mode:	Fluorescence
EX WL:	350.0 nm
EM  Start WL:	370.0 nm
EM  End WL:	700.0 nm
Scan speed:	1200 nm/min
Delay:	0.0 s
EX Slit:	10.0 nm
EM Slit:	10.0 nm
PMT Voltage:	312 V
Response:	0.002 s
Corrected spectra:	Off
Shutter control:	On

Processing performed
Savitsky-Golay smoothed
Smoothing order:	3
Number of points:	7
Number of times:	1

Peak integration
Integration method:	Rectangular
Sensitivity:	1
Threshold:	1.000

Peaks
No.	Start(nm)	Apex(nm)	End(nm)	Height(Data)	Valley(nm)	Valley(Data)
1	370.0	454.8	456.8	8089	456.8	8061
2	456.8	458.6	700.0	8096	700.0	6.679

Data points
nm	Data
370.0	26.64
370.2	27.12
370.4	27.50
370.6	27.86
370.8	28.35
371.0	28.87
371.2	29.37
371.4	30.08
371.6	30.77
371.8	31.37
372.0	31.83
372.2	32.42
372.4	32.80
372.6	33.35
372.8	34.10
373.0	34.83
373.2	35.49
373.4	36.20
373.6	36.79
373.8	37.46
374.0	38.14
374.2	38.92
374.4	39.73
374.6	40.46
374.8	41.20
375.0	41.79
375.2	42.57
375.4	43.43
375.6	44.33
375.8	45.41
376.0	46.47
376.2	47.44
376.4	48.53
376.6	49.39
376.8	50.20
377.0	51.02
377.2	51.91
377.4	53.05
377.6	54.20
377.8	55.40
378.0	56.79
378.2	57.98
378.4	59.30
378.6	60.77
378.8	61.95
379.0	63.24
379.2	64.63
379.4	65.96
379.6	67.38
379.8	68.77
380.0	70.09
380.2	71.68
380.4	73.35
380.6	74.88
380.8	76.67
381.0	78.30
381.2	79.83
381.4	81.62
381.6	83.17
381.8	84.69
382.0	86.58
382.2	88.62
382.4	90.58
382.6	92.96
382.8	94.95
383.0	97.25
383.2	99.38
383.4	101.5
383.6	103.2
383.8	105.4
384.0	107.9
384.2	110.8
384.4	113.6
384.6	116.4
384.8	119.0
385.0	121.9
385.2	125.0
385.4	128.1
385.6	131.1
385.8	133.9
386.0	136.9
386.2	140.0
386.4	143.5
386.6	147.3
386.8	151.0
387.0	154.3
387.2	157.6
387.4	160.6
387.6	164.6
387.8	169.2
388.0	173.9
388.2	177.9
388.4	182.0
388.6	185.7
388.8	190.0
389.0	194.6
389.2	199.2
389.4	203.8
389.6	208.7
389.8	213.7
390.0	218.8
390.2	224.1
390.4	229.5
390.6	235.2
390.8	241.3
391.0	247.8
391.2	253.9
391.4	260.3
391.6	266.3
391.8	272.1
392.0	278.3
392.2	284.5
392.4	291.3
392.6	298.5
392.8	305.3
393.0	312.1
393.2	318.6
393.4	325.6
393.6	333.2
393.8	341.4
394.0	350.0
394.2	359.1
394.4	367.9
394.6	376.9
394.8	385.2
395.0	394.4
395.2	403.3
395.4	413.2
395.6	422.3
395.8	431.9
396.0	441.6
396.2	453.2
396.4	464.3
396.6	475.2
396.8	484.8
397.0	495.9
397.2	506.7
397.4	520.0
397.6	532.6
397.8	545.1
398.0	556.5
398.2	569.3
398.4	580.7
398.6	594.1
398.8	607.2
399.0	621.9
399.2	635.3
399.4	650.1
399.6	663.7
399.8	679.1
400.0	694.0
400.2	710.9
400.4	727.4
400.6	743.5
400.8	759.2
401.0	775.8
401.2	791.7
401.4	810.4
401.6	827.5
401.8	843.1
402.0	860.8
402.2	879.9
402.4	898.9
402.6	918.3
402.8	935.4
403.0	950.9
403.2	969.6
403.4	990.2
403.6	1013
403.8	1034
404.0	1055
404.2	1074
404.4	1094
404.6	1113
404.8	1135
405.0	1158
405.2	1183
405.4	1207
405.6	1231
405.8	1253
406.0	1276
406.2	1299
406.4	1323
406.6	1347
406.8	1370
407.0	1396
407.2	1420
407.4	1444
407.6	1469
407.8	1494
408.0	1520
408.2	1548
408.4	1575
408.6	1603
408.8	1632
409.0	1655
409.2	1681
409.4	1708
409.6	1738
409.8	1773
410.0	1805
410.2	1835
410.4	1865
410.6	1893
410.8	1921
411.0	1947
411.2	1975
411.4	2005
411.6	2038
411.8	2070
412.0	2104
412.2	2136
412.4	2168
412.6	2202
412.8	2235
413.0	2267
413.2	2298
413.4	2331
413.6	2360
413.8	2393
414.0	2425
414.2	2460
414.4	2495
414.6	2532
414.8	2566
415.0	2604
415.2	2639
415.4	2677
415.6	2712
415.8	2744
416.0	2776
416.2	2812
416.4	2851
416.6	2888
416.8	2921
417.0	2951
417.2	2984
417.4	3019
417.6	3058
417.8	3099
418.0	3135
418.2	3174
418.4	3212
418.6	3249
418.8	3283
419.0	3321
419.2	3353
419.4	3397
419.6	3435
419.8	3477
420.0	3515
420.2	3551
420.4	3586
420.6	3627
420.8	3665
421.0	3711
421.2	3754
421.4	3794
421.6	3831
421.8	3863
422.0	3896
422.2	3930
422.4	3966
422.6	4005
422.8	4047
423.0	4086
423.2	4126
423.4	4164
423.6	4202
423.8	4230
424.0	4270
424.2	4316
424.4	4362
424.6	4412
424.8	4450
425.0	4479
425.2	4511
425.4	4557
425.6	4594
425.8	4632
426.0	4667
426.2	4704
426.4	4744
426.6	4791
426.8	4834
427.0	4878
427.2	4915
427.4	4953
427.6	4988
427.8	5022
428.0	5056
428.2	5089
428.4	5123
428.6	5163
428.8	5204
429.0	5245
429.2	5284
429.4	5321
429.6	5360
429.8	5394
430.0	5431
430.2	5473
430.4	5515
430.6	5554
430.8	5585
431.0	5611
431.2	5645
431.4	5687
431.6	5730
431.8	5766
432.0	5797
432.2	5830
432.4	5872
432.6	5912
432.8	5942
433.0	5973
433.2	6010
433.4	6045
433.6	6087
433.8	6125
434.0	6156
434.2	6186
434.4	6216
434.6	6242
434.8	6270
435.0	6308
435.2	6345
435.4	6383
435.6	6419
435.8	6448
436.0	6472
436.2	6502
436.4	6529
436.6	6571
436.8	6611
437.0	6643
437.2	6672
437.4	6702
437.6	6723
437.8	6748
438.0	6770
438.2	6794
438.4	6827
438.6	6862
438.8	6901
439.0	6931
439.2	6954
439.4	6979
439.6	7001
439.8	7019
440.0	7043
440.2	7065
440.4	7084
440.6	7121
440.8	7147
441.0	7169
441.2	7191
441.4	7213
441.6	7240
441.8	7268
442.0	7290
442.2	7313
442.4	7328
442.6	7340
442.8	7366
443.0	7384
443.2	7416
443.4	7445
443.6	7464
443.8	7475
444.0	7498
444.2	7508
444.4	7532
444.6	7555
444.8	7568
445.0	7583
445.2	7605
445.4	7611
445.6	7631
445.8	7649
446.0	7660
446.2	7678
446.4	7697
446.6	7703
446.8	7716
447.0	7727
447.2	7746
447.4	7766
447.6	7790
447.8	7794
448.0	7802
448.2	7816
448.4	7843
448.6	7862
448.8	7875
449.0	7868
449.2	7875
449.4	7882
449.6	7906
449.8	7920
450.0	7931
450.2	7941
450.4	7948
450.6	7953
450.8	7962
451.0	7964
451.2	7974
451.4	7984
451.6	7986
451.8	7994
452.0	7998
452.2	8004
452.4	8008
452.6	8010
452.8	8015
453.0	8025
453.2	8027
453.4	8036
453.6	8033
453.8	8035
454.0	8038
454.2	8056
454.4	8077
454.6	8086
454.8	8089
455.0	8082
455.2	8070
455.4	8076
455.6	8074
455.8	8069
456.0	8071
456.2	8066
456.4	8065
456.6	8066
456.8	8061
457.0	8068
457.2	8080
457.4	8088
457.6	8091
457.8	8090
458.0	8087
458.2	8086
458.4	8090
458.6	8096
458.8	8094
459.0	8092
459.2	8081
459.4	8072
459.6	8065
459.8	8064
460.0	8055
460.2	8054
460.4	8052
460.6	8043
460.8	8037
461.0	8026
461.2	8011
461.4	8010
461.6	8009
461.8	8009
462.0	8000
462.2	7985
462.4	7977
462.6	7976
462.8	7966
463.0	7964
463.2	7950
463.4	7928
463.6	7921
463.8	7923
464.0	7919
464.2	7912
464.4	7899
464.6	7880
464.8	7873
465.0	7877
465.2	7871
465.4	7859
465.6	7836
465.8	7813
466.0	7797
466.2	7799
466.4	7782
466.6	7768
466.8	7754
467.0	7740
467.2	7728
467.4	7733
467.6	7717
467.8	7708
468.0	7690
468.2	7672
468.4	7657
468.6	7654
468.8	7640
469.0	7621
469.2	7589
469.4	7564
469.6	7557
469.8	7556
470.0	7544
470.2	7529
470.4	7511
470.6	7489
470.8	7474
471.0	7461
471.2	7448
471.4	7435
471.6	7411
471.8	7389
472.0	7371
472.2	7355
472.4	7345
472.6	7334
472.8	7316
473.0	7294
473.2	7272
473.4	7243
473.6	7222
473.8	7211
474.0	7203
474.2	7190
474.4	7180
474.6	7161
474.8	7142
475.0	7126
475.2	7105
475.4	7089
475.6	7069
475.8	7047
476.0	7028
476.2	7005
476.4	6989
476.6	6975
476.8	6955
477.0	6935
477.2	6917
477.4	6908
477.6	6894
477.8	6868
478.0	6845
478.2	6820
478.4	6802
478.6	6792
478.8	6773
479.0	6748
479.2	6727
479.4	6711
479.6	6691
479.8	6667
480.0	6648
480.2	6624
480.4	6605
480.6	6593
480.8	6582
481.0	6565
481.2	6549
481.4	6525
481.6	6503
481.8	6485
482.0	6471
482.2	6454
482.4	6431
482.6	6417
482.8	6408
483.0	6396
483.2	6371
483.4	6349
483.6	6315
483.8	6287
484.0	6261
484.2	6246
484.4	6227
484.6	6213
484.8	6195
485.0	6174
485.2	6152
485.4	6142
485.6	6133
485.8	6123
486.0	6103
486.2	6080
486.4	6062
486.6	6035
486.8	6004
487.0	5983
487.2	5959
487.4	5944
487.6	5933
487.8	5906
488.0	5877
488.2	5856
488.4	5840
488.6	5829
488.8	5816
489.0	5794
489.2	5774
489.4	5743
489.6	5717
489.8	5697
490.0	5676
490.2	5657
490.4	5643
490.6	5619
490.8	5597
491.0	5572
491.2	5548
491.4	5525
491.6	5504
491.8	5479
492.0	5460
492.2	5442
492.4	5428
492.6	5407
492.8	5386
493.0	5357
493.2	5341
493.4	5324
493.6	5301
493.8	5280
494.0	5257
494.2	5231
494.4	5214
494.6	5197
494.8	5177
495.0	5151
495.2	5122
495.4	5095
495.6	5077
495.8	5054
496.0	5042
496.2	5022
496.4	5003
496.6	4982
496.8	4962
497.0	4928
497.2	4914
497.4	4894
497.6	4879
497.8	4853
498.0	4828
498.2	4800
498.4	4780
498.6	4760
498.8	4746
499.0	4723
499.2	4704
499.4	4682
499.6	4663
499.8	4636
500.0	4606
500.2	4579
500.4	4556
500.6	4537
500.8	4525
501.0	4501
501.2	4483
501.4	4462
501.6	4438
501.8	4418
502.0	4399
502.2	4374
502.4	4358
502.6	4340
502.8	4313
503.0	4290
503.2	4264
503.4	4237
503.6	4221
503.8	4206
504.0	4188
504.2	4174
504.4	4153
504.6	4131
504.8	4112
505.0	4092
505.2	4073
505.4	4059
505.6	4038
505.8	4014
506.0	3991
506.2	3971
506.4	3951
506.6	3932
506.8	3908
507.0	3882
507.2	3863
507.4	3846
507.6	3832
507.8	3813
508.0	3790
508.2	3770
508.4	3753
508.6	3736
508.8	3717
509.0	3692
509.2	3668
509.4	3649
509.6	3630
509.8	3614
510.0	3596
510.2	3580
510.4	3563
510.6	3542
510.8	3523
511.0	3500
511.2	3479
511.4	3461
511.6	3447
511.8	3428
512.0	3412
512.2	3393
512.4	3373
512.6	3355
512.8	3337
513.0	3316
513.2	3298
513.4	3283
513.6	3270
513.8	3255
514.0	3236
514.2	3219
514.4	3199
514.6	3180
514.8	3164
515.0	3147
515.2	3129
515.4	3110
515.6	3089
515.8	3070
516.0	3052
516.2	3037
516.4	3020
516.6	3000
516.8	2985
517.0	2971
517.2	2955
517.4	2941
517.6	2923
517.8	2905
518.0	2888
518.2	2872
518.4	2856
518.6	2841
518.8	2825
519.0	2811
519.2	2795
519.4	2776
519.6	2759
519.8	2744
520.0	2727
520.2	2710
520.4	2695
520.6	2678
520.8	2666
521.0	2655
521.2	2638
521.4	2622
521.6	2605
521.8	2587
522.0	2570
522.2	2558
522.4	2545
522.6	2535
522.8	2523
523.0	2509
523.2	2490
523.4	2474
523.6	2456
523.8	2440
524.0	2427
524.2	2413
524.4	2399
524.6	2387
524.8	2373
525.0	2360
525.2	2347
525.4	2333
525.6	2318
525.8	2303
526.0	2288
526.2	2274
526.4	2260
526.6	2245
526.8	2232
527.0	2221
527.2	2212
527.4	2202
527.6	2191
527.8	2176
528.0	2161
528.2	2148
528.4	2135
528.6	2121
528.8	2110
529.0	2099
529.2	2087
529.4	2077
529.6	2064
529.8	2050
530.0	2039
530.2	2024
530.4	2010
530.6	1996
530.8	1982
531.0	1972
531.2	1961
531.4	1949
531.6	1936
531.8	1924
532.0	1910
532.2	1901
532.4	1891
532.6	1883
532.8	1874
533.0	1862
533.2	1846
533.4	1832
533.6	1820
533.8	1808
534.0	1800
534.2	1792
534.4	1784
534.6	1772
534.8	1758
535.0	1743
535.2	1732
535.4	1723
535.6	1715
535.8	1704
536.0	1694
536.2	1683
536.4	1674
536.6	1666
536.8	1654
537.0	1644
537.2	1635
537.4	1626
537.6	1616
537.8	1604
538.0	1589
538.2	1577
538.4	1567
538.6	1561
538.8	1553
539.0	1546
539.2	1536
539.4	1529
539.6	1518
539.8	1508
540.0	1497
540.2	1484
540.4	1473
540.6	1463
540.8	1454
541.0	1445
541.2	1439
541.4	1430
541.6	1421
541.8	1412
542.0	1402
542.2	1392
542.4	1386
542.6	1377
542.8	1368
543.0	1359
543.2	1347
543.4	1337
543.6	1331
543.8	1322
544.0	1316
544.2	1309
544.4	1300
544.6	1292
544.8	1284
545.0	1273
545.2	1264
545.4	1256
545.6	1249
545.8	1241
546.0	1235
546.2	1227
546.4	1217
546.6	1209
546.8	1201
547.0	1193
547.2	1187
547.4	1180
547.6	1170
547.8	1162
548.0	1156
548.2	1149
548.4	1142
548.6	1135
548.8	1127
549.0	1118
549.2	1111
549.4	1104
549.6	1097
549.8	1088
550.0	1082
550.2	1077
550.4	1070
550.6	1064
550.8	1056
551.0	1048
551.2	1042
551.4	1036
551.6	1030
551.8	1023
552.0	1016
552.2	1008
552.4	1000
552.6	993.0
552.8	987.6
553.0	980.0
553.2	973.2
553.4	965.9
553.6	960.0
553.8	954.0
554.0	948.7
554.2	943.7
554.4	938.6
554.6	932.0
554.8	924.4
555.0	916.7
555.2	910.0
555.4	903.4
555.6	898.8
555.8	895.0
556.0	889.4
556.2	884.9
556.4	879.9
556.6	874.3
556.8	868.4
557.0	863.1
557.2	856.1
557.4	849.0
557.6	842.9
557.8	838.8
558.0	833.5
558.2	829.4
558.4	823.9
558.6	817.4
558.8	811.1
559.0	804.5
559.2	797.9
559.4	794.2
559.6	789.3
559.8	784.3
560.0	778.4
560.2	772.2
560.4	767.7
560.6	764.3
560.8	759.1
561.0	752.2
561.2	746.1
561.4	740.7
561.6	736.8
561.8	731.8
562.0	727.0
562.2	721.9
562.4	717.9
562.6	713.5
562.8	709.2
563.0	703.3
563.2	697.9
563.4	693.5
563.6	688.8
563.8	685.2
564.0	681.6
564.2	676.9
564.4	671.7
564.6	666.1
564.8	660.0
565.0	655.1
565.2	651.0
565.4	647.4
565.6	644.0
565.8	640.1
566.0	634.9
566.2	630.5
566.4	626.4
566.6	622.6
566.8	618.6
567.0	614.2
567.2	610.1
567.4	606.6
567.6	602.3
567.8	598.8
568.0	594.3
568.2	590.3
568.4	586.5
568.6	582.8
568.8	578.6
569.0	573.8
569.2	569.1
569.4	565.1
569.6	561.7
569.8	559.2
570.0	556.0
570.2	552.1
570.4	548.2
570.6	543.7
570.8	539.8
571.0	536.2
571.2	531.8
571.4	527.9
571.6	524.6
571.8	521.3
572.0	518.1
572.2	515.4
572.4	511.8
572.6	507.9
572.8	504.4
573.0	501.3
573.2	498.4
573.4	495.1
573.6	491.3
573.8	487.6
574.0	483.4
574.2	480.6
574.4	478.2
574.6	475.3
574.8	471.7
575.0	469.0
575.2	465.6
575.4	463.2
575.6	460.3
575.8	457.5
576.0	453.2
576.2	449.5
576.4	445.8
576.6	443.3
576.8	441.0
577.0	438.6
577.2	435.5
577.4	431.9
577.6	428.6
577.8	425.8
578.0	423.2
578.2	420.4
578.4	417.8
578.6	414.4
578.8	411.7
579.0	409.0
579.2	405.8
579.4	402.6
579.6	399.4
579.8	396.2
580.0	393.7
580.2	391.6
580.4	388.7
580.6	386.3
580.8	383.6
581.0	381.4
581.2	379.9
581.4	377.6
581.6	374.6
581.8	371.1
582.0	367.7
582.2	365.0
582.4	363.4
582.6	361.5
582.8	358.9
583.0	356.1
583.2	353.2
583.4	350.9
583.6	349.2
583.8	348.1
584.0	346.4
584.2	343.6
584.4	340.7
584.6	338.1
584.8	335.6
585.0	334.3
585.2	331.7
585.4	328.7
585.6	326.6
585.8	324.4
586.0	322.4
586.2	320.7
586.4	318.0
586.6	315.4
586.8	313.3
587.0	311.1
587.2	308.8
587.4	306.8
587.6	304.6
587.8	301.8
588.0	299.9
588.2	297.8
588.4	295.8
588.6	294.4
588.8	293.1
589.0	291.1
589.2	288.8
589.4	286.4
589.6	284.6
589.8	283.1
590.0	282.1
590.2	280.0
590.4	277.7
590.6	275.5
590.8	273.4
591.0	271.4
591.2	269.7
591.4	267.9
591.6	266.3
591.8	264.4
592.0	262.4
592.2	260.4
592.4	258.6
592.6	256.8
592.8	255.0
593.0	253.5
593.2	252.3
593.4	250.8
593.6	249.4
593.8	247.7
594.0	245.7
594.2	243.6
594.4	242.1
594.6	240.5
594.8	239.3
595.0	238.1
595.2	236.2
595.4	234.0
595.6	232.3
595.8	230.7
596.0	229.3
596.2	228.0
596.4	226.3
596.6	224.5
596.8	222.8
597.0	221.4
597.2	219.9
597.4	218.4
597.6	217.1
597.8	215.4
598.0	213.5
598.2	212.1
598.4	210.3
598.6	208.7
598.8	207.7
599.0	206.7
599.2	205.5
599.4	204.6
599.6	203.2
599.8	201.6
600.0	200.5
600.2	199.1
600.4	197.7
600.6	196.2
600.8	195.0
601.0	193.7
601.2	192.9
601.4	191.3
601.6	189.5
601.8	187.6
602.0	186.2
602.2	184.8
602.4	184.0
602.6	182.9
602.8	182.1
603.0	181.0
603.2	179.5
603.4	177.9
603.6	176.8
603.8	175.5
604.0	174.8
604.2	174.1
604.4	173.0
604.6	171.5
604.8	170.2
605.0	168.5
605.2	167.2
605.4	166.4
605.6	165.3
605.8	164.2
606.0	163.0
606.2	161.9
606.4	160.8
606.6	160.1
606.8	158.9
607.0	157.7
607.2	156.6
607.4	155.2
607.6	154.1
607.8	153.2
608.0	152.0
608.2	151.0
608.4	149.9
608.6	148.6
608.8	147.7
609.0	146.7
609.2	145.7
609.4	145.0
609.6	143.9
609.8	143.1
610.0	142.2
610.2	141.1
610.4	139.8
610.6	138.9
610.8	138.0
611.0	136.9
611.2	136.2
611.4	134.8
611.6	133.5
611.8	132.4
612.0	131.5
612.2	130.8
612.4	130.5
612.6	129.7
612.8	129.0
613.0	128.1
613.2	127.3
613.4	126.2
613.6	125.2
613.8	124.0
614.0	122.9
614.2	121.9
614.4	121.2
614.6	120.3
614.8	119.5
615.0	118.8
615.2	117.8
615.4	117.4
615.6	116.8
615.8	116.1
616.0	115.0
616.2	114.0
616.4	112.8
616.6	112.1
616.8	111.1
617.0	110.5
617.2	109.6
617.4	108.9
617.6	107.9
617.8	107.4
618.0	106.9
618.2	106.3
618.4	105.6
618.6	104.4
618.8	103.1
619.0	102.6
619.2	102.0
619.4	101.6
619.6	100.8
619.8	100.0
620.0	99.21
620.2	98.64
620.4	98.10
620.6	97.37
620.8	96.42
621.0	95.99
621.2	95.29
621.4	94.61
621.6	93.92
621.8	93.10
622.0	92.27
622.2	91.84
622.4	91.46
622.6	90.96
622.8	90.35
623.0	89.74
623.2	88.60
623.4	88.01
623.6	87.29
623.8	86.62
624.0	85.94
624.2	85.29
624.4	84.43
624.6	83.78
624.8	83.13
625.0	82.40
625.2	81.93
625.4	81.57
625.6	81.06
625.8	80.51
626.0	80.14
626.2	79.46
626.4	78.88
626.6	78.11
626.8	77.41
627.0	76.85
627.2	76.31
627.4	75.98
627.6	75.23
627.8	74.52
628.0	73.95
628.2	73.47
628.4	72.88
628.6	72.47
628.8	72.10
629.0	71.47
629.2	70.99
629.4	70.56
629.6	69.86
629.8	69.13
630.0	68.76
630.2	67.98
630.4	67.63
630.6	67.32
630.8	67.08
631.0	66.52
631.2	66.15
631.4	65.57
631.6	65.03
631.8	64.57
632.0	64.31
632.2	63.63
632.4	63.11
632.6	62.54
632.8	61.92
633.0	61.74
633.2	61.43
633.4	61.05
633.6	60.61
633.8	59.99
634.0	59.24
634.2	58.76
634.4	58.26
634.6	58.14
634.8	58.09
635.0	57.82
635.2	57.33
635.4	56.93
635.6	56.52
635.8	56.04
636.0	55.53
636.2	54.91
636.4	54.37
636.6	54.31
636.8	53.97
637.0	53.53
637.2	53.00
637.4	52.56
637.6	52.13
637.8	51.84
638.0	51.56
638.2	51.29
638.4	51.12
638.6	50.80
638.8	50.37
639.0	49.90
639.2	49.37
639.4	49.01
639.6	48.78
639.8	48.34
640.0	48.00
640.2	47.52
640.4	46.89
640.6	46.62
640.8	46.31
641.0	46.02
641.2	45.81
641.4	45.39
641.6	45.20
641.8	45.04
642.0	44.71
642.2	44.21
642.4	43.62
642.6	43.23
642.8	43.08
643.0	42.85
643.2	42.70
643.4	42.50
643.6	42.14
643.8	41.82
644.0	41.45
644.2	41.00
644.4	40.60
644.6	40.29
644.8	39.94
645.0	39.70
645.2	39.51
645.4	39.18
645.6	38.81
645.8	38.53
646.0	38.38
646.2	38.37
646.4	38.25
646.6	37.86
646.8	37.31
647.0	37.01
647.2	36.86
647.4	36.65
647.6	36.52
647.8	36.27
648.0	35.84
648.2	35.50
648.4	35.12
648.6	34.65
648.8	34.44
649.0	34.29
649.2	34.20
649.4	34.09
649.6	33.81
649.8	33.43
650.0	33.12
650.2	32.88
650.4	32.63
650.6	32.51
650.8	32.06
651.0	31.79
651.2	31.52
651.4	31.51
651.6	31.36
651.8	31.29
652.0	30.91
652.2	30.61
652.4	30.44
652.6	30.20
652.8	29.84
653.0	29.53
653.2	29.39
653.4	29.25
653.6	29.28
653.8	29.11
654.0	28.94
654.2	28.69
654.4	28.56
654.6	28.33
654.8	27.98
655.0	27.61
655.2	27.34
655.4	27.03
655.6	26.89
655.8	26.84
656.0	26.62
656.2	26.28
656.4	26.09
656.6	25.79
656.8	25.52
657.0	25.47
657.2	25.44
657.4	25.34
657.6	25.25
657.8	25.00
658.0	24.75
658.2	24.65
658.4	24.52
658.6	24.42
658.8	24.34
659.0	24.16
659.2	23.92
659.4	23.68
659.6	23.32
659.8	23.13
660.0	22.93
660.2	22.83
660.4	22.69
660.6	22.54
660.8	22.38
661.0	22.36
661.2	22.23
661.4	22.16
661.6	21.97
661.8	21.62
662.0	21.40
662.2	21.33
662.4	21.27
662.6	21.32
662.8	21.26
663.0	20.86
663.2	20.61
663.4	20.24
663.6	20.05
663.8	20.01
664.0	20.07
664.2	19.91
664.4	19.79
664.6	19.50
664.8	19.34
665.0	19.15
665.2	19.07
665.4	19.04
665.6	18.92
665.8	18.73
666.0	18.56
666.2	18.40
666.4	18.30
666.6	18.23
666.8	18.03
667.0	17.84
667.2	17.71
667.4	17.59
667.6	17.59
667.8	17.48
668.0	17.30
668.2	17.27
668.4	17.22
668.6	17.06
668.8	16.99
669.0	16.90
669.2	16.70
669.4	16.61
669.6	16.42
669.8	16.09
670.0	16.04
670.2	15.96
670.4	15.90
670.6	15.92
670.8	15.79
671.0	15.63
671.2	15.56
671.4	15.45
671.6	15.39
671.8	15.37
672.0	15.23
672.2	14.98
672.4	14.79
672.6	14.70
672.8	14.53
673.0	14.50
673.2	14.45
673.4	14.27
673.6	14.37
673.8	14.22
674.0	14.01
674.2	13.84
674.4	13.74
674.6	13.61
