Sample:	'20211010A(EM)
File name:	G-CDs 5 500.FDS
Run date:	'19:02:11, 06/10/2023
Operator:	Administrator
Comment:	'

Instrument
Model:	F-4700 FL Spectrophotometer
Serial number:	2019-001
ROM Version:	5J24010 00

Instrument parameters
Measurement type:	Wavelength scan
Scan mode:	Emission
Data mode:	Fluorescence
EX WL:	400.0 nm
EM  Start WL:	420.0 nm
EM  End WL:	800.0 nm
Scan speed:	1200 nm/min
Delay:	0.0 s
EX Slit:	10.0 nm
EM Slit:	10.0 nm
PMT Voltage:	435 V
Response:	0.002 s
Corrected spectra:	Off
Shutter control:	On

Processing performed
Savitsky-Golay smoothed
Smoothing order:	3
Number of points:	7
Number of times:	1

Peak integration
Integration method:	Rectangular
Sensitivity:	1
Threshold:	1.000

Peaks
No.	Start(nm)	Apex(nm)	End(nm)	Height(Data)	Valley(nm)	Valley(Data)
1	420.0	452.4	453.4	36.70	453.4	35.61
2	453.4	549.2	782.6	5449	782.6	5.041

Data points
nm	Data
420.0	11.65
420.2	11.73
420.4	11.57
420.6	11.34
420.8	11.27
421.0	11.27
421.2	11.40
421.4	11.70
421.6	11.65
421.8	11.42
422.0	11.32
422.2	10.96
422.4	10.97
422.6	11.30
422.8	11.46
423.0	11.47
423.2	11.65
423.4	11.59
423.6	11.71
423.8	11.62
424.0	11.39
424.2	11.08
424.4	11.17
424.6	11.34
424.8	11.59
425.0	11.64
425.2	11.50
425.4	11.41
425.6	11.44
425.8	11.43
426.0	11.47
426.2	11.29
426.4	11.36
426.6	11.50
426.8	11.33
427.0	11.24
427.2	11.34
427.4	11.20
427.6	11.57
427.8	11.76
428.0	11.84
428.2	12.13
428.4	12.13
428.6	12.02
428.8	11.76
429.0	11.43
429.2	11.25
429.4	11.50
429.6	11.52
429.8	11.79
430.0	11.74
430.2	11.90
430.4	11.89
430.6	12.13
430.8	12.04
431.0	12.10
431.2	11.88
431.4	12.00
431.6	12.05
431.8	12.28
432.0	12.57
432.2	12.68
432.4	12.54
432.6	12.56
432.8	12.23
433.0	12.30
433.2	12.65
433.4	12.70
433.6	12.83
433.8	12.79
434.0	12.25
434.2	12.38
434.4	12.51
434.6	12.91
434.8	13.30
435.0	13.54
435.2	13.51
435.4	13.74
435.6	13.94
435.8	14.28
436.0	14.48
436.2	14.31
436.4	14.27
436.6	14.39
436.8	14.53
437.0	14.91
437.2	15.22
437.4	14.99
437.6	15.20
437.8	15.45
438.0	15.59
438.2	15.86
438.4	16.04
438.6	15.99
438.8	16.29
439.0	16.40
439.2	16.82
439.4	17.14
439.6	17.44
439.8	17.35
440.0	17.56
440.2	17.62
440.4	18.12
440.6	18.47
440.8	18.47
441.0	18.54
441.2	19.00
441.4	19.27
441.6	19.88
441.8	19.93
442.0	19.75
442.2	20.00
442.4	20.42
442.6	20.92
442.8	21.68
443.0	21.90
443.2	22.27
443.4	22.63
443.6	22.97
443.8	23.30
444.0	23.69
444.2	24.01
444.4	24.36
444.6	24.56
444.8	25.13
445.0	25.47
445.2	25.57
445.4	25.98
445.6	26.11
445.8	26.39
446.0	27.00
446.2	27.65
446.4	27.52
446.6	28.28
446.8	28.37
447.0	28.66
447.2	29.04
447.4	29.41
447.6	29.31
447.8	29.76
448.0	29.79
448.2	30.61
448.4	31.14
448.6	31.42
448.8	31.64
449.0	31.83
449.2	32.07
449.4	32.86
449.6	32.85
449.8	32.77
450.0	33.22
450.2	33.56
450.4	33.71
450.6	34.12
450.8	34.28
451.0	34.29
451.2	34.77
451.4	34.96
451.6	35.20
451.8	35.72
452.0	36.24
452.2	36.41
452.4	36.70
452.6	36.46
452.8	36.30
453.0	36.03
453.2	35.68
453.4	35.61
453.6	36.28
453.8	36.68
454.0	37.37
454.2	37.65
454.4	37.79
454.6	37.92
454.8	38.04
455.0	38.23
455.2	38.59
455.4	38.32
455.6	38.42
455.8	38.30
456.0	38.16
456.2	38.26
456.4	38.33
456.6	38.16
456.8	38.26
457.0	38.50
457.2	38.69
457.4	39.18
457.6	39.22
457.8	38.99
458.0	38.96
458.2	39.41
458.4	39.49
458.6	39.74
458.8	39.86
459.0	39.63
459.2	39.39
459.4	39.59
459.6	39.77
459.8	40.13
460.0	40.35
460.2	40.26
460.4	39.92
460.6	39.76
460.8	40.07
461.0	40.37
461.2	40.01
461.4	39.79
461.6	39.96
461.8	40.12
462.0	40.53
462.2	40.75
462.4	40.82
462.6	40.89
462.8	40.94
463.0	40.84
463.2	40.48
463.4	40.51
463.6	40.99
463.8	41.57
464.0	41.96
464.2	42.57
464.4	42.78
464.6	43.09
464.8	43.59
465.0	44.27
465.2	44.65
465.4	44.92
465.6	44.93
465.8	44.98
466.0	45.31
466.2	45.59
466.4	45.96
466.6	46.60
466.8	47.41
467.0	48.39
467.2	49.34
467.4	49.78
467.6	50.14
467.8	50.81
468.0	51.09
468.2	51.48
468.4	52.17
468.6	52.77
468.8	53.04
469.0	54.20
469.2	55.11
469.4	56.52
469.6	57.70
469.8	58.49
470.0	58.86
470.2	60.12
470.4	61.51
470.6	62.65
470.8	63.66
471.0	64.43
471.2	65.29
471.4	66.78
471.6	68.33
471.8	69.37
472.0	70.79
472.2	71.83
472.4	73.10
472.6	75.15
472.8	77.02
473.0	78.42
473.2	79.94
473.4	80.97
473.6	82.11
473.8	83.92
474.0	85.68
474.2	87.83
474.4	90.11
474.6	92.03
474.8	93.78
475.0	94.82
475.2	96.16
475.4	98.10
475.6	99.68
475.8	102.1
476.0	104.6
476.2	106.5
476.4	108.8
476.6	110.8
476.8	112.8
477.0	114.6
477.2	117.2
477.4	119.9
477.6	122.7
477.8	125.1
478.0	128.0
478.2	130.0
478.4	132.5
478.6	135.2
478.8	138.3
479.0	140.6
479.2	143.3
479.4	146.9
479.6	149.6
479.8	152.3
480.0	155.0
480.2	157.8
480.4	160.7
480.6	164.0
480.8	166.2
481.0	169.7
481.2	172.6
481.4	176.0
481.6	179.3
481.8	181.7
482.0	184.5
482.2	188.6
482.4	192.5
482.6	196.6
482.8	200.2
483.0	202.9
483.2	206.0
483.4	209.1
483.6	214.0
483.8	218.5
484.0	223.3
484.2	227.2
484.4	231.3
484.6	234.2
484.8	238.1
485.0	241.5
485.2	245.4
485.4	248.6
485.6	253.1
485.8	256.8
486.0	261.5
486.2	268.5
486.4	274.1
486.6	278.7
486.8	283.0
487.0	287.0
487.2	291.5
487.4	297.0
487.6	301.7
487.8	306.6
488.0	312.3
488.2	318.3
488.4	324.0
488.6	329.8
488.8	335.3
489.0	340.3
489.2	346.8
489.4	352.3
489.6	357.0
489.8	363.4
490.0	369.1
490.2	375.3
490.4	382.3
490.6	390.1
490.8	397.1
491.0	404.3
491.2	409.5
491.4	414.7
491.6	422.0
491.8	431.0
492.0	439.5
492.2	447.8
492.4	454.5
492.6	460.8
492.8	469.1
493.0	477.1
493.2	485.6
493.4	493.9
493.6	502.4
493.8	512.5
494.0	521.8
494.2	530.3
494.4	539.4
494.6	549.3
494.8	559.7
495.0	570.8
495.2	580.7
495.4	589.3
495.6	599.2
495.8	609.4
496.0	620.6
496.2	631.9
496.4	644.1
496.6	657.1
496.8	669.8
497.0	681.6
497.2	692.0
497.4	701.2
497.6	710.4
497.8	721.3
498.0	733.5
498.2	748.9
498.4	763.7
498.6	778.1
498.8	791.2
499.0	803.9
499.2	817.5
499.4	832.4
499.6	847.4
499.8	862.1
500.0	878.0
500.2	894.1
500.4	909.7
500.6	925.1
500.8	938.9
501.0	952.9
501.2	970.2
501.4	986.5
501.6	1006
501.8	1024
502.0	1039
502.2	1057
502.4	1076
502.6	1091
502.8	1108
503.0	1124
503.2	1140
503.4	1160
503.6	1182
503.8	1202
504.0	1222
504.2	1243
504.4	1263
504.6	1284
504.8	1306
505.0	1323
505.2	1343
505.4	1362
505.6	1383
505.8	1405
506.0	1431
506.2	1452
506.4	1476
506.6	1495
506.8	1516
507.0	1538
507.2	1561
507.4	1586
507.6	1613
507.8	1636
508.0	1658
508.2	1680
508.4	1700
508.6	1724
508.8	1748
509.0	1774
509.2	1796
509.4	1821
509.6	1846
509.8	1873
510.0	1897
510.2	1925
510.4	1947
510.6	1973
510.8	1999
511.0	2027
511.2	2052
511.4	2083
511.6	2105
511.8	2130
512.0	2151
512.2	2175
512.4	2199
512.6	2228
512.8	2254
513.0	2280
513.2	2306
513.4	2332
513.6	2359
513.8	2387
514.0	2414
514.2	2440
514.4	2468
514.6	2498
514.8	2525
515.0	2553
515.2	2580
515.4	2611
515.6	2641
515.8	2674
516.0	2698
516.2	2721
516.4	2743
516.6	2773
516.8	2802
517.0	2835
517.2	2864
517.4	2892
517.6	2916
517.8	2940
518.0	2964
518.2	2992
518.4	3016
518.6	3044
518.8	3068
519.0	3094
519.2	3123
519.4	3151
519.6	3177
519.8	3208
520.0	3234
520.2	3264
520.4	3289
520.6	3318
520.8	3347
521.0	3379
521.2	3407
521.4	3436
521.6	3456
521.8	3482
522.0	3510
522.2	3540
522.4	3567
522.6	3596
522.8	3616
523.0	3638
523.2	3662
523.4	3685
523.6	3711
523.8	3742
524.0	3770
524.2	3796
524.4	3817
524.6	3838
524.8	3862
525.0	3888
525.2	3913
525.4	3935
525.6	3957
525.8	3980
526.0	4007
526.2	4031
526.4	4053
526.6	4082
526.8	4103
527.0	4125
527.2	4148
527.4	4168
527.6	4184
527.8	4212
528.0	4230
528.2	4252
528.4	4278
528.6	4304
528.8	4324
529.0	4351
529.2	4373
529.4	4392
529.6	4416
529.8	4432
530.0	4451
530.2	4472
530.4	4494
530.6	4515
530.8	4534
531.0	4549
531.2	4570
531.4	4590
531.6	4610
531.8	4629
532.0	4646
532.2	4668
532.4	4691
532.6	4714
532.8	4735
533.0	4747
533.2	4757
533.4	4775
533.6	4794
533.8	4813
534.0	4833
534.2	4846
534.4	4854
534.6	4873
534.8	4893
535.0	4910
535.2	4929
535.4	4945
535.6	4957
535.8	4971
536.0	4985
536.2	4997
536.4	5007
536.6	5027
536.8	5041
537.0	5056
537.2	5069
537.4	5081
537.6	5090
537.8	5110
538.0	5123
538.2	5132
538.4	5139
538.6	5147
538.8	5153
539.0	5162
539.2	5175
539.4	5184
539.6	5199
539.8	5212
540.0	5220
540.2	5226
540.4	5241
540.6	5249
540.8	5263
541.0	5271
541.2	5283
541.4	5291
541.6	5302
541.8	5306
542.0	5308
542.2	5314
542.4	5325
542.6	5332
542.8	5341
543.0	5347
543.2	5346
543.4	5359
543.6	5371
543.8	5381
544.0	5388
544.2	5397
544.4	5398
544.6	5402
544.8	5406
545.0	5404
545.2	5401
545.4	5410
545.6	5413
545.8	5414
546.0	5420
546.2	5420
546.4	5420
546.6	5418
546.8	5418
547.0	5420
547.2	5430
547.4	5435
547.6	5434
547.8	5427
548.0	5425
548.2	5427
548.4	5431
548.6	5436
548.8	5442
549.0	5445
549.2	5449
549.4	5444
549.6	5440
549.8	5439
550.0	5437
550.2	5434
550.4	5433
550.6	5428
550.8	5433
551.0	5432
551.2	5432
551.4	5428
551.6	5427
551.8	5421
552.0	5414
552.2	5405
552.4	5402
552.6	5398
552.8	5396
553.0	5394
553.2	5394
553.4	5391
553.6	5391
553.8	5387
554.0	5379
554.2	5371
554.4	5367
554.6	5357
554.8	5353
555.0	5343
555.2	5336
555.4	5328
555.6	5330
555.8	5330
556.0	5329
556.2	5318
556.4	5306
556.6	5294
556.8	5289
557.0	5284
557.2	5280
557.4	5274
557.6	5270
557.8	5266
558.0	5259
558.2	5247
558.4	5234
558.6	5218
558.8	5209
559.0	5202
559.2	5195
559.4	5188
559.6	5185
559.8	5174
560.0	5164
560.2	5153
560.4	5144
560.6	5136
560.8	5133
561.0	5123
561.2	5112
561.4	5100
561.6	5093
561.8	5083
562.0	5073
562.2	5060
562.4	5047
562.6	5038
562.8	5027
563.0	5012
563.2	4999
563.4	4987
563.6	4974
563.8	4963
564.0	4947
564.2	4933
564.4	4927
564.6	4923
564.8	4917
565.0	4906
565.2	4889
565.4	4872
565.6	4859
565.8	4847
566.0	4839
566.2	4830
566.4	4819
566.6	4805
566.8	4789
567.0	4770
567.2	4756
567.4	4746
567.6	4731
567.8	4714
568.0	4701
568.2	4691
568.4	4687
568.6	4682
568.8	4669
569.0	4657
569.2	4641
569.4	4624
569.6	4609
569.8	4600
570.0	4587
570.2	4574
570.4	4558
570.6	4539
570.8	4522
571.0	4513
571.2	4506
571.4	4492
571.6	4478
571.8	4460
572.0	4447
572.2	4431
572.4	4422
572.6	4404
572.8	4389
573.0	4371
573.2	4358
573.4	4347
573.6	4341
573.8	4329
574.0	4317
574.2	4297
574.4	4282
574.6	4267
574.8	4250
575.0	4236
575.2	4220
575.4	4206
575.6	4194
575.8	4177
576.0	4159
576.2	4148
576.4	4135
576.6	4123
576.8	4109
577.0	4097
577.2	4087
577.4	4075
577.6	4061
577.8	4037
578.0	4020
578.2	4002
578.4	3989
578.6	3974
578.8	3966
579.0	3954
579.2	3944
579.4	3931
579.6	3918
579.8	3899
580.0	3885
580.2	3867
580.4	3850
580.6	3838
580.8	3826
581.0	3816
581.2	3802
581.4	3783
581.6	3767
581.8	3752
582.0	3736
582.2	3720
582.4	3702
582.6	3688
582.8	3677
583.0	3666
583.2	3655
583.4	3643
583.6	3630
583.8	3614
584.0	3596
584.2	3575
584.4	3564
584.6	3552
584.8	3541
585.0	3528
585.2	3511
585.4	3496
585.6	3487
585.8	3476
586.0	3463
586.2	3449
586.4	3430
586.6	3415
586.8	3402
587.0	3389
587.2	3378
587.4	3363
587.6	3345
587.8	3331
588.0	3319
588.2	3310
588.4	3301
588.6	3285
588.8	3270
589.0	3256
589.2	3242
589.4	3229
589.6	3214
589.8	3199
590.0	3187
590.2	3172
590.4	3156
590.6	3140
590.8	3124
591.0	3113
591.2	3102
591.4	3087
591.6	3073
591.8	3062
592.0	3049
592.2	3038
592.4	3028
592.6	3010
592.8	2996
593.0	2983
593.2	2969
593.4	2956
593.6	2946
593.8	2929
594.0	2916
594.2	2904
594.4	2890
594.6	2879
594.8	2871
595.0	2857
595.2	2844
595.4	2828
595.6	2810
595.8	2796
596.0	2786
596.2	2776
596.4	2769
596.6	2758
596.8	2743
597.0	2726
597.2	2713
597.4	2702
597.6	2696
597.8	2686
598.0	2675
598.2	2657
598.4	2641
598.6	2625
598.8	2613
599.0	2604
599.2	2596
599.4	2587
599.6	2576
599.8	2562
600.0	2546
600.2	2535
600.4	2522
600.6	2510
600.8	2495
601.0	2484
601.2	2475
601.4	2466
601.6	2455
601.8	2440
602.0	2427
602.2	2417
602.4	2408
602.6	2395
602.8	2384
603.0	2370
603.2	2359
603.4	2344
603.6	2331
603.8	2320
604.0	2313
604.2	2303
604.4	2294
604.6	2280
604.8	2264
605.0	2251
605.2	2241
605.4	2232
605.6	2221
605.8	2209
606.0	2197
606.2	2184
606.4	2175
606.6	2166
606.8	2152
607.0	2140
607.2	2130
607.4	2119
607.6	2107
607.8	2093
608.0	2081
608.2	2071
608.4	2066
608.6	2059
608.8	2048
609.0	2034
609.2	2022
609.4	2010
609.6	1998
609.8	1989
610.0	1980
610.2	1967
610.4	1959
610.6	1949
610.8	1939
611.0	1927
611.2	1916
611.4	1901
611.6	1894
611.8	1887
612.0	1879
612.2	1867
612.4	1855
612.6	1846
612.8	1837
613.0	1828
613.2	1819
613.4	1808
613.6	1797
613.8	1788
614.0	1776
614.2	1763
614.4	1756
614.6	1749
614.8	1744
615.0	1732
615.2	1722
615.4	1710
615.6	1701
615.8	1691
616.0	1684
616.2	1670
616.4	1661
616.6	1650
616.8	1642
617.0	1637
617.2	1630
617.4	1622
617.6	1610
617.8	1596
618.0	1586
618.2	1576
618.4	1566
618.6	1556
618.8	1546
619.0	1538
619.2	1528
619.4	1517
619.6	1510
619.8	1501
620.0	1491
620.2	1482
620.4	1474
620.6	1467
620.8	1465
621.0	1456
621.2	1445
621.4	1436
621.6	1425
621.8	1416
622.0	1408
622.2	1399
622.4	1391
622.6	1382
622.8	1373
623.0	1366
623.2	1357
623.4	1351
623.6	1343
623.8	1333
624.0	1325
624.2	1316
624.4	1308
624.6	1299
624.8	1292
625.0	1284
625.2	1277
625.4	1271
625.6	1266
625.8	1255
626.0	1247
626.2	1235
626.4	1227
626.6	1220
626.8	1214
627.0	1206
627.2	1201
627.4	1193
627.6	1186
627.8	1179
628.0	1170
628.2	1162
628.4	1155
628.6	1146
628.8	1138
629.0	1134
629.2	1125
629.4	1119
629.6	1110
629.8	1101
630.0	1095
630.2	1089
630.4	1081
630.6	1075
630.8	1068
631.0	1063
631.2	1057
631.4	1050
631.6	1045
631.8	1039
632.0	1032
632.2	1024
632.4	1016
632.6	1008
632.8	1002
633.0	994.4
633.2	987.7
633.4	980.2
633.6	974.6
633.8	969.9
634.0	966.7
634.2	959.4
634.4	953.3
634.6	946.2
634.8	939.4
635.0	934.4
635.2	931.7
635.4	926.2
635.6	920.6
635.8	915.2
636.0	908.1
636.2	901.2
636.4	894.8
636.6	887.8
636.8	879.7
637.0	874.5
637.2	868.7
637.4	863.1
637.6	858.3
637.8	853.5
638.0	847.2
638.2	841.7
638.4	835.9
638.6	830.5
638.8	826.9
639.0	822.6
639.2	817.0
639.4	810.7
639.6	804.5
639.8	796.9
640.0	793.8
640.2	790.3
640.4	786.6
640.6	781.5
640.8	778.5
641.0	770.0
641.2	766.0
641.4	759.9
641.6	755.7
641.8	750.1
642.0	745.2
642.2	737.7
642.4	732.5
642.6	726.9
642.8	723.7
643.0	719.4
643.2	713.9
643.4	708.2
643.6	705.0
643.8	701.2
644.0	697.3
644.2	692.6
644.4	688.0
644.6	681.5
644.8	677.4
645.0	672.5
645.2	667.3
645.4	662.6
645.6	659.2
645.8	654.7
646.0	650.0
646.2	646.2
646.4	641.7
646.6	638.1
646.8	633.1
647.0	627.0
647.2	622.1
647.4	617.8
647.6	613.7
647.8	611.4
648.0	606.7
648.2	601.4
648.4	597.6
648.6	593.5
648.8	589.2
649.0	586.4
649.2	583.3
649.4	579.9
649.6	576.4
649.8	572.6
650.0	566.9
650.2	563.9
650.4	559.9
650.6	555.6
650.8	551.7
651.0	548.5
651.2	545.3
651.4	544.9
651.6	541.8
651.8	536.5
652.0	530.8
652.2	526.3
652.4	522.2
652.6	521.4
652.8	518.4
653.0	514.1
653.2	509.4
653.4	504.0
653.6	499.2
653.8	497.2
654.0	493.7
654.2	490.6
654.4	486.6
654.6	482.2
654.8	479.5
655.0	477.4
655.2	474.8
655.4	472.0
655.6	468.3
655.8	464.3
656.0	462.1
656.2	457.8
656.4	454.0
656.6	450.6
656.8	447.0
657.0	443.9
657.2	443.2
657.4	439.1
657.6	436.4
657.8	433.7
658.0	430.2
658.2	427.2
658.4	423.7
658.6	419.6
658.8	416.3
659.0	413.8
659.2	412.1
659.4	410.8
659.6	406.8
659.8	403.9
660.0	400.2
660.2	397.5
660.4	395.6
660.6	393.1
660.8	389.7
661.0	386.0
661.2	382.6
661.4	379.4
661.6	377.5
661.8	375.6
662.0	373.4
662.2	371.3
662.4	369.5
662.6	366.0
662.8	363.6
663.0	360.6
663.2	357.9
663.4	356.4
663.6	354.6
663.8	350.2
664.0	347.3
664.2	344.9
664.4	342.3
664.6	340.0
664.8	336.5
665.0	333.0
665.2	331.3
665.4	331.2
665.6	330.5
665.8	329.0
666.0	325.6
666.2	323.1
666.4	319.9
666.6	316.6
666.8	314.5
667.0	311.7
667.2	309.8
667.4	307.4
667.6	305.1
667.8	302.7
668.0	300.3
668.2	297.2
668.4	294.2
668.6	291.0
668.8	289.9
669.0	288.7
669.2	287.5
669.4	285.6
669.6	282.2
669.8	280.4
670.0	279.7
670.2	278.6
670.4	277.6
670.6	274.5
670.8	271.2
671.0	268.3
671.2	267.0
671.4	266.3
671.6	264.3
671.8	261.0
672.0	260.0
672.2	257.7
672.4	256.1
672.6	254.9
672.8	252.5
673.0	250.1
673.2	249.4
673.4	247.9
673.6	244.9
673.8	242.7
674.0	240.3
674.2	237.8
674.4	235.8
674.6	235.1
674.8	233.7
675.0	233.4
675.2	232.6
675.4	230.8
675.6	228.2
675.8	225.8
676.0	222.5
676.2	220.3
676.4	218.8
676.6	217.5
676.8	217.1
677.0	215.6
677.2	214.5
677.4	212.9
677.6	211.7
677.8	210.3
678.0	208.9
678.2	206.7
678.4	205.1
678.6	204.0
678.8	202.6
679.0	201.5
679.2	199.8
679.4	198.4
679.6	196.3
679.8	194.8
680.0	192.6
680.2	191.2
680.4	189.4
680.6	187.5
680.8	186.0
681.0	183.9
681.2	182.8
681.4	182.9
681.6	181.8
681.8	180.7
682.0	179.9
682.2	177.4
682.4	175.9
682.6	174.7
682.8	173.0
683.0	172.0
683.2	171.0
683.4	169.1
683.6	167.6
683.8	166.8
684.0	165.5
684.2	164.5
684.4	162.6
684.6	160.6
684.8	159.6
685.0	159.1
685.2	159.4
685.4	158.6
685.6	156.8
685.8	154.4
686.0	151.7
686.2	150.0
686.4	150.1
686.6	149.7
686.8	149.6
687.0	149.0
687.2	147.4
687.4	145.6
687.6	144.5
687.8	143.6
688.0	142.1
688.2	140.1
688.4	139.2
688.6	138.0
688.8	138.6
689.0	138.8
689.2	137.4
689.4	135.1
689.6	134.1
689.8	133.1
690.0	132.7
690.2	132.0
690.4	131.1
690.6	130.1
690.8	129.4
691.0	128.2
691.2	126.5
691.4	126.1
691.6	125.4
691.8	125.0
692.0	124.2
692.2	123.2
692.4	121.7
692.6	121.0
692.8	118.9
693.0	117.9
693.2	117.3
693.4	117.7
693.6	116.7
693.8	115.8
694.0	114.2
694.2	112.9
694.4	112.3
694.6	112.3
694.8	111.7
695.0	111.2
695.2	110.2
695.4	109.4
695.6	108.3
695.8	107.3
696.0	107.1
696.2	106.5
696.4	105.3
696.6	105.0
696.8	104.0
697.0	103.4
697.2	103.3
697.4	102.4
697.6	101.1
697.8	100.5
698.0	100.1
698.2	99.36
698.4	98.93
698.6	98.04
698.8	96.73
699.0	96.45
699.2	96.25
699.4	95.75
699.6	95.11
699.8	94.14
700.0	92.82
700.2	92.46
700.4	91.44
700.6	91.68
700.8	91.19
701.0	90.92
701.2	90.81
701.4	90.59
701.6	89.67
701.8	89.15
702.0	88.26
702.2	87.33
702.4	86.85
702.6	86.13
702.8	85.16
703.0	84.66
703.2	84.27
703.4	84.28
703.6	83.79
703.8	82.50
704.0	81.25
704.2	80.35
704.4	79.69
704.6	80.29
704.8	80.13
705.0	79.47
705.2	78.59
705.4	77.60
705.6	77.08
705.8	77.29
706.0	77.30
706.2	77.24
706.4	77.01
706.6	76.17
706.8	75.25
707.0	74.02
707.2	73.11
707.4	72.81
707.6	73.09
707.8	72.93
708.0	72.68
708.2	71.62
708.4	70.27
708.6	69.51
708.8	69.05
709.0	68.89
709.2	68.59
709.4	68.17
709.6	67.46
709.8	67.28
710.0	67.28
710.2	67.42
710.4	66.97
710.6	66.05
710.8	65.32
711.0	64.59
711.2	63.96
711.4	63.65
711.6	63.26
711.8	63.02
712.0	62.75
712.2	62.45
712.4	61.98
712.6	61.38
712.8	60.49
713.0	60.31
713.2	59.67
713.4	59.20
713.6	59.40
713.8	58.94
714.0	58.42
714.2	57.95
714.4	57.02
714.6	56.60
714.8	56.94
715.0	56.89
715.2	56.17
715.4	55.41
715.6	54.30
715.8	53.81
716.0	53.34
716.2	53.14
716.4	52.27
716.6	52.34
716.8	51.59
717.0	51.10
717.2	50.88
717.4	51.21
717.6	51.18
717.8	51.17
718.0	50.52
718.2	49.65
718.4	49.30
718.6	48.95
718.8	48.55
719.0	48.55
719.2	48.83
719.4	48.48
719.6	48.22
719.8	47.09
720.0	46.11
720.2	45.83
720.4	45.53
720.6	44.87
720.8	45.10
721.0	44.98
721.2	44.95
721.4	44.82
721.6	44.20
721.8	43.40
722.0	42.94
722.2	42.49
722.4	42.17
722.6	41.75
722.8	41.30
723.0	41.20
723.2	40.76
