Sample:	'20211010A(EM)
File name:	G-CDs 1 100.FDS
Run date:	'18:49:23, 06/10/2023
Operator:	Administrator
Comment:	'

Instrument
Model:	F-4700 FL Spectrophotometer
Serial number:	2019-001
ROM Version:	5J24010 00

Instrument parameters
Measurement type:	Wavelength scan
Scan mode:	Emission
Data mode:	Fluorescence
EX WL:	400.0 nm
EM  Start WL:	420.0 nm
EM  End WL:	800.0 nm
Scan speed:	1200 nm/min
Delay:	0.0 s
EX Slit:	10.0 nm
EM Slit:	10.0 nm
PMT Voltage:	440 V
Response:	0.002 s
Corrected spectra:	Off
Shutter control:	On

Processing performed
Savitsky-Golay smoothed
Smoothing order:	3
Number of points:	7
Number of times:	1

Peak integration
Integration method:	Rectangular
Sensitivity:	1
Threshold:	1.000

Peaks
No.	Start(nm)	Apex(nm)	End(nm)	Height(Data)	Valley(nm)	Valley(Data)
1	420.0	456.8	457.4	62.44	457.4	60.83
2	457.4	458.4	459.8	64.35	459.8	63.13
3	459.8	548.8	782.8	7346	782.8	6.557

Data points
nm	Data
420.0	14.89
420.2	15.70
420.4	15.79
420.6	15.52
420.8	15.57
421.0	15.55
421.2	15.80
421.4	15.79
421.6	15.48
421.8	15.10
422.0	15.24
422.2	15.23
422.4	15.63
422.6	15.83
422.8	15.51
423.0	15.44
423.2	15.65
423.4	15.74
423.6	15.76
423.8	15.77
424.0	15.74
424.2	15.84
424.4	16.27
424.6	16.45
424.8	16.49
425.0	16.31
425.2	16.09
425.4	15.91
425.6	15.98
425.8	15.91
426.0	16.02
426.2	16.23
426.4	16.31
426.6	16.31
426.8	16.26
427.0	15.80
427.2	15.74
427.4	15.88
427.6	16.23
427.8	16.43
428.0	16.34
428.2	16.09
428.4	15.86
428.6	15.90
428.8	16.05
429.0	16.47
429.2	16.64
429.4	16.63
429.6	16.69
429.8	16.62
430.0	16.33
430.2	16.34
430.4	16.54
430.6	16.52
430.8	17.03
431.0	17.05
431.2	17.11
431.4	17.26
431.6	17.39
431.8	17.44
432.0	17.43
432.2	17.35
432.4	17.53
432.6	17.87
432.8	17.97
433.0	18.19
433.2	18.06
433.4	18.09
433.6	18.32
433.8	18.43
434.0	18.47
434.2	18.70
434.4	18.70
434.6	18.56
434.8	18.45
435.0	18.62
435.2	19.00
435.4	19.36
435.6	19.89
435.8	20.16
436.0	20.52
436.2	20.88
436.4	21.20
436.6	21.18
436.8	21.44
437.0	21.47
437.2	21.71
437.4	21.99
437.6	22.35
437.8	22.24
438.0	22.27
438.2	22.32
438.4	22.68
438.6	23.36
438.8	23.85
439.0	23.89
439.2	24.08
439.4	24.33
439.6	24.60
439.8	24.99
440.0	25.40
440.2	25.90
440.4	26.43
440.6	26.89
440.8	27.47
441.0	27.87
441.2	28.16
441.4	28.81
441.6	28.92
441.8	29.41
442.0	30.10
442.2	30.73
442.4	31.12
442.6	31.81
442.8	32.00
443.0	32.84
443.2	33.40
443.4	34.14
443.6	34.48
443.8	34.91
444.0	35.14
444.2	35.71
444.4	35.96
444.6	36.64
444.8	37.29
445.0	38.32
445.2	38.86
445.4	39.02
445.6	39.09
445.8	39.31
446.0	39.81
446.2	41.08
446.4	41.96
446.6	42.50
446.8	42.70
447.0	43.13
447.2	43.65
447.4	44.74
447.6	45.77
447.8	46.30
448.0	46.49
448.2	47.17
448.4	47.84
448.6	48.62
448.8	48.93
449.0	49.26
449.2	49.41
449.4	49.64
449.6	50.13
449.8	50.25
450.0	50.31
450.2	51.42
450.4	52.10
450.6	52.77
450.8	53.45
451.0	53.81
451.2	54.61
451.4	55.94
451.6	56.27
451.8	55.88
452.0	55.79
452.2	55.75
452.4	55.99
452.6	57.31
452.8	57.59
453.0	57.44
453.2	57.66
453.4	57.90
453.6	58.09
453.8	59.18
454.0	59.56
454.2	59.86
454.4	60.22
454.6	60.30
454.8	60.18
455.0	60.19
455.2	59.87
455.4	60.28
455.6	60.87
455.8	61.43
456.0	61.62
456.2	61.85
456.4	62.08
456.6	62.28
456.8	62.44
457.0	62.44
457.2	61.66
457.4	60.83
457.6	61.03
457.8	61.67
458.0	63.08
458.2	64.29
458.4	64.35
458.6	63.93
458.8	63.71
459.0	64.04
459.2	64.24
459.4	64.09
459.6	63.29
459.8	63.13
460.0	63.15
460.2	64.00
460.4	64.73
460.6	64.92
460.8	65.04
461.0	65.24
461.2	65.46
461.4	65.35
461.6	65.35
461.8	64.82
462.0	64.95
462.2	65.37
462.4	65.52
462.6	66.07
462.8	66.95
463.0	67.26
463.2	67.98
463.4	68.53
463.6	68.32
463.8	68.21
464.0	68.78
464.2	69.27
464.4	69.95
464.6	70.31
464.8	70.03
465.0	69.67
465.2	70.44
465.4	71.33
465.6	72.32
465.8	73.57
466.0	74.24
466.2	74.95
466.4	75.63
466.6	76.24
466.8	77.25
467.0	78.10
467.2	78.66
467.4	79.04
467.6	79.37
467.8	80.19
468.0	81.70
468.2	83.56
468.4	84.95
468.6	86.64
468.8	87.47
469.0	88.30
469.2	88.94
469.4	90.50
469.6	92.01
469.8	93.28
470.0	93.94
470.2	95.25
470.4	96.67
470.6	98.66
470.8	101.4
471.0	103.3
471.2	104.7
471.4	106.5
471.6	108.5
471.8	110.5
472.0	112.6
472.2	114.4
472.4	115.7
472.6	117.7
472.8	120.2
473.0	122.9
473.2	124.2
473.4	125.8
473.6	127.9
473.8	130.3
474.0	133.6
474.2	137.0
474.4	139.4
474.6	142.3
474.8	144.8
475.0	146.4
475.2	149.6
475.4	152.7
475.6	156.0
475.8	159.6
476.0	163.0
476.2	166.2
476.4	170.6
476.6	174.0
476.8	176.6
477.0	179.6
477.2	183.4
477.4	187.6
477.6	191.4
477.8	193.9
478.0	197.1
478.2	201.4
478.4	205.0
478.6	209.8
478.8	214.7
479.0	219.1
479.2	223.0
479.4	227.4
479.6	230.5
479.8	234.5
480.0	239.1
480.2	243.6
480.4	247.7
480.6	253.7
480.8	259.2
481.0	264.3
481.2	267.8
481.4	271.9
481.6	276.1
481.8	281.7
482.0	286.6
482.2	292.4
482.4	297.5
482.6	304.1
482.8	309.6
483.0	315.1
483.2	318.7
483.4	323.3
483.6	330.1
483.8	336.9
484.0	343.3
484.2	350.5
484.4	354.4
484.6	359.4
484.8	366.2
485.0	372.5
485.2	379.0
485.4	386.6
485.6	393.1
485.8	401.1
486.0	408.4
486.2	415.4
486.4	421.8
486.6	428.5
486.8	435.5
487.0	443.3
487.2	450.1
487.4	456.7
487.6	463.9
487.8	472.1
488.0	479.2
488.2	487.9
488.4	495.9
488.6	504.8
488.8	514.1
489.0	523.0
489.2	531.1
489.4	540.1
489.6	548.9
489.8	557.7
490.0	566.0
490.2	576.2
490.4	586.9
490.6	597.2
490.8	607.3
491.0	615.3
491.2	623.4
491.4	634.5
491.6	645.7
491.8	657.0
492.0	667.4
492.2	678.2
492.4	689.8
492.6	702.2
492.8	714.0
493.0	725.0
493.2	736.6
493.4	748.8
493.6	761.4
493.8	775.9
494.0	788.8
494.2	804.6
494.4	820.5
494.6	833.0
494.8	846.6
495.0	860.5
495.2	874.3
495.4	889.2
495.6	905.0
495.8	918.0
496.0	933.0
496.2	948.4
496.4	963.8
496.6	976.0
496.8	992.5
497.0	1009
497.2	1027
497.4	1045
497.6	1062
497.8	1078
498.0	1095
498.2	1114
498.4	1134
498.6	1152
498.8	1173
499.0	1194
499.2	1212
499.4	1232
499.6	1249
499.8	1269
500.0	1293
500.2	1314
500.4	1333
500.6	1353
500.8	1372
501.0	1395
501.2	1421
501.4	1443
501.6	1467
501.8	1491
502.0	1515
502.2	1542
502.4	1565
502.6	1590
502.8	1615
503.0	1637
503.2	1660
503.4	1687
503.6	1712
503.8	1739
504.0	1766
504.2	1792
504.4	1818
504.6	1847
504.8	1876
505.0	1902
505.2	1930
505.4	1957
505.6	1986
505.8	2015
506.0	2043
506.2	2073
506.4	2104
506.6	2136
506.8	2169
507.0	2197
507.2	2225
507.4	2256
507.6	2284
507.8	2312
508.0	2340
508.2	2369
508.4	2406
508.6	2442
508.8	2474
509.0	2506
509.2	2531
509.4	2563
509.6	2601
509.8	2633
510.0	2671
510.2	2704
510.4	2735
510.6	2772
510.8	2806
511.0	2836
511.2	2874
511.4	2904
511.6	2934
511.8	2969
512.0	3001
512.2	3036
512.4	3075
512.6	3115
512.8	3150
513.0	3188
513.2	3217
513.4	3249
513.6	3282
513.8	3318
514.0	3354
514.2	3394
514.4	3430
514.6	3467
514.8	3504
515.0	3540
515.2	3574
515.4	3612
515.6	3646
515.8	3685
516.0	3725
516.2	3763
516.4	3798
516.6	3834
516.8	3868
517.0	3906
517.2	3940
517.4	3972
517.6	4003
517.8	4042
518.0	4075
518.2	4115
518.4	4150
518.6	4186
518.8	4225
519.0	4265
519.2	4302
519.4	4342
519.6	4376
519.8	4414
520.0	4450
520.2	4484
520.4	4518
520.6	4553
520.8	4583
521.0	4618
521.2	4653
521.4	4690
521.6	4721
521.8	4765
522.0	4794
522.2	4832
522.4	4867
522.6	4896
522.8	4923
523.0	4962
523.2	4998
523.4	5043
523.6	5077
523.8	5106
524.0	5135
524.2	5165
524.4	5204
524.6	5242
524.8	5273
525.0	5305
525.2	5334
525.4	5358
525.6	5394
525.8	5427
526.0	5456
526.2	5491
526.4	5521
526.6	5551
526.8	5580
527.0	5612
527.2	5641
527.4	5676
527.6	5700
527.8	5729
528.0	5753
528.2	5778
528.4	5805
528.6	5841
528.8	5874
529.0	5914
529.2	5944
529.4	5968
529.6	5992
529.8	6020
530.0	6049
530.2	6081
530.4	6105
530.6	6128
530.8	6151
531.0	6178
531.2	6207
531.4	6233
531.6	6255
531.8	6277
532.0	6303
532.2	6328
532.4	6359
532.6	6385
532.8	6411
533.0	6438
533.2	6460
533.4	6479
533.6	6494
533.8	6517
534.0	6539
534.2	6567
534.4	6580
534.6	6602
534.8	6616
535.0	6638
535.2	6660
535.4	6692
535.6	6711
535.8	6740
536.0	6756
536.2	6764
536.4	6774
536.6	6789
536.8	6805
537.0	6825
537.2	6840
537.4	6858
537.6	6875
537.8	6900
538.0	6923
538.2	6939
538.4	6954
538.6	6970
538.8	6980
539.0	6997
539.2	7012
539.4	7020
539.6	7032
539.8	7042
540.0	7055
540.2	7070
540.4	7081
540.6	7092
540.8	7101
541.0	7111
541.2	7122
541.4	7132
541.6	7142
541.8	7151
542.0	7163
542.2	7174
542.4	7190
542.6	7204
542.8	7219
543.0	7221
543.2	7221
543.4	7220
543.6	7233
543.8	7247
544.0	7266
544.2	7266
544.4	7268
544.6	7268
544.8	7269
545.0	7274
545.2	7293
545.4	7301
545.6	7315
545.8	7321
546.0	7324
546.2	7318
546.4	7326
546.6	7325
546.8	7333
547.0	7336
547.2	7333
547.4	7330
547.6	7331
547.8	7329
548.0	7331
548.2	7332
548.4	7335
548.6	7344
548.8	7346
549.0	7344
549.2	7343
549.4	7341
549.6	7337
549.8	7333
550.0	7327
550.2	7318
550.4	7314
550.6	7312
550.8	7310
551.0	7312
551.2	7315
551.4	7317
551.6	7313
551.8	7309
552.0	7304
552.2	7294
552.4	7293
552.6	7287
552.8	7275
553.0	7268
553.2	7259
553.4	7251
553.6	7255
553.8	7250
554.0	7245
554.2	7239
554.4	7231
554.6	7231
554.8	7222
555.0	7216
555.2	7205
555.4	7189
555.6	7177
555.8	7176
556.0	7166
556.2	7159
556.4	7147
556.6	7131
556.8	7117
557.0	7113
557.2	7113
557.4	7108
557.6	7102
557.8	7088
558.0	7070
558.2	7062
558.4	7053
558.6	7042
558.8	7026
559.0	7016
559.2	7012
559.4	7011
559.6	7003
559.8	6995
560.0	6977
560.2	6964
560.4	6948
560.6	6931
560.8	6916
561.0	6901
561.2	6878
561.4	6865
561.6	6851
561.8	6837
562.0	6826
562.2	6816
562.4	6799
562.6	6796
562.8	6785
563.0	6766
563.2	6747
563.4	6733
563.6	6717
563.8	6699
564.0	6678
564.2	6660
564.4	6644
564.6	6632
564.8	6610
565.0	6594
565.2	6587
565.4	6566
565.6	6553
565.8	6532
566.0	6511
566.2	6502
566.4	6493
566.6	6480
566.8	6468
567.0	6453
567.2	6436
567.4	6421
567.6	6397
567.8	6371
568.0	6347
568.2	6330
568.4	6312
568.6	6304
568.8	6296
569.0	6279
569.2	6260
569.4	6242
569.6	6222
569.8	6207
570.0	6190
570.2	6168
570.4	6152
570.6	6138
570.8	6119
571.0	6105
571.2	6085
571.4	6060
571.6	6045
571.8	6024
572.0	6001
572.2	5985
572.4	5962
572.6	5943
572.8	5931
573.0	5916
573.2	5903
573.4	5885
573.6	5859
573.8	5836
574.0	5818
574.2	5806
574.4	5794
574.6	5772
574.8	5755
575.0	5728
575.2	5702
575.4	5684
575.6	5665
575.8	5645
576.0	5634
576.2	5615
576.4	5596
576.6	5570
576.8	5544
577.0	5513
577.2	5498
577.4	5481
577.6	5470
577.8	5456
578.0	5435
578.2	5416
578.4	5399
578.6	5377
578.8	5362
579.0	5347
579.2	5328
579.4	5316
579.6	5292
579.8	5268
580.0	5243
580.2	5222
580.4	5201
580.6	5186
580.8	5171
581.0	5158
581.2	5140
581.4	5117
581.6	5088
581.8	5067
582.0	5053
582.2	5043
582.4	5035
582.6	5017
582.8	4993
583.0	4971
583.2	4947
583.4	4927
583.6	4904
583.8	4881
584.0	4862
584.2	4851
584.4	4832
584.6	4816
584.8	4794
585.0	4771
585.2	4751
585.4	4732
585.6	4709
585.8	4693
586.0	4676
586.2	4659
586.4	4645
586.6	4631
586.8	4617
587.0	4599
587.2	4575
587.4	4550
587.6	4527
587.8	4510
588.0	4492
588.2	4467
588.4	4450
588.6	4433
588.8	4417
589.0	4407
589.2	4391
589.4	4366
589.6	4350
589.8	4332
590.0	4308
590.2	4291
590.4	4269
590.6	4250
590.8	4235
591.0	4221
591.2	4197
591.4	4181
591.6	4161
591.8	4141
592.0	4125
592.2	4104
592.4	4080
592.6	4063
592.8	4047
593.0	4030
593.2	4014
593.4	3992
593.6	3976
593.8	3958
594.0	3943
594.2	3928
594.4	3908
594.6	3892
594.8	3883
595.0	3864
595.2	3846
595.4	3829
595.6	3810
595.8	3795
596.0	3784
596.2	3768
596.4	3751
596.6	3729
596.8	3712
597.0	3695
597.2	3677
597.4	3661
597.6	3642
597.8	3620
598.0	3606
598.2	3594
598.4	3587
598.6	3572
598.8	3550
599.0	3532
599.2	3509
599.4	3491
599.6	3478
599.8	3459
600.0	3441
600.2	3429
600.4	3414
600.6	3398
600.8	3385
601.0	3370
601.2	3353
601.4	3340
601.6	3325
601.8	3307
602.0	3290
602.2	3273
602.4	3255
602.6	3242
602.8	3227
603.0	3212
603.2	3193
603.4	3176
603.6	3161
603.8	3145
604.0	3127
604.2	3112
604.4	3097
604.6	3083
604.8	3070
605.0	3055
605.2	3037
605.4	3021
605.6	3007
605.8	2994
606.0	2982
606.2	2969
606.4	2953
606.6	2936
606.8	2921
607.0	2907
607.2	2892
607.4	2873
607.6	2858
607.8	2842
608.0	2833
608.2	2821
608.4	2808
608.6	2790
608.8	2773
609.0	2756
609.2	2740
609.4	2724
609.6	2709
609.8	2693
610.0	2680
610.2	2668
610.4	2654
610.6	2640
610.8	2627
611.0	2617
611.2	2609
611.4	2596
611.6	2577
611.8	2558
612.0	2541
612.2	2528
612.4	2517
612.6	2503
612.8	2489
613.0	2476
613.2	2461
613.4	2448
613.6	2435
613.8	2420
614.0	2410
614.2	2400
614.4	2384
614.6	2371
614.8	2357
615.0	2342
615.2	2331
615.4	2320
615.6	2304
615.8	2290
616.0	2275
616.2	2260
616.4	2247
616.6	2235
616.8	2222
617.0	2210
617.2	2202
617.4	2191
617.6	2177
617.8	2162
618.0	2148
618.2	2138
618.4	2127
618.6	2115
618.8	2100
619.0	2088
619.2	2076
619.4	2069
619.6	2056
619.8	2041
620.0	2027
620.2	2015
620.4	2003
620.6	1993
620.8	1981
621.0	1968
621.2	1957
621.4	1947
621.6	1936
621.8	1923
622.0	1909
622.2	1898
622.4	1888
622.6	1876
622.8	1867
623.0	1857
623.2	1843
623.4	1834
623.6	1822
623.8	1808
624.0	1799
624.2	1787
624.4	1773
624.6	1761
624.8	1753
625.0	1747
625.2	1742
625.4	1732
625.6	1722
625.8	1707
626.0	1695
626.2	1684
626.4	1673
626.6	1664
626.8	1654
627.0	1643
627.2	1634
627.4	1621
627.6	1610
627.8	1600
628.0	1588
628.2	1580
628.4	1571
628.6	1562
628.8	1554
629.0	1542
629.2	1531
629.4	1522
629.6	1513
629.8	1506
630.0	1499
630.2	1486
630.4	1475
630.6	1462
630.8	1451
631.0	1439
631.2	1431
631.4	1421
631.6	1413
631.8	1405
632.0	1398
632.2	1389
632.4	1381
632.6	1372
632.8	1365
633.0	1355
633.2	1346
633.4	1336
633.6	1325
633.8	1316
634.0	1309
634.2	1302
634.4	1296
634.6	1288
634.8	1278
635.0	1269
635.2	1261
635.4	1254
635.6	1246
635.8	1236
636.0	1229
636.2	1220
636.4	1213
636.6	1207
636.8	1200
637.0	1189
637.2	1181
637.4	1169
637.6	1162
637.8	1157
638.0	1153
638.2	1147
638.4	1142
638.6	1132
638.8	1123
639.0	1114
639.2	1107
639.4	1101
639.6	1096
639.8	1090
640.0	1080
640.2	1072
640.4	1065
640.6	1059
640.8	1054
641.0	1047
641.2	1037
641.4	1029
641.6	1020
641.8	1014
642.0	1007
642.2	1002
642.4	995.1
642.6	988.2
642.8	981.6
643.0	977.3
643.2	971.9
643.4	967.6
643.6	957.3
643.8	948.7
644.0	942.3
644.2	935.9
644.4	931.9
644.6	924.8
644.8	915.9
645.0	910.3
645.2	904.3
645.4	897.1
645.6	894.0
645.8	888.4
646.0	883.5
646.2	878.6
646.4	872.9
646.6	866.2
646.8	863.3
647.0	857.4
647.2	850.5
647.4	843.5
647.6	837.8
647.8	832.4
648.0	825.1
648.2	817.5
648.4	812.3
648.6	806.4
648.8	803.4
649.0	799.9
649.2	791.8
649.4	786.9
649.6	783.4
649.8	778.0
650.0	774.2
650.2	768.2
650.4	760.5
650.6	754.0
650.8	749.5
651.0	743.3
651.2	738.7
651.4	733.1
651.6	728.7
651.8	723.1
652.0	720.3
652.2	716.5
652.4	713.8
652.6	707.9
652.8	701.9
653.0	693.0
653.2	688.3
653.4	684.7
653.6	682.0
653.8	678.0
654.0	672.6
654.2	665.4
654.4	660.7
654.6	655.4
654.8	652.7
655.0	650.8
655.2	647.2
655.4	642.0
655.6	637.4
655.8	630.7
656.0	625.3
656.2	620.0
656.4	615.0
656.6	610.6
656.8	606.8
657.0	604.1
657.2	600.8
657.4	598.2
657.6	593.2
657.8	589.2
658.0	583.4
658.2	580.4
658.4	576.6
658.6	572.9
658.8	566.6
659.0	561.7
659.2	556.7
659.4	554.7
659.6	551.6
659.8	549.4
660.0	545.6
660.2	541.3
660.4	536.9
660.6	531.5
660.8	526.7
661.0	524.2
661.2	520.4
661.4	518.5
661.6	514.7
661.8	509.3
662.0	505.9
662.2	502.4
662.4	499.6
662.6	496.9
662.8	492.6
663.0	488.3
663.2	484.4
663.4	481.6
663.6	477.5
663.8	474.0
664.0	470.7
664.2	467.5
664.4	465.3
664.6	463.1
664.8	459.1
665.0	456.8
665.2	453.0
665.4	450.0
665.6	446.9
665.8	442.2
666.0	439.8
666.2	437.7
666.4	435.0
666.6	431.7
666.8	427.8
667.0	425.6
667.2	422.0
667.4	418.2
667.6	415.3
667.8	411.7
668.0	408.7
668.2	407.3
668.4	403.6
668.6	400.3
668.8	397.9
669.0	394.6
669.2	391.0
669.4	388.1
669.6	385.3
669.8	383.4
670.0	380.8
670.2	377.1
670.4	373.7
670.6	370.8
670.8	367.4
671.0	364.2
671.2	361.1
671.4	358.4
671.6	356.6
671.8	354.7
672.0	350.9
672.2	347.8
672.4	344.8
672.6	343.1
672.8	341.7
673.0	341.1
673.2	337.5
673.4	335.1
673.6	332.3
673.8	330.1
674.0	327.8
674.2	326.9
674.4	323.8
674.6	320.2
674.8	317.4
675.0	315.2
675.2	314.7
675.4	314.3
675.6	312.5
675.8	309.7
676.0	306.0
676.2	302.2
676.4	299.9
676.6	297.4
676.8	294.6
677.0	291.6
677.2	289.7
677.4	286.4
677.6	284.7
677.8	283.9
678.0	282.4
678.2	280.2
678.4	279.7
678.6	276.9
678.8	274.6
679.0	272.2
679.2	268.8
679.4	266.1
679.6	265.4
679.8	264.1
680.0	263.0
680.2	260.9
680.4	258.7
680.6	256.5
680.8	255.4
681.0	252.4
681.2	250.6
681.4	248.5
681.6	246.5
681.8	245.6
682.0	244.3
682.2	242.2
682.4	240.6
682.6	238.2
682.8	235.0
683.0	233.4
683.2	231.1
683.4	229.5
683.6	228.2
683.8	226.6
684.0	224.9
684.2	224.7
684.4	223.0
684.6	221.2
684.8	219.3
685.0	217.5
685.2	215.7
685.4	214.2
685.6	212.3
685.8	210.9
686.0	209.3
686.2	208.1
686.4	206.6
686.6	204.4
686.8	202.5
687.0	201.3
687.2	200.4
687.4	199.0
687.6	197.8
687.8	195.8
688.0	193.4
688.2	191.9
688.4	191.1
688.6	189.4
688.8	187.2
689.0	185.4
689.2	184.5
689.4	183.7
689.6	183.9
689.8	183.0
690.0	180.3
690.2	177.9
690.4	176.6
690.6	174.0
690.8	172.4
691.0	171.4
691.2	169.7
691.4	168.9
691.6	169.4
691.8	168.8
692.0	168.2
692.2	167.2
692.4	165.1
692.6	162.5
692.8	161.0
693.0	159.2
693.2	158.5
693.4	158.2
693.6	157.4
693.8	156.3
694.0	155.6
694.2	154.1
694.4	152.9
694.6	152.3
694.8	151.0
695.0	150.1
695.2	149.2
695.4	148.2
695.6	146.5
695.8	145.9
696.0	144.9
696.2	143.5
696.4	142.8
696.6	141.9
696.8	141.3
697.0	141.3
697.2	140.7
697.4	139.4
697.6	138.8
697.8	136.8
698.0	135.7
698.2	134.5
698.4	133.7
698.6	132.9
698.8	132.8
699.0	131.8
699.2	130.1
699.4	128.9
699.6	127.7
699.8	127.1
700.0	127.3
700.2	127.1
700.4	125.3
700.6	123.9
700.8	122.8
701.0	121.9
701.2	121.4
701.4	121.3
701.6	120.2
701.8	119.4
702.0	118.7
702.2	117.7
702.4	117.0
702.6	116.2
702.8	114.6
703.0	113.9
703.2	112.7
703.4	112.4
703.6	111.9
703.8	111.7
704.0	110.9
704.2	111.0
704.4	110.1
704.6	109.5
704.8	108.2
705.0	107.2
705.2	106.4
705.4	105.8
705.6	105.0
705.8	104.5
706.0	103.7
706.2	103.4
706.4	102.9
706.6	101.7
706.8	100.8
707.0	99.60
707.2	99.23
707.4	99.37
707.6	98.54
707.8	97.94
708.0	97.36
708.2	96.17
708.4	96.04
708.6	95.44
708.8	94.08
709.0	92.69
709.2	92.22
709.4	92.00
709.6	91.53
709.8	90.79
710.0	90.39
710.2	89.63
710.4	89.28
710.6	88.65
710.8	86.87
711.0	85.91
711.2	86.00
711.4	86.02
711.6	85.21
711.8	85.19
712.0	84.59
712.2	84.07
712.4	83.50
712.6	83.08
712.8	81.99
713.0	81.71
713.2	81.42
713.4	81.11
713.6	80.88
713.8	80.37
714.0	79.69
714.2	78.36
714.4	77.33
714.6	76.60
714.8	76.59
715.0	75.68
715.2	76.05
715.4	75.36
715.6	74.27
715.8	73.14
716.0	72.76
716.2	71.74
716.4	72.02
716.6	71.55
716.8	71.35
717.0	70.90
717.2	71.18
717.4	70.75
717.6	70.50
717.8	69.80
718.0	68.55
718.2	67.46
718.4	66.82
718.6	65.85
718.8	65.14
719.0	64.99
719.2	64.65
719.4	64.49
719.6	63.89
719.8	63.06
720.0	62.22
720.2	61.82
720.4	62.14
720.6	61.69
720.8	61.20
721.0	60.73
721.2	60.61
721.4	60.04
721.6	59.93
721.8	59.48
722.0	58.76
722.2	57.82
722.4	57.16
722.6	56.55
722.8	56.23
723.0	56.05
723.2	55.35
723.4	54.93
723.6	54.44
723.8	54.56
