Sample:	'20211010A(EM)
File name:	G-CDs 7.FDS
Run date:	'19:07:11, 06/10/2023
Operator:	Administrator
Comment:	'

Instrument
Model:	F-4700 FL Spectrophotometer
Serial number:	2019-001
ROM Version:	5J24010 00

Instrument parameters
Measurement type:	Wavelength scan
Scan mode:	Emission
Data mode:	Fluorescence
EX WL:	400.0 nm
EM  Start WL:	420.0 nm
EM  End WL:	800.0 nm
Scan speed:	1200 nm/min
Delay:	0.0 s
EX Slit:	10.0 nm
EM Slit:	10.0 nm
PMT Voltage:	440 V
Response:	0.002 s
Corrected spectra:	Off
Shutter control:	On

Processing performed
Savitsky-Golay smoothed
Smoothing order:	3
Number of points:	7
Number of times:	1

Peak integration
Integration method:	Rectangular
Sensitivity:	1
Threshold:	1.000

Peaks
No.	Start(nm)	Apex(nm)	End(nm)	Height(Data)	Valley(nm)	Valley(Data)
1	420.0	541.0	542.4	4873	542.4	4860
2	542.4	543.0	782.6	4875	782.6	3.465

Data points
nm	Data
420.0	3.423
420.2	3.272
420.4	3.253
420.6	3.314
420.8	3.378
421.0	3.490
421.2	3.475
421.4	3.469
421.6	3.407
421.8	3.445
422.0	3.389
422.2	3.380
422.4	3.375
422.6	3.323
422.8	3.287
423.0	3.331
423.2	3.293
423.4	3.286
423.6	3.230
423.8	3.172
424.0	3.105
424.2	2.998
424.4	2.996
424.6	3.038
424.8	3.124
425.0	3.308
425.2	3.351
425.4	3.242
425.6	3.186
425.8	3.101
426.0	3.152
426.2	3.255
426.4	3.284
426.6	3.231
426.8	3.217
427.0	3.176
427.2	3.177
427.4	3.258
427.6	3.298
427.8	3.289
428.0	3.279
428.2	3.287
428.4	3.273
428.6	3.352
428.8	3.524
429.0	3.468
429.2	3.428
429.4	3.428
429.6	3.448
429.8	3.484
430.0	3.588
430.2	3.511
430.4	3.468
430.6	3.498
430.8	3.559
431.0	3.518
431.2	3.538
431.4	3.646
431.6	3.780
431.8	3.784
432.0	3.799
432.2	3.695
432.4	3.703
432.6	3.825
432.8	3.838
433.0	3.913
433.2	3.902
433.4	3.883
433.6	3.833
433.8	3.757
434.0	3.622
434.2	3.666
434.4	3.676
434.6	3.689
434.8	3.727
435.0	3.765
435.2	3.890
435.4	4.001
435.6	4.011
435.8	4.059
436.0	4.158
436.2	4.140
436.4	4.124
436.6	4.146
436.8	4.128
437.0	4.244
437.2	4.337
437.4	4.382
437.6	4.428
437.8	4.560
438.0	4.661
438.2	4.612
438.4	4.599
438.6	4.636
438.8	4.687
439.0	4.951
439.2	5.052
439.4	5.052
439.6	5.141
439.8	5.104
440.0	4.985
440.2	5.005
440.4	4.970
440.6	5.042
440.8	5.155
441.0	5.314
441.2	5.301
441.4	5.315
441.6	5.268
441.8	5.302
442.0	5.162
442.2	5.379
442.4	5.570
442.6	5.803
442.8	5.968
443.0	6.058
443.2	5.788
443.4	5.841
443.6	5.901
443.8	6.031
444.0	6.256
444.2	6.375
444.4	6.302
444.6	6.371
444.8	6.405
445.0	6.429
445.2	6.601
445.4	6.676
445.6	6.592
445.8	6.629
446.0	6.732
446.2	6.758
446.4	6.954
446.6	7.057
446.8	7.043
447.0	6.989
447.2	6.951
447.4	6.882
447.6	6.762
447.8	6.772
448.0	6.942
448.2	7.036
448.4	7.347
448.6	7.414
448.8	7.374
449.0	7.308
449.2	7.292
449.4	7.156
449.6	7.406
449.8	7.531
450.0	7.675
450.2	7.592
450.4	7.737
450.6	7.731
450.8	7.902
451.0	8.021
451.2	8.001
451.4	7.871
451.6	7.979
451.8	7.976
452.0	7.810
452.2	7.772
452.4	7.876
452.6	8.041
452.8	8.207
453.0	8.077
453.2	7.697
453.4	7.626
453.6	7.585
453.8	7.638
454.0	7.851
454.2	8.030
454.4	8.113
454.6	8.236
454.8	8.180
455.0	8.282
455.2	8.342
455.4	8.560
455.6	8.447
455.8	8.221
456.0	8.221
456.2	8.441
456.4	8.608
456.6	8.877
456.8	8.775
457.0	8.704
457.2	8.797
457.4	8.842
457.6	8.876
457.8	8.892
458.0	8.882
458.2	9.302
458.4	9.336
458.6	9.424
458.8	9.443
459.0	9.283
459.2	9.378
459.4	9.672
459.6	9.539
459.8	9.701
460.0	9.766
460.2	9.767
460.4	10.06
460.6	10.21
460.8	10.25
461.0	10.32
461.2	10.35
461.4	10.58
461.6	10.91
461.8	11.22
462.0	11.38
462.2	11.64
462.4	11.81
462.6	12.20
462.8	12.41
463.0	12.65
463.2	12.94
463.4	13.19
463.6	13.36
463.8	13.78
464.0	14.03
464.2	14.35
464.4	14.71
464.6	14.91
464.8	15.06
465.0	15.55
465.2	16.00
465.4	16.49
465.6	16.84
465.8	17.22
466.0	17.48
466.2	18.03
466.4	18.57
466.6	18.96
466.8	19.21
467.0	19.88
467.2	20.42
467.4	21.28
467.6	21.88
467.8	22.45
468.0	22.92
468.2	23.66
468.4	23.95
468.6	24.54
468.8	25.01
469.0	25.66
469.2	26.76
469.4	28.06
469.6	29.11
469.8	29.81
470.0	30.23
470.2	30.73
470.4	31.81
470.6	33.09
470.8	34.26
471.0	34.82
471.2	35.30
471.4	36.44
471.6	37.81
471.8	39.43
472.0	40.64
472.2	41.50
472.4	42.11
472.6	43.21
472.8	44.33
473.0	45.39
473.2	46.38
473.4	47.57
473.6	48.67
473.8	50.64
474.0	52.17
474.2	54.01
474.4	55.27
474.6	56.88
474.8	58.44
475.0	60.46
475.2	61.52
475.4	63.36
475.6	64.39
475.8	66.71
476.0	68.96
476.2	70.73
476.4	72.26
476.6	73.92
476.8	75.53
477.0	77.66
477.2	80.09
477.4	82.06
477.6	84.42
477.8	85.75
478.0	86.95
478.2	88.13
478.4	90.16
478.6	92.69
478.8	96.06
479.0	99.02
479.2	101.6
479.4	103.8
479.6	105.8
479.8	108.4
480.0	110.9
480.2	113.6
480.4	116.2
480.6	119.1
480.8	122.2
481.0	125.2
481.2	127.8
481.4	130.4
481.6	132.9
481.8	135.9
482.0	139.1
482.2	142.3
482.4	145.1
482.6	148.5
482.8	151.1
483.0	154.1
483.2	158.2
483.4	163.3
483.6	167.3
483.8	172.0
484.0	175.3
484.2	179.1
484.4	182.8
484.6	186.8
484.8	190.1
485.0	194.5
485.2	199.7
485.4	205.1
485.6	209.2
485.8	213.3
486.0	216.8
486.2	221.3
486.4	226.6
486.6	231.1
486.8	235.5
487.0	240.5
487.2	245.5
487.4	251.2
487.6	257.5
487.8	263.8
488.0	269.8
488.2	277.2
488.4	283.8
488.6	289.4
488.8	293.9
489.0	300.2
489.2	305.7
489.4	313.1
489.6	320.4
489.8	326.9
490.0	333.0
490.2	340.9
490.4	348.3
490.6	356.0
490.8	364.1
491.0	371.5
491.2	378.9
491.4	388.4
491.6	398.3
491.8	407.6
492.0	416.2
492.2	423.8
492.4	430.3
492.6	438.7
492.8	449.3
493.0	460.0
493.2	471.4
493.4	481.5
493.6	490.8
493.8	501.5
494.0	514.3
494.2	525.0
494.4	536.3
494.6	547.2
494.8	558.8
495.0	572.3
495.2	585.1
495.4	596.7
495.6	608.4
495.8	620.7
496.0	634.0
496.2	648.4
496.4	659.9
496.6	672.5
496.8	685.9
497.0	699.7
497.2	713.4
497.4	729.4
497.6	743.3
497.8	758.9
498.0	774.2
498.2	789.8
498.4	804.1
498.6	819.7
498.8	834.1
499.0	850.2
499.2	865.9
499.4	884.8
499.6	904.2
499.8	922.2
500.0	940.4
500.2	960.6
500.4	978.3
500.6	996.6
500.8	1016
501.0	1035
501.2	1056
501.4	1079
501.6	1097
501.8	1114
502.0	1133
502.2	1152
502.4	1171
502.6	1192
502.8	1212
503.0	1233
503.2	1255
503.4	1279
503.6	1301
503.8	1323
504.0	1345
504.2	1367
504.4	1389
504.6	1412
504.8	1438
505.0	1461
505.2	1484
505.4	1509
505.6	1533
505.8	1558
506.0	1586
506.2	1610
506.4	1635
506.6	1660
506.8	1682
507.0	1703
507.2	1725
507.4	1748
507.6	1774
507.8	1802
508.0	1828
508.2	1854
508.4	1880
508.6	1908
508.8	1936
509.0	1964
509.2	1990
509.4	2018
509.6	2044
509.8	2072
510.0	2101
510.2	2125
510.4	2149
510.6	2175
510.8	2199
511.0	2229
511.2	2259
511.4	2286
511.6	2312
511.8	2341
512.0	2368
512.2	2398
512.4	2426
512.6	2453
512.8	2477
513.0	2503
513.2	2531
513.4	2562
513.6	2589
513.8	2619
514.0	2645
514.2	2670
514.4	2696
514.6	2726
514.8	2754
515.0	2784
515.2	2809
515.4	2835
515.6	2863
515.8	2893
516.0	2920
516.2	2942
516.4	2966
516.6	2994
516.8	3026
517.0	3059
517.2	3085
517.4	3111
517.6	3135
517.8	3162
518.0	3187
518.2	3214
518.4	3237
518.6	3263
518.8	3288
519.0	3314
519.2	3340
519.4	3365
519.6	3389
519.8	3418
520.0	3444
520.2	3465
520.4	3492
520.6	3515
520.8	3535
521.0	3568
521.2	3596
521.4	3619
521.6	3646
521.8	3670
522.0	3688
522.2	3717
522.4	3740
522.6	3758
522.8	3779
523.0	3802
523.2	3824
523.4	3853
523.6	3874
523.8	3894
524.0	3914
524.2	3937
524.4	3958
524.6	3979
524.8	3997
525.0	4015
525.2	4035
525.4	4063
525.6	4090
525.8	4111
526.0	4130
526.2	4140
526.4	4148
526.6	4166
526.8	4190
527.0	4211
527.2	4232
527.4	4251
527.6	4266
527.8	4289
528.0	4307
528.2	4324
528.4	4341
528.6	4353
528.8	4367
529.0	4384
529.2	4397
529.4	4411
529.6	4429
529.8	4443
530.0	4462
530.2	4477
530.4	4491
530.6	4503
530.8	4520
531.0	4534
531.2	4545
531.4	4557
531.6	4569
531.8	4586
532.0	4601
532.2	4607
532.4	4611
532.6	4622
532.8	4639
533.0	4657
533.2	4669
533.4	4674
533.6	4678
533.8	4685
534.0	4695
534.2	4708
534.4	4723
534.6	4733
534.8	4740
535.0	4751
535.2	4760
535.4	4770
535.6	4775
535.8	4776
536.0	4774
536.2	4775
536.4	4781
536.6	4787
536.8	4792
537.0	4802
537.2	4816
537.4	4824
537.6	4835
537.8	4843
538.0	4844
538.2	4837
538.4	4839
538.6	4838
538.8	4839
539.0	4848
539.2	4855
539.4	4857
539.6	4864
539.8	4869
540.0	4869
540.2	4868
540.4	4868
540.6	4868
540.8	4868
541.0	4873
541.2	4870
541.4	4867
541.6	4867
541.8	4871
542.0	4869
542.2	4868
542.4	4860
542.6	4864
542.8	4867
543.0	4875
543.2	4872
543.4	4868
543.6	4863
543.8	4860
544.0	4856
544.2	4850
544.4	4844
544.6	4840
544.8	4839
545.0	4838
545.2	4832
545.4	4825
545.6	4822
545.8	4818
546.0	4815
546.2	4809
546.4	4803
546.6	4797
546.8	4795
547.0	4793
547.2	4787
547.4	4776
547.6	4771
547.8	4767
548.0	4764
548.2	4759
548.4	4755
548.6	4748
548.8	4744
549.0	4739
549.2	4726
549.4	4710
549.6	4698
549.8	4692
550.0	4692
550.2	4693
550.4	4686
550.6	4673
550.8	4660
551.0	4651
551.2	4640
551.4	4632
551.6	4626
551.8	4620
552.0	4617
552.2	4615
552.4	4599
552.6	4584
552.8	4571
553.0	4564
553.2	4556
553.4	4551
553.6	4537
553.8	4527
554.0	4516
554.2	4506
554.4	4493
554.6	4485
554.8	4478
555.0	4474
555.2	4466
555.4	4457
555.6	4444
555.8	4434
556.0	4423
556.2	4410
556.4	4400
556.6	4389
556.8	4374
557.0	4365
557.2	4354
557.4	4344
557.6	4337
557.8	4324
558.0	4311
558.2	4301
558.4	4286
558.6	4273
558.8	4256
559.0	4242
559.2	4233
559.4	4226
559.6	4217
559.8	4209
560.0	4199
560.2	4190
560.4	4176
560.6	4159
560.8	4143
561.0	4124
561.2	4116
561.4	4105
561.6	4092
561.8	4079
562.0	4070
562.2	4058
562.4	4045
562.6	4033
562.8	4021
563.0	4007
563.2	3999
563.4	3987
563.6	3970
563.8	3959
564.0	3949
564.2	3934
564.4	3917
564.6	3899
564.8	3883
565.0	3869
565.2	3862
565.4	3851
565.6	3836
565.8	3821
566.0	3805
566.2	3790
566.4	3784
566.6	3776
566.8	3768
567.0	3755
567.2	3736
567.4	3719
567.6	3708
567.8	3695
568.0	3682
568.2	3667
568.4	3650
568.6	3636
568.8	3625
569.0	3617
569.2	3606
569.4	3590
569.6	3578
569.8	3560
570.0	3548
570.2	3537
570.4	3523
570.6	3508
570.8	3497
571.0	3476
571.2	3458
571.4	3442
571.6	3429
571.8	3414
572.0	3406
572.2	3394
572.4	3383
572.6	3373
572.8	3359
573.0	3341
573.2	3328
573.4	3315
573.6	3301
573.8	3291
574.0	3276
574.2	3265
574.4	3250
574.6	3235
574.8	3220
575.0	3208
575.2	3198
575.4	3184
575.6	3168
575.8	3153
576.0	3141
576.2	3125
576.4	3114
576.6	3098
576.8	3087
577.0	3078
577.2	3070
577.4	3056
577.6	3045
577.8	3030
578.0	3015
578.2	2999
578.4	2983
578.6	2972
578.8	2959
579.0	2946
579.2	2931
579.4	2917
579.6	2906
579.8	2898
580.0	2887
580.2	2875
580.4	2864
580.6	2851
580.8	2839
581.0	2824
581.2	2812
581.4	2796
581.6	2782
581.8	2769
582.0	2759
582.2	2751
582.4	2744
582.6	2733
582.8	2720
583.0	2707
583.2	2690
583.4	2672
583.6	2653
583.8	2641
584.0	2631
584.2	2629
584.4	2620
584.6	2609
584.8	2593
585.0	2583
585.2	2572
585.4	2560
585.6	2546
585.8	2535
586.0	2522
586.2	2509
586.4	2500
586.6	2484
586.8	2474
587.0	2465
587.2	2458
587.4	2447
587.6	2438
587.8	2421
588.0	2406
588.2	2391
588.4	2382
588.6	2372
588.8	2364
589.0	2353
589.2	2346
589.4	2338
589.6	2327
589.8	2313
590.0	2298
590.2	2281
590.4	2271
590.6	2262
590.8	2251
591.0	2240
591.2	2228
591.4	2213
591.6	2204
591.8	2196
592.0	2186
592.2	2176
592.4	2165
592.6	2150
592.8	2143
593.0	2134
593.2	2125
593.4	2115
593.6	2103
593.8	2088
594.0	2079
594.2	2071
594.4	2067
594.6	2059
594.8	2048
595.0	2030
595.2	2017
595.4	2007
595.6	2001
595.8	1993
596.0	1983
596.2	1969
596.4	1958
596.6	1946
596.8	1935
597.0	1927
597.2	1918
597.4	1913
597.6	1904
597.8	1893
598.0	1883
598.2	1873
598.4	1863
598.6	1857
598.8	1852
599.0	1843
599.2	1835
599.4	1823
599.6	1813
599.8	1805
600.0	1794
600.2	1781
600.4	1772
600.6	1762
600.8	1753
601.0	1745
601.2	1738
601.4	1729
601.6	1723
601.8	1713
602.0	1702
602.2	1691
602.4	1685
602.6	1673
602.8	1663
603.0	1654
603.2	1644
603.4	1637
603.6	1628
603.8	1618
604.0	1610
604.2	1602
604.4	1596
604.6	1591
604.8	1580
605.0	1570
605.2	1558
605.4	1548
605.6	1542
605.8	1536
606.0	1527
606.2	1517
606.4	1508
606.6	1500
606.8	1493
607.0	1484
607.2	1471
607.4	1461
607.6	1454
607.8	1448
608.0	1440
608.2	1432
608.4	1422
608.6	1415
608.8	1408
609.0	1404
609.2	1395
609.4	1386
609.6	1377
609.8	1369
610.0	1363
610.2	1357
610.4	1349
610.6	1338
610.8	1328
611.0	1320
611.2	1312
611.4	1305
611.6	1299
611.8	1290
612.0	1283
612.2	1273
612.4	1265
612.6	1256
612.8	1249
613.0	1246
613.2	1242
613.4	1236
613.6	1229
613.8	1221
614.0	1214
614.2	1207
614.4	1200
614.6	1191
614.8	1181
615.0	1177
615.2	1169
615.4	1161
615.6	1154
615.8	1147
616.0	1141
616.2	1136
616.4	1126
616.6	1119
616.8	1112
617.0	1107
617.2	1101
617.4	1095
617.6	1087
617.8	1081
618.0	1076
618.2	1069
618.4	1060
618.6	1053
618.8	1044
619.0	1040
619.2	1035
619.4	1029
619.6	1021
619.8	1015
620.0	1009
620.2	1002
620.4	994.8
620.6	987.6
620.8	982.1
621.0	977.6
621.2	974.7
621.4	968.8
621.6	962.4
621.8	954.8
622.0	948.4
622.2	943.1
622.4	938.8
622.6	932.0
622.8	925.3
623.0	916.7
623.2	910.9
623.4	906.1
623.6	902.2
623.8	895.7
624.0	890.5
624.2	884.1
624.4	878.5
624.6	872.7
624.8	866.9
625.0	861.7
625.2	857.5
625.4	851.5
625.6	845.1
625.8	837.6
626.0	829.2
626.2	824.1
626.4	818.5
626.6	813.7
626.8	808.3
627.0	801.3
627.2	797.0
627.4	794.5
627.6	790.8
627.8	787.1
628.0	780.7
628.2	773.2
628.4	767.6
628.6	761.8
628.8	756.4
629.0	751.7
629.2	746.8
629.4	742.4
629.6	739.2
629.8	734.6
630.0	731.0
630.2	727.2
630.4	722.1
630.6	715.6
630.8	710.2
631.0	704.2
631.2	699.8
631.4	695.6
631.6	691.9
631.8	688.7
632.0	685.2
632.2	681.1
632.4	676.7
632.6	671.9
632.8	667.3
633.0	662.7
633.2	657.1
633.4	653.1
633.6	649.0
633.8	645.7
634.0	641.5
634.2	637.1
634.4	632.1
634.6	628.3
634.8	622.9
635.0	618.6
635.2	613.1
635.4	609.6
635.6	606.1
635.8	603.6
636.0	599.4
636.2	596.7
636.4	592.4
636.6	588.2
636.8	584.2
637.0	581.8
637.2	577.4
637.4	573.0
637.6	568.1
637.8	562.2
638.0	557.8
638.2	554.8
638.4	551.9
638.6	548.4
638.8	544.4
639.0	540.6
639.2	535.8
639.4	531.6
639.6	529.4
639.8	526.6
640.0	524.1
640.2	523.0
640.4	518.9
640.6	514.7
640.8	510.6
641.0	506.2
641.2	501.6
641.4	498.7
641.6	496.6
641.8	494.8
642.0	492.0
642.2	488.0
642.4	481.0
642.6	476.2
642.8	472.1
643.0	470.0
643.2	466.8
643.4	465.3
643.6	463.4
643.8	461.7
644.0	457.4
644.2	454.5
644.4	450.4
644.6	448.5
644.8	446.1
645.0	442.3
645.2	438.4
645.4	435.7
645.6	434.0
645.8	432.2
646.0	428.0
646.2	423.0
646.4	418.9
646.6	416.1
646.8	414.7
647.0	412.4
647.2	409.6
647.4	406.1
647.6	403.0
647.8	401.3
648.0	398.8
648.2	396.6
648.4	394.1
648.6	390.4
648.8	386.5
649.0	383.3
649.2	380.0
649.4	378.9
649.6	377.5
649.8	374.0
650.0	371.1
650.2	368.5
650.4	365.9
650.6	363.8
650.8	361.8
651.0	357.8
651.2	355.2
651.4	353.0
651.6	351.3
651.8	348.9
652.0	346.8
652.2	344.4
652.4	342.9
652.6	340.0
652.8	337.9
653.0	334.8
653.2	331.5
653.4	328.1
653.6	325.7
653.8	323.1
654.0	321.5
654.2	319.2
654.4	317.2
654.6	315.0
654.8	311.9
655.0	310.0
655.2	308.0
655.4	305.1
655.6	302.9
655.8	301.6
656.0	298.9
656.2	297.3
656.4	295.0
656.6	291.9
656.8	289.7
657.0	288.3
657.2	286.9
657.4	285.8
657.6	284.2
657.8	282.2
658.0	279.5
658.2	276.6
658.4	274.1
658.6	272.6
658.8	271.5
659.0	270.9
659.2	269.0
659.4	266.1
659.6	264.0
659.8	261.8
660.0	258.7
660.2	257.9
660.4	256.2
660.6	254.5
660.8	252.8
661.0	250.4
661.2	247.6
661.4	246.4
661.6	244.4
661.8	242.9
662.0	240.7
662.2	238.9
662.4	238.4
662.6	237.7
662.8	236.5
663.0	235.0
663.2	233.7
663.4	231.2
663.6	228.5
663.8	226.0
664.0	224.2
664.2	222.6
664.4	221.8
664.6	219.2
664.8	217.0
665.0	215.8
665.2	215.3
665.4	214.6
665.6	214.7
665.8	213.2
666.0	211.9
666.2	210.4
666.4	208.0
666.6	205.9
666.8	204.6
667.0	202.9
667.2	200.7
667.4	199.1
667.6	197.4
667.8	196.7
668.0	195.5
668.2	193.5
668.4	191.3
668.6	189.3
668.8	188.1
669.0	187.3
669.2	186.4
669.4	184.2
669.6	181.9
669.8	180.9
670.0	179.7
670.2	178.5
670.4	178.0
670.6	177.0
670.8	175.6
671.0	174.3
671.2	172.1
671.4	170.5
671.6	168.9
671.8	168.2
672.0	167.4
672.2	165.8
672.4	163.8
672.6	163.2
672.8	162.3
673.0	162.2
673.2	161.4
673.4	160.2
673.6	157.7
673.8	155.9
674.0	154.8
674.2	153.7
674.4	152.3
674.6	151.8
674.8	150.4
675.0	148.8
675.2	147.3
675.4	146.3
675.6	145.7
675.8	145.7
676.0	144.9
676.2	144.0
676.4	141.7
676.6	141.0
676.8	140.2
677.0	138.9
677.2	138.1
677.4	136.5
677.6	134.6
677.8	133.6
678.0	132.7
678.2	131.7
678.4	131.1
678.6	130.4
678.8	129.9
679.0	129.0
679.2	128.1
679.4	127.1
679.6	126.2
679.8	125.5
680.0	124.3
680.2	122.7
680.4	121.9
680.6	121.0
680.8	120.2
681.0	119.1
681.2	118.5
681.4	117.3
681.6	116.4
681.8	115.2
682.0	114.9
682.2	113.1
682.4	112.9
682.6	111.9
682.8	110.6
683.0	109.2
683.2	109.3
683.4	108.4
683.6	108.0
683.8	107.5
684.0	106.6
684.2	105.2
684.4	104.7
684.6	103.4
684.8	101.7
685.0	101.5
685.2	101.8
685.4	101.6
685.6	101.4
685.8	100.6
686.0	99.41
686.2	98.84
686.4	97.83
686.6	96.49
686.8	95.62
687.0	94.79
687.2	94.40
687.4	93.84
687.6	93.19
687.8	92.86
688.0	92.40
688.2	91.36
688.4	90.33
688.6	88.97
688.8	88.26
689.0	88.12
689.2	88.29
689.4	87.97
689.6	87.75
689.8	86.70
690.0	85.34
690.2	84.44
690.4	83.45
690.6	82.87
690.8	82.59
691.0	82.02
691.2	81.03
691.4	80.73
691.6	79.60
691.8	79.42
692.0	79.09
692.2	78.66
692.4	78.28
692.6	77.80
692.8	77.29
693.0	76.87
693.2	76.35
693.4	75.24
693.6	74.56
693.8	73.61
694.0	73.22
694.2	73.13
694.4	73.28
694.6	72.61
694.8	72.24
695.0	71.69
695.2	70.73
695.4	70.14
695.6	69.30
695.8	68.33
696.0	68.11
696.2	67.54
696.4	66.95
696.6	66.27
696.8	65.92
697.0	65.61
697.2	65.33
697.4	65.39
697.6	64.96
697.8	64.67
698.0	64.71
698.2	64.14
698.4	63.59
698.6	63.64
698.8	63.23
699.0	62.89
699.2	62.59
699.4	61.52
699.6	60.74
699.8	59.96
700.0	59.48
700.2	59.14
700.4	59.78
700.6	59.83
700.8	59.90
701.0	59.26
701.2	58.27
701.4	56.91
701.6	56.52
701.8	56.09
702.0	55.75
702.2	55.08
702.4	54.84
702.6	54.65
702.8	54.69
703.0	54.31
703.2	54.09
703.4	53.92
703.6	53.85
703.8	53.92
704.0	53.49
704.2	52.67
704.4	52.05
704.6	51.72
704.8	51.05
705.0	50.77
705.2	50.48
705.4	50.17
705.6	49.76
705.8	49.64
706.0	49.16
706.2	48.98
706.4	48.83
706.6	48.42
706.8	48.55
707.0	48.63
707.2	48.16
707.4	47.84
707.6	47.34
707.8	46.54
708.0	46.77
708.2	46.53
708.4	46.04
708.6	45.53
708.8	45.05
709.0	44.68
709.2	44.96
709.4	44.95
709.6	44.89
709.8	44.03
710.0	43.64
710.2	43.20
710.4	42.88
710.6	42.42
710.8	42.14
711.0	41.55
711.2	41.31
711.4	40.98
711.6	40.84
711.8	40.63
712.0	40.67
712.2	40.50
712.4	39.79
712.6	39.12
712.8	38.73
713.0	38.70
713.2	38.78
713.4	38.65
713.6	38.37
713.8	38.05
714.0	37.80
714.2	37.52
714.4	37.28
714.6	37.14
714.8	36.68
715.0	36.29
715.2	35.95
715.4	35.66
715.6	35.62
715.8	35.61
716.0	35.08
716.2	34.68
716.4	34.41
716.6	34.44
716.8	34.39
717.0	34.09
717.2	33.64
717.4	33.14
717.6	32.66
717.8	32.40
718.0	32.38
718.2	32.52
718.4	32.13
718.6	31.72
718.8	31.24
719.0	30.90
719.2	30.80
719.4	30.87
719.6	30.85
719.8	30.88
720.0	31.01
720.2	30.97
720.4	29.97
720.6	29.37
720.8	29.44
721.0	29.25
721.2	29.35
721.4	28.93
721.6	27.97
721.8	27.69
722.0	27.63
722.2	27.56
722.4	27.52
