Sample:	'20211010A(EM)
File name:	G-CDs 5.FDS
Run date:	'19:00:48, 06/10/2023
Operator:	Administrator
Comment:	'

Instrument
Model:	F-4700 FL Spectrophotometer
Serial number:	2019-001
ROM Version:	5J24010 00

Instrument parameters
Measurement type:	Wavelength scan
Scan mode:	Emission
Data mode:	Fluorescence
EX WL:	400.0 nm
EM  Start WL:	420.0 nm
EM  End WL:	800.0 nm
Scan speed:	1200 nm/min
Delay:	0.0 s
EX Slit:	10.0 nm
EM Slit:	10.0 nm
PMT Voltage:	435 V
Response:	0.002 s
Corrected spectra:	Off
Shutter control:	On

Processing performed
Savitsky-Golay smoothed
Smoothing order:	3
Number of points:	7
Number of times:	1

Peak integration
Integration method:	Rectangular
Sensitivity:	1
Threshold:	1.000

Peaks
No.	Start(nm)	Apex(nm)	End(nm)	Height(Data)	Valley(nm)	Valley(Data)
1	420.0	542.4	782.0	3718	782.0	2.865

Data points
nm	Data
420.0	2.586
420.2	2.622
420.4	2.572
420.6	2.488
420.8	2.451
421.0	2.438
421.2	2.538
421.4	2.588
421.6	2.599
421.8	2.571
422.0	2.537
422.2	2.545
422.4	2.621
422.6	2.675
422.8	2.584
423.0	2.441
423.2	2.486
423.4	2.540
423.6	2.616
423.8	2.746
424.0	2.722
424.2	2.512
424.4	2.526
424.6	2.486
424.8	2.533
425.0	2.593
425.2	2.641
425.4	2.596
425.6	2.601
425.8	2.613
426.0	2.564
426.2	2.417
426.4	2.433
426.6	2.510
426.8	2.522
427.0	2.595
427.2	2.551
427.4	2.471
427.6	2.532
427.8	2.549
428.0	2.541
428.2	2.615
428.4	2.627
428.6	2.587
428.8	2.580
429.0	2.609
429.2	2.678
429.4	2.729
429.6	2.743
429.8	2.714
430.0	2.622
430.2	2.674
430.4	2.566
430.6	2.559
430.8	2.646
431.0	2.761
431.2	2.802
431.4	2.932
431.6	2.836
431.8	2.819
432.0	2.839
432.2	2.762
432.4	2.640
432.6	2.601
432.8	2.566
433.0	2.579
433.2	2.743
433.4	2.806
433.6	2.864
433.8	2.908
434.0	2.933
434.2	2.939
434.4	3.037
434.6	3.014
434.8	2.952
435.0	2.980
435.2	2.962
435.4	3.166
435.6	3.238
435.8	3.226
436.0	3.179
436.2	3.254
436.4	3.170
436.6	3.253
436.8	3.125
437.0	3.144
437.2	3.233
437.4	3.318
437.6	3.387
437.8	3.423
438.0	3.505
438.2	3.601
438.4	3.710
438.6	3.686
438.8	3.655
439.0	3.539
439.2	3.536
439.4	3.619
439.6	3.695
439.8	3.772
440.0	3.817
440.2	3.813
440.4	3.890
440.6	3.964
440.8	3.928
441.0	3.971
441.2	3.921
441.4	3.979
441.6	4.163
441.8	4.229
442.0	4.267
442.2	4.333
442.4	4.270
442.6	4.239
442.8	4.355
443.0	4.417
443.2	4.532
443.4	4.705
443.6	4.689
443.8	4.648
444.0	4.680
444.2	4.647
444.4	4.778
444.6	4.877
444.8	4.952
445.0	5.075
445.2	5.064
445.4	5.005
445.6	4.908
445.8	4.784
446.0	4.801
446.2	4.874
446.4	4.876
446.6	5.038
446.8	5.134
447.0	5.319
447.2	5.405
447.4	5.418
447.6	5.282
447.8	5.212
448.0	5.155
448.2	5.316
448.4	5.359
448.6	5.472
448.8	5.462
449.0	5.493
449.2	5.456
449.4	5.570
449.6	5.633
449.8	5.692
450.0	5.870
450.2	6.031
450.4	5.864
450.6	5.744
450.8	5.628
451.0	5.639
451.2	6.012
451.4	6.106
451.6	6.087
451.8	5.992
452.0	5.796
452.2	5.938
452.4	6.172
452.6	6.140
452.8	6.142
453.0	6.017
453.2	5.839
453.4	5.930
453.6	6.025
453.8	5.991
454.0	6.040
454.2	6.090
454.4	6.067
454.6	6.229
454.8	6.381
455.0	6.205
455.2	6.230
455.4	6.284
455.6	6.212
455.8	6.355
456.0	6.512
456.2	6.447
456.4	6.581
456.6	6.632
456.8	6.545
457.0	6.470
457.2	6.397
457.4	6.508
457.6	6.706
457.8	6.737
458.0	6.790
458.2	6.832
458.4	6.747
458.6	6.825
458.8	6.820
459.0	6.761
459.2	6.915
459.4	7.064
459.6	7.092
459.8	7.139
460.0	7.352
460.2	7.408
460.4	7.718
460.6	7.976
460.8	8.072
461.0	8.020
461.2	8.138
461.4	8.093
461.6	8.265
461.8	8.457
462.0	8.556
462.2	8.624
462.4	8.854
462.6	9.045
462.8	9.261
463.0	9.411
463.2	9.681
463.4	9.824
463.6	10.25
463.8	10.35
464.0	10.54
464.2	10.66
464.4	10.89
464.6	11.20
464.8	11.81
465.0	12.13
465.2	12.51
465.4	12.59
465.6	12.60
465.8	12.78
466.0	13.03
466.2	13.21
466.4	13.75
466.6	14.19
466.8	14.66
467.0	15.05
467.2	15.23
467.4	15.67
467.6	16.20
467.8	16.85
468.0	17.28
468.2	17.40
468.4	17.75
468.6	18.35
468.8	18.97
469.0	19.85
469.2	20.13
469.4	20.58
469.6	21.32
469.8	21.95
470.0	22.56
470.2	23.42
470.4	23.68
470.6	24.57
470.8	25.41
471.0	26.15
471.2	26.77
471.4	27.50
471.6	28.32
471.8	29.55
472.0	30.43
472.2	31.48
472.4	32.52
472.6	33.16
472.8	34.22
473.0	34.82
473.2	35.51
473.4	36.34
473.6	37.09
473.8	37.96
474.0	39.15
474.2	39.95
474.4	41.46
474.6	42.50
474.8	43.67
475.0	45.06
475.2	46.36
475.4	47.48
475.6	48.83
475.8	50.12
476.0	51.90
476.2	53.42
476.4	54.73
476.6	55.75
476.8	56.62
477.0	58.03
477.2	59.89
477.4	61.71
477.6	63.21
477.8	64.49
478.0	65.65
478.2	66.47
478.4	68.09
478.6	70.08
478.8	71.94
479.0	74.06
479.2	75.90
479.4	76.97
479.6	78.70
479.8	80.72
480.0	82.84
480.2	85.44
480.4	87.73
480.6	89.99
480.8	91.74
481.0	93.68
481.2	95.05
481.4	96.97
481.6	99.23
481.8	102.3
482.0	105.0
482.2	107.4
482.4	109.4
482.6	111.8
482.8	114.2
483.0	117.4
483.2	120.0
483.4	122.3
483.6	125.3
483.8	128.6
484.0	131.2
484.2	133.5
484.4	135.5
484.6	137.9
484.8	141.3
485.0	145.6
485.2	149.3
485.4	152.1
485.6	155.4
485.8	158.5
486.0	163.2
486.2	168.2
486.4	172.4
486.6	175.7
486.8	177.9
487.0	180.8
487.2	184.3
487.4	188.1
487.6	192.5
487.8	197.3
488.0	201.4
488.2	207.2
488.4	211.6
488.6	216.1
488.8	220.0
489.0	224.9
489.2	230.3
489.4	236.0
489.6	242.0
489.8	246.7
490.0	251.0
490.2	256.3
490.4	261.9
490.6	267.9
490.8	274.4
491.0	281.0
491.2	286.6
491.4	293.9
491.6	299.4
491.8	304.8
492.0	311.4
492.2	319.2
492.4	326.2
492.6	333.3
492.8	338.7
493.0	345.7
493.2	353.4
493.4	361.3
493.6	370.5
493.8	378.1
494.0	386.4
494.2	395.7
494.4	403.1
494.6	410.0
494.8	418.5
495.0	428.7
495.2	439.5
495.4	451.7
495.6	461.6
495.8	470.0
496.0	479.0
496.2	489.3
496.4	497.9
496.6	508.1
496.8	517.6
497.0	528.1
497.2	538.4
497.4	548.2
497.6	557.7
497.8	569.6
498.0	581.4
498.2	594.1
498.4	604.3
498.6	615.3
498.8	627.2
499.0	640.8
499.2	654.5
499.4	668.5
499.6	682.5
499.8	698.0
500.0	711.7
500.2	724.5
500.4	736.8
500.6	749.6
500.8	763.7
501.0	779.4
501.2	793.7
501.4	809.3
501.6	823.8
501.8	839.0
502.0	853.1
502.2	869.1
502.4	884.3
502.6	900.0
502.8	915.4
503.0	931.7
503.2	947.3
503.4	963.4
503.6	979.2
503.8	995.0
504.0	1013
504.2	1032
504.4	1049
504.6	1067
504.8	1085
505.0	1104
505.2	1122
505.4	1140
505.6	1156
505.8	1175
506.0	1194
506.2	1216
506.4	1235
506.6	1255
506.8	1271
507.0	1288
507.2	1305
507.4	1325
507.6	1347
507.8	1367
508.0	1384
508.2	1402
508.4	1422
508.6	1441
508.8	1464
509.0	1483
509.2	1501
509.4	1519
509.6	1540
509.8	1560
510.0	1582
510.2	1606
510.4	1627
510.6	1648
510.8	1665
511.0	1684
511.2	1703
511.4	1724
511.6	1746
511.8	1769
512.0	1788
512.2	1809
512.4	1828
512.6	1847
512.8	1867
513.0	1884
513.2	1905
513.4	1926
513.6	1949
513.8	1974
514.0	1998
514.2	2022
514.4	2044
514.6	2069
514.8	2089
515.0	2107
515.2	2122
515.4	2142
515.6	2164
515.8	2192
516.0	2218
516.2	2238
516.4	2253
516.6	2268
516.8	2286
517.0	2308
517.2	2332
517.4	2355
517.6	2380
517.8	2400
518.0	2420
518.2	2439
518.4	2453
518.6	2472
518.8	2498
519.0	2518
519.2	2535
519.4	2554
519.6	2569
519.8	2590
520.0	2614
520.2	2637
520.4	2654
520.6	2673
520.8	2690
521.0	2706
521.2	2721
521.4	2744
521.6	2762
521.8	2784
522.0	2803
522.2	2822
522.4	2836
522.6	2857
522.8	2872
523.0	2887
523.2	2903
523.4	2921
523.6	2939
523.8	2961
524.0	2977
524.2	2991
524.4	3008
524.6	3023
524.8	3040
525.0	3058
525.2	3073
525.4	3088
525.6	3102
525.8	3117
526.0	3134
526.2	3150
526.4	3168
526.6	3182
526.8	3195
527.0	3206
527.2	3217
527.4	3230
527.6	3245
527.8	3256
528.0	3268
528.2	3281
528.4	3294
528.6	3308
528.8	3321
529.0	3333
529.2	3343
529.4	3355
529.6	3365
529.8	3378
530.0	3396
530.2	3413
530.4	3424
530.6	3431
530.8	3436
531.0	3445
531.2	3457
531.4	3468
531.6	3476
531.8	3487
532.0	3496
532.2	3509
532.4	3517
532.6	3523
532.8	3528
533.0	3535
533.2	3542
533.4	3554
533.6	3564
533.8	3569
534.0	3576
534.2	3584
534.4	3592
534.6	3594
534.8	3603
535.0	3604
535.2	3609
535.4	3624
535.6	3635
535.8	3640
536.0	3648
536.2	3648
536.4	3651
536.6	3659
536.8	3668
537.0	3671
537.2	3668
537.4	3668
537.6	3673
537.8	3676
538.0	3683
538.2	3687
538.4	3688
538.6	3694
538.8	3698
539.0	3700
539.2	3699
539.4	3697
539.6	3697
539.8	3701
540.0	3703
540.2	3709
540.4	3712
540.6	3709
540.8	3709
541.0	3711
541.2	3711
541.4	3712
541.6	3716
541.8	3713
542.0	3715
542.2	3715
542.4	3718
542.6	3716
542.8	3711
543.0	3704
543.2	3705
543.4	3703
543.6	3707
543.8	3708
544.0	3702
544.2	3701
544.4	3702
544.6	3700
544.8	3702
545.0	3697
545.2	3692
545.4	3686
545.6	3682
545.8	3679
546.0	3680
546.2	3675
546.4	3666
546.6	3658
546.8	3657
547.0	3656
547.2	3658
547.4	3655
547.6	3646
547.8	3639
548.0	3635
548.2	3628
548.4	3620
548.6	3615
548.8	3613
549.0	3611
549.2	3612
549.4	3608
549.6	3598
549.8	3588
550.0	3581
550.2	3576
550.4	3576
550.6	3570
550.8	3562
551.0	3550
551.2	3542
551.4	3538
551.6	3535
551.8	3532
552.0	3529
552.2	3525
552.4	3516
552.6	3512
552.8	3500
553.0	3491
553.2	3482
553.4	3477
553.6	3471
553.8	3467
554.0	3458
554.2	3451
554.4	3443
554.6	3435
554.8	3429
555.0	3418
555.2	3406
555.4	3403
555.6	3395
555.8	3390
556.0	3381
556.2	3369
556.4	3356
556.6	3351
556.8	3346
557.0	3339
557.2	3333
557.4	3327
557.6	3317
557.8	3307
558.0	3300
558.2	3290
558.4	3281
558.6	3271
558.8	3259
559.0	3246
559.2	3239
559.4	3230
559.6	3223
559.8	3216
560.0	3207
560.2	3198
560.4	3188
560.6	3176
560.8	3169
561.0	3163
561.2	3158
561.4	3145
561.6	3130
561.8	3118
562.0	3110
562.2	3101
562.4	3094
562.6	3082
562.8	3073
563.0	3067
563.2	3059
563.4	3046
563.6	3035
563.8	3022
564.0	3014
564.2	3009
564.4	3000
564.6	2987
564.8	2977
565.0	2965
565.2	2955
565.4	2945
565.6	2932
565.8	2921
566.0	2913
566.2	2905
566.4	2898
566.6	2889
566.8	2881
567.0	2870
567.2	2858
567.4	2843
567.6	2832
567.8	2821
568.0	2815
568.2	2806
568.4	2798
568.6	2788
568.8	2782
569.0	2770
569.2	2759
569.4	2749
569.6	2736
569.8	2727
570.0	2716
570.2	2704
570.4	2695
570.6	2687
570.8	2678
571.0	2667
571.2	2655
571.4	2642
571.6	2633
571.8	2624
572.0	2614
572.2	2601
572.4	2592
572.6	2581
572.8	2572
573.0	2559
573.2	2546
573.4	2536
573.6	2529
573.8	2519
574.0	2510
574.2	2500
574.4	2492
574.6	2486
574.8	2475
575.0	2461
575.2	2448
575.4	2439
575.6	2427
575.8	2418
576.0	2408
576.2	2396
576.4	2390
576.6	2383
576.8	2372
577.0	2362
577.2	2350
577.4	2339
577.6	2331
577.8	2320
578.0	2309
578.2	2299
578.4	2288
578.6	2279
578.8	2270
579.0	2261
579.2	2250
579.4	2242
579.6	2234
579.8	2225
580.0	2213
580.2	2201
580.4	2190
580.6	2184
580.8	2177
581.0	2167
581.2	2159
581.4	2151
581.6	2140
581.8	2133
582.0	2122
582.2	2110
582.4	2102
582.6	2094
582.8	2084
583.0	2077
583.2	2067
583.4	2056
583.6	2045
583.8	2035
584.0	2026
584.2	2018
584.4	2008
584.6	1996
584.8	1984
585.0	1976
585.2	1965
585.4	1957
585.6	1947
585.8	1938
586.0	1931
586.2	1925
586.4	1915
586.6	1909
586.8	1901
587.0	1894
587.2	1883
587.4	1872
587.6	1860
587.8	1852
588.0	1847
588.2	1842
588.4	1832
588.6	1824
588.8	1814
589.0	1805
589.2	1798
589.4	1789
589.6	1779
589.8	1769
590.0	1759
590.2	1750
590.4	1744
590.6	1737
590.8	1727
591.0	1716
591.2	1709
591.4	1700
591.6	1696
591.8	1687
592.0	1677
592.2	1666
592.4	1658
592.6	1652
592.8	1647
593.0	1640
593.2	1632
593.4	1623
593.6	1617
593.8	1610
594.0	1603
594.2	1595
594.4	1586
594.6	1580
594.8	1573
595.0	1566
595.2	1556
595.4	1549
595.6	1540
595.8	1531
596.0	1521
596.2	1515
596.4	1509
596.6	1506
596.8	1499
597.0	1491
597.2	1478
597.4	1468
597.6	1459
597.8	1453
598.0	1446
598.2	1439
598.4	1430
598.6	1423
598.8	1417
599.0	1411
599.2	1405
599.4	1397
599.6	1390
599.8	1380
600.0	1373
600.2	1366
600.4	1360
600.6	1355
600.8	1351
601.0	1343
601.2	1333
601.4	1326
601.6	1320
601.8	1314
602.0	1305
602.2	1298
602.4	1288
602.6	1283
602.8	1278
603.0	1269
603.2	1260
603.4	1255
603.6	1248
603.8	1245
604.0	1240
604.2	1232
604.4	1223
604.6	1216
604.8	1210
605.0	1204
605.2	1199
605.4	1194
605.6	1188
605.8	1180
606.0	1174
606.2	1167
606.4	1159
606.6	1154
606.8	1150
607.0	1144
607.2	1138
607.4	1131
607.6	1120
607.8	1114
608.0	1109
608.2	1104
608.4	1098
608.6	1090
608.8	1082
609.0	1077
609.2	1072
609.4	1067
609.6	1062
609.8	1056
610.0	1050
610.2	1043
610.4	1038
610.6	1032
610.8	1026
611.0	1021
611.2	1014
611.4	1007
611.6	1001
611.8	996.6
612.0	991.5
612.2	985.4
612.4	978.6
612.6	971.2
612.8	966.9
613.0	961.3
613.2	956.2
613.4	950.3
613.6	943.5
613.8	937.3
614.0	932.4
614.2	924.8
614.4	921.2
614.6	916.4
614.8	911.0
615.0	905.5
615.2	901.0
615.4	893.8
615.6	888.6
615.8	883.6
616.0	876.0
616.2	868.5
616.4	864.3
616.6	859.2
616.8	854.7
617.0	852.4
617.2	849.2
617.4	844.4
617.6	840.3
617.8	833.7
618.0	824.4
618.2	818.9
618.4	813.3
618.6	807.7
618.8	805.4
619.0	802.1
619.2	797.8
619.4	794.0
619.6	788.2
619.8	782.3
620.0	778.0
620.2	773.6
620.4	768.6
620.6	762.6
620.8	757.1
621.0	752.2
621.2	748.6
621.4	743.8
621.6	739.2
621.8	733.5
622.0	729.1
622.2	724.9
622.4	720.9
622.6	716.7
622.8	710.3
623.0	705.1
623.2	701.6
623.4	697.4
623.6	695.9
623.8	692.1
624.0	686.3
624.2	681.6
624.4	675.4
624.6	670.5
624.8	667.3
625.0	661.3
625.2	658.5
625.4	654.0
625.6	649.5
625.8	646.5
626.0	640.4
626.2	634.8
626.4	629.5
626.6	624.6
626.8	621.9
627.0	620.3
627.2	616.4
627.4	613.5
627.6	609.5
627.8	606.1
628.0	602.7
628.2	598.6
628.4	592.6
628.6	588.4
628.8	584.0
629.0	580.3
629.2	577.5
629.4	574.6
629.6	570.1
629.8	567.0
630.0	562.8
630.2	558.6
630.4	554.4
630.6	550.0
630.8	545.6
631.0	540.8
631.2	536.8
631.4	532.2
631.6	530.6
631.8	529.5
632.0	527.4
632.2	523.3
632.4	518.2
632.6	513.8
632.8	511.0
633.0	509.4
633.2	507.0
633.4	504.1
633.6	500.8
633.8	497.8
634.0	493.4
634.2	488.8
634.4	484.9
634.6	481.2
634.8	479.3
635.0	476.3
635.2	473.8
635.4	470.0
635.6	467.0
635.8	463.7
636.0	461.5
636.2	458.5
636.4	456.2
636.6	454.2
636.8	451.0
637.0	447.8
637.2	444.0
637.4	440.1
637.6	437.4
637.8	434.9
638.0	430.5
638.2	427.0
638.4	423.6
638.6	421.1
638.8	419.8
639.0	418.1
639.2	414.6
639.4	411.8
639.6	410.0
639.8	407.1
640.0	404.4
640.2	401.9
640.4	397.9
640.6	393.8
640.8	390.1
641.0	386.6
641.2	384.5
641.4	382.6
641.6	379.9
641.8	376.5
642.0	372.8
642.2	370.3
642.4	369.2
642.6	367.7
642.8	366.2
643.0	364.2
643.2	361.9
643.4	359.2
643.6	357.2
643.8	354.5
644.0	353.3
644.2	350.4
644.4	346.9
644.6	344.8
644.8	342.5
645.0	341.5
645.2	340.1
645.4	336.9
645.6	332.5
645.8	330.0
646.0	327.2
646.2	327.0
646.4	325.0
646.6	323.7
646.8	320.7
647.0	317.8
647.2	316.0
647.4	312.6
647.6	309.1
647.8	308.1
648.0	306.2
648.2	304.2
648.4	303.8
648.6	301.2
648.8	298.4
649.0	296.5
649.2	294.1
649.4	291.6
649.6	289.8
649.8	288.5
650.0	287.2
650.2	286.1
650.4	283.9
650.6	281.9
650.8	279.5
651.0	276.7
651.2	273.5
651.4	271.2
651.6	268.7
651.8	267.2
652.0	265.6
652.2	264.0
652.4	262.8
652.6	261.3
652.8	259.8
653.0	257.9
653.2	255.7
653.4	253.3
653.6	250.9
653.8	248.7
654.0	246.4
654.2	244.3
654.4	243.7
654.6	242.5
654.8	241.0
655.0	239.3
655.2	238.1
655.4	236.0
655.6	233.9
655.8	231.7
656.0	229.9
656.2	227.7
656.4	226.7
656.6	225.4
656.8	224.8
657.0	223.2
657.2	222.3
657.4	220.2
657.6	217.8
657.8	216.6
658.0	216.1
658.2	215.2
658.4	214.3
658.6	213.2
658.8	212.2
659.0	210.1
659.2	207.6
659.4	205.8
659.6	203.1
659.8	202.1
660.0	201.6
660.2	199.3
660.4	197.7
660.6	195.9
660.8	194.7
661.0	193.5
661.2	193.0
661.4	191.5
661.6	190.5
661.8	188.5
662.0	187.6
662.2	185.3
662.4	184.2
662.6	182.3
662.8	181.4
663.0	179.8
663.2	178.5
663.4	177.3
663.6	176.3
663.8	174.7
664.0	173.9
664.2	172.4
664.4	170.9
664.6	169.9
664.8	168.1
665.0	167.1
665.2	165.9
665.4	164.9
665.6	164.1
665.8	162.9
666.0	161.5
666.2	161.1
666.4	159.6
666.6	158.4
666.8	157.5
667.0	154.8
667.2	152.5
667.4	152.2
667.6	152.5
667.8	152.3
668.0	151.9
668.2	149.6
668.4	146.9
668.6	145.9
668.8	145.9
669.0	144.3
669.2	143.3
669.4	142.4
669.6	141.0
669.8	140.3
670.0	139.7
670.2	138.0
670.4	137.3
670.6	135.9
670.8	134.9
671.0	134.3
671.2	133.6
671.4	132.3
671.6	131.1
671.8	129.1
672.0	127.5
672.2	126.6
672.4	126.1
672.6	126.0
672.8	126.0
673.0	125.7
673.2	124.9
673.4	124.1
673.6	123.1
673.8	121.8
674.0	120.9
674.2	119.8
674.4	118.7
674.6	117.9
674.8	116.8
675.0	115.6
675.2	114.5
675.4	113.8
675.6	113.7
675.8	113.3
676.0	112.4
676.2	111.0
676.4	108.7
676.6	107.2
676.8	106.6
677.0	106.3
677.2	106.4
677.4	106.2
677.6	104.9
677.8	103.7
678.0	102.8
678.2	102.1
678.4	101.6
678.6	101.3
678.8	100.1
679.0	99.03
679.2	98.13
679.4	96.53
679.6	95.54
679.8	95.37
680.0	94.75
680.2	94.52
680.4	94.54
680.6	93.90
680.8	93.30
681.0	92.95
681.2	92.05
681.4	90.86
681.6	90.63
681.8	89.54
682.0	88.05
682.2	86.90
682.4	86.33
682.6	85.65
682.8	85.91
683.0	85.31
683.2	84.49
683.4	83.41
683.6	83.25
683.8	82.94
684.0	82.14
684.2	80.80
684.4	80.41
684.6	79.88
684.8	80.60
685.0	80.32
685.2	79.53
685.4	78.58
685.6	78.35
685.8	77.56
686.0	76.89
686.2	75.81
686.4	75.08
686.6	74.44
686.8	73.97
687.0	73.39
687.2	72.35
687.4	72.24
687.6	71.39
687.8	70.77
688.0	70.17
688.2	69.70
688.4	68.89
688.6	68.61
688.8	67.80
689.0	67.57
689.2	67.60
689.4	67.77
689.6	67.49
689.8	67.24
690.0	66.96
690.2	66.08
690.4	64.84
690.6	63.65
690.8	62.92
691.0	63.10
691.2	62.86
691.4	61.86
691.6	61.07
691.8	60.26
692.0	60.26
692.2	60.74
692.4	60.48
692.6	60.05
692.8	59.41
693.0	58.49
693.2	57.48
693.4	57.02
693.6	57.07
693.8	57.02
694.0	56.42
694.2	56.18
694.4	55.78
694.6	56.31
694.8	56.50
695.0	55.98
695.2	55.23
695.4	54.31
695.6	53.35
695.8	53.22
696.0	52.74
696.2	52.24
696.4	52.03
696.6	51.87
696.8	52.07
697.0	52.37
697.2	52.30
697.4	52.14
697.6	51.35
697.8	50.56
698.0	49.93
698.2	49.18
698.4	48.81
698.6	48.88
698.8	48.66
699.0	48.56
699.2	47.98
699.4	47.49
699.6	46.87
699.8	46.82
700.0	46.91
700.2	46.75
700.4	45.86
700.6	45.25
700.8	44.91
701.0	45.13
701.2	45.43
701.4	45.30
701.6	44.56
701.8	43.86
702.0	43.38
702.2	43.19
702.4	43.17
702.6	42.86
702.8	42.65
703.0	42.55
703.2	42.44
703.4	42.31
703.6	41.67
703.8	41.11
704.0	40.91
704.2	40.89
704.4	40.98
704.6	40.77
704.8	40.43
705.0	40.11
705.2	39.69
705.4	39.56
705.6	39.24
705.8	38.95
706.0	38.80
706.2	38.20
706.4	37.83
706.6	37.45
706.8	37.38
707.0	37.20
707.2	37.05
707.4	36.89
707.6	36.99
707.8	36.33
708.0	36.08
708.2	35.38
708.4	34.94
708.6	34.95
708.8	35.20
709.0	35.13
709.2	35.13
709.4	34.72
709.6	34.25
709.8	33.70
710.0	33.42
710.2	33.37
710.4	33.50
710.6	33.44
710.8	32.84
711.0	32.07
711.2	31.71
711.4	31.65
711.6	31.87
711.8	31.79
712.0	31.35
712.2	30.89
712.4	30.41
712.6	30.47
712.8	30.82
713.0	30.69
713.2	30.44
713.4	30.22
713.6	30.00
713.8	30.27
714.0	30.03
714.2	29.66
714.4	28.99
714.6	28.66
714.8	28.34
715.0	28.43
715.2	28.18
715.4	28.11
715.6	27.77
715.8	27.51
716.0	26.99
716.2	26.88
716.4	26.41
716.6	26.09
716.8	26.08
717.0	26.09
717.2	26.16
717.4	26.15
717.6	25.76
717.8	25.57
718.0	25.40
718.2	25.09
718.4	24.58
718.6	24.25
718.8	24.07
719.0	24.09
719.2	24.03
719.4	23.97
719.6	23.71
719.8	23.79
720.0	23.50
720.2	23.53
720.4	23.23
720.6	22.81
720.8	22.65
721.0	22.41
721.2	22.03
721.4	22.12
721.6	22.00
721.8	21.93
722.0	21.70
722.2	21.37
