Sample:	'20211010A(EM)
File name:	G-CDs 3 300.FDS
Run date:	'18:56:42, 06/10/2023
Operator:	Administrator
Comment:	'

Instrument
Model:	F-4700 FL Spectrophotometer
Serial number:	2019-001
ROM Version:	5J24010 00

Instrument parameters
Measurement type:	Wavelength scan
Scan mode:	Emission
Data mode:	Fluorescence
EX WL:	400.0 nm
EM  Start WL:	420.0 nm
EM  End WL:	800.0 nm
Scan speed:	1200 nm/min
Delay:	0.0 s
EX Slit:	10.0 nm
EM Slit:	10.0 nm
PMT Voltage:	435 V
Response:	0.002 s
Corrected spectra:	Off
Shutter control:	On

Processing performed
Savitsky-Golay smoothed
Smoothing order:	3
Number of points:	7
Number of times:	1

Peak integration
Integration method:	Rectangular
Sensitivity:	1
Threshold:	1.000

Peaks
No.	Start(nm)	Apex(nm)	End(nm)	Height(Data)	Valley(nm)	Valley(Data)
1	420.0	458.6	460.4	62.89	460.4	61.11
2	460.4	547.4	785.2	5940	785.2	5.251

Data points
nm	Data
420.0	15.44
420.2	15.51
420.4	15.61
420.6	15.70
420.8	15.77
421.0	15.52
421.2	15.54
421.4	15.58
421.6	15.72
421.8	15.68
422.0	15.63
422.2	15.48
422.4	15.30
422.6	15.16
422.8	15.36
423.0	15.55
423.2	15.60
423.4	15.62
423.6	15.39
423.8	15.40
424.0	15.57
424.2	15.56
424.4	15.42
424.6	15.59
424.8	15.52
425.0	15.85
425.2	15.84
425.4	15.82
425.6	15.72
425.8	16.00
426.0	16.28
426.2	16.65
426.4	16.52
426.6	16.51
426.8	16.11
427.0	16.17
427.2	16.22
427.4	16.51
427.6	16.59
427.8	16.67
428.0	16.47
428.2	16.40
428.4	16.17
428.6	16.26
428.8	16.42
429.0	16.51
429.2	16.53
429.4	16.69
429.6	16.75
429.8	16.88
430.0	17.01
430.2	16.74
430.4	16.55
430.6	16.65
430.8	16.67
431.0	16.64
431.2	16.92
431.4	17.12
431.6	17.37
431.8	17.66
432.0	17.76
432.2	17.60
432.4	17.54
432.6	17.61
432.8	17.46
433.0	17.55
433.2	18.01
433.4	18.46
433.6	18.67
433.8	19.07
434.0	18.83
434.2	18.64
434.4	18.91
434.6	19.13
434.8	19.28
435.0	19.55
435.2	19.48
435.4	19.50
435.6	19.65
435.8	19.69
436.0	20.06
436.2	20.34
436.4	20.90
436.6	21.22
436.8	21.14
437.0	21.06
437.2	21.10
437.4	21.29
437.6	21.94
437.8	22.37
438.0	22.71
438.2	23.06
438.4	23.07
438.6	23.34
438.8	23.69
439.0	23.90
439.2	24.15
439.4	24.62
439.6	24.69
439.8	25.02
440.0	25.57
440.2	25.95
440.4	26.47
440.6	26.88
440.8	27.23
441.0	27.79
441.2	28.39
441.4	29.09
441.6	29.49
441.8	29.68
442.0	30.21
442.2	30.31
442.4	30.43
442.6	30.85
442.8	31.42
443.0	32.07
443.2	33.01
443.4	33.37
443.6	33.85
443.8	34.31
444.0	34.90
444.2	35.25
444.4	35.75
444.6	36.18
444.8	36.84
445.0	37.47
445.2	38.22
445.4	38.67
445.6	39.41
445.8	40.28
446.0	40.53
446.2	41.01
446.4	41.54
446.6	42.08
446.8	42.98
447.0	43.88
447.2	44.08
447.4	44.51
447.6	44.80
447.8	45.41
448.0	45.91
448.2	46.71
448.4	47.36
448.6	47.92
448.8	48.07
449.0	48.30
449.2	48.70
449.4	49.27
449.6	49.90
449.8	50.21
450.0	50.15
450.2	50.32
450.4	50.89
450.6	51.38
450.8	52.18
451.0	53.16
451.2	53.94
451.4	54.90
451.6	55.47
451.8	55.60
452.0	55.32
452.2	55.47
452.4	55.35
452.6	55.89
452.8	56.46
453.0	57.20
453.2	57.09
453.4	57.29
453.6	57.26
453.8	57.43
454.0	57.72
454.2	58.21
454.4	58.33
454.6	59.18
454.8	59.57
455.0	59.44
455.2	59.87
455.4	59.95
455.6	60.05
455.8	60.52
456.0	60.56
456.2	60.61
456.4	61.32
456.6	61.36
456.8	61.17
457.0	60.92
457.2	61.06
457.4	61.27
457.6	61.45
457.8	61.25
458.0	61.38
458.2	61.32
458.4	62.37
458.6	62.89
458.8	62.85
459.0	62.51
459.2	62.23
459.4	62.05
459.6	62.42
459.8	62.39
460.0	62.03
460.2	61.52
460.4	61.11
460.6	61.78
460.8	62.26
461.0	62.91
461.2	63.08
461.4	62.99
461.6	62.82
461.8	63.07
462.0	63.12
462.2	63.57
462.4	63.49
462.6	63.79
462.8	64.01
463.0	63.94
463.2	63.93
463.4	64.73
463.6	64.82
463.8	65.41
464.0	66.26
464.2	66.60
464.4	66.56
464.6	67.31
464.8	67.23
465.0	67.38
465.2	67.83
465.4	68.20
465.6	68.13
465.8	68.45
466.0	69.05
466.2	69.75
466.4	70.37
466.6	70.96
466.8	71.49
467.0	71.38
467.2	72.25
467.4	73.05
467.6	73.86
467.8	74.87
468.0	75.68
468.2	76.41
468.4	77.76
468.6	79.08
468.8	80.25
469.0	81.17
469.2	81.39
469.4	82.42
469.6	83.41
469.8	84.61
470.0	86.22
470.2	87.81
470.4	89.04
470.6	91.33
470.8	92.82
471.0	93.75
471.2	95.44
471.4	96.64
471.6	97.28
471.8	99.08
472.0	100.9
472.2	102.9
472.4	104.7
472.6	106.5
472.8	108.3
473.0	110.4
473.2	112.8
473.4	114.8
473.6	116.0
473.8	117.5
474.0	119.3
474.2	121.5
474.4	124.3
474.6	126.8
474.8	129.1
475.0	132.0
475.2	133.8
475.4	136.9
475.6	139.8
475.8	142.3
476.0	144.6
476.2	146.6
476.4	148.7
476.6	151.7
476.8	154.8
477.0	158.4
477.2	161.9
477.4	164.3
477.6	168.0
477.8	169.9
478.0	172.4
478.2	176.4
478.4	179.9
478.6	183.7
478.8	187.4
479.0	190.1
479.2	193.8
479.4	198.9
479.6	203.5
479.8	207.2
480.0	210.6
480.2	213.1
480.4	215.5
480.6	219.2
480.8	223.3
481.0	226.8
481.2	231.1
481.4	235.1
481.6	239.1
481.8	244.2
482.0	248.5
482.2	252.7
482.4	256.5
482.6	261.1
482.8	265.7
483.0	270.2
483.2	273.9
483.4	278.4
483.6	283.6
483.8	289.4
484.0	294.8
484.2	300.0
484.4	304.7
484.6	310.0
484.8	315.3
485.0	320.8
485.2	324.7
485.4	328.6
485.6	333.6
485.8	339.4
486.0	344.5
486.2	350.5
486.4	354.6
486.6	359.2
486.8	367.2
487.0	375.3
487.2	381.8
487.4	389.0
487.6	394.6
487.8	399.3
488.0	405.3
488.2	411.3
488.4	417.4
488.6	425.6
488.8	433.1
489.0	442.0
489.2	449.8
489.4	456.0
489.6	461.9
489.8	468.4
490.0	474.0
490.2	483.7
490.4	491.3
490.6	498.6
490.8	505.3
491.0	513.0
491.2	520.6
491.4	529.0
491.6	538.2
491.8	547.7
492.0	556.8
492.2	567.4
492.4	577.1
492.6	585.2
492.8	595.5
493.0	604.8
493.2	614.4
493.4	626.0
493.6	635.5
493.8	642.8
494.0	650.2
494.2	659.9
494.4	671.0
494.6	683.9
494.8	696.1
495.0	707.4
495.2	718.4
495.4	730.8
495.6	743.8
495.8	755.1
496.0	767.0
496.2	778.7
496.4	791.6
496.6	805.5
496.8	819.2
497.0	833.0
497.2	847.4
497.4	859.3
497.6	871.7
497.8	886.0
498.0	898.9
498.2	913.9
498.4	929.1
498.6	945.0
498.8	960.8
499.0	977.4
499.2	994.3
499.4	1010
499.6	1024
499.8	1041
500.0	1056
500.2	1071
500.4	1089
500.6	1104
500.8	1122
501.0	1145
501.2	1163
501.4	1182
501.6	1198
501.8	1216
502.0	1234
502.2	1255
502.4	1275
502.6	1294
502.8	1311
503.0	1330
503.2	1352
503.4	1373
503.6	1393
503.8	1415
504.0	1435
504.2	1460
504.4	1483
504.6	1505
504.8	1524
505.0	1548
505.2	1569
505.4	1596
505.6	1619
505.8	1644
506.0	1666
506.2	1691
506.4	1716
506.6	1742
506.8	1762
507.0	1785
507.2	1805
507.4	1833
507.6	1858
507.8	1885
508.0	1908
508.2	1934
508.4	1958
508.6	1986
508.8	2013
509.0	2042
509.2	2068
509.4	2098
509.6	2125
509.8	2151
510.0	2178
510.2	2203
510.4	2225
510.6	2255
510.8	2280
511.0	2309
511.2	2339
511.4	2365
511.6	2388
511.8	2413
512.0	2436
512.2	2467
512.4	2500
512.6	2529
512.8	2556
513.0	2580
513.2	2604
513.4	2636
513.6	2662
513.8	2691
514.0	2727
514.2	2759
514.4	2789
514.6	2817
514.8	2842
515.0	2873
515.2	2908
515.4	2938
515.6	2965
515.8	2990
516.0	3020
516.2	3049
516.4	3076
516.6	3105
516.8	3135
517.0	3166
517.2	3200
517.4	3225
517.6	3248
517.8	3278
518.0	3308
518.2	3339
518.4	3367
518.6	3393
518.8	3421
519.0	3452
519.2	3484
519.4	3517
519.6	3542
519.8	3572
520.0	3601
520.2	3631
520.4	3662
520.6	3694
520.8	3719
521.0	3748
521.2	3778
521.4	3804
521.6	3830
521.8	3856
522.0	3880
522.2	3912
522.4	3946
522.6	3975
522.8	4004
523.0	4034
523.2	4056
523.4	4082
523.6	4108
523.8	4132
524.0	4154
524.2	4177
524.4	4199
524.6	4227
524.8	4254
525.0	4282
525.2	4306
525.4	4333
525.6	4360
525.8	4390
526.0	4416
526.2	4440
526.4	4463
526.6	4492
526.8	4516
527.0	4539
527.2	4565
527.4	4591
527.6	4617
527.8	4645
528.0	4669
528.2	4690
528.4	4707
528.6	4731
528.8	4753
529.0	4777
529.2	4799
529.4	4823
529.6	4842
529.8	4869
530.0	4892
530.2	4913
530.4	4934
530.6	4955
530.8	4974
531.0	4992
531.2	5010
531.4	5034
531.6	5057
531.8	5082
532.0	5103
532.2	5119
532.4	5139
532.6	5159
532.8	5177
533.0	5199
533.2	5216
533.4	5237
533.6	5258
533.8	5275
534.0	5297
534.2	5315
534.4	5330
534.6	5345
534.8	5359
535.0	5375
535.2	5394
535.4	5408
535.6	5425
535.8	5438
536.0	5449
536.2	5461
536.4	5471
536.6	5490
536.8	5512
537.0	5531
537.2	5545
537.4	5550
537.6	5560
537.8	5567
538.0	5579
538.2	5593
538.4	5602
538.6	5610
538.8	5625
539.0	5630
539.2	5648
539.4	5662
539.6	5674
539.8	5691
540.0	5706
540.2	5714
540.4	5726
540.6	5731
540.8	5742
541.0	5758
541.2	5770
541.4	5778
541.6	5786
541.8	5791
542.0	5797
542.2	5804
542.4	5817
542.6	5825
542.8	5830
543.0	5837
543.2	5844
543.4	5846
543.6	5853
543.8	5854
544.0	5858
544.2	5866
544.4	5876
544.6	5880
544.8	5885
545.0	5886
545.2	5891
545.4	5890
545.6	5894
545.8	5900
546.0	5908
546.2	5918
546.4	5923
546.6	5923
546.8	5929
547.0	5933
547.2	5938
547.4	5940
547.6	5939
547.8	5936
548.0	5935
548.2	5935
548.4	5938
548.6	5934
548.8	5937
549.0	5935
549.2	5933
549.4	5931
549.6	5929
549.8	5924
550.0	5925
550.2	5920
550.4	5919
550.6	5918
550.8	5918
551.0	5915
551.2	5917
551.4	5914
551.6	5915
551.8	5917
552.0	5913
552.2	5912
552.4	5904
552.6	5899
552.8	5897
553.0	5895
553.2	5892
553.4	5883
553.6	5866
553.8	5857
554.0	5855
554.2	5857
554.4	5860
554.6	5855
554.8	5846
555.0	5835
555.2	5831
555.4	5830
555.6	5828
555.8	5825
556.0	5817
556.2	5801
556.4	5790
556.6	5782
556.8	5778
557.0	5773
557.2	5766
557.4	5756
557.6	5746
557.8	5741
558.0	5735
558.2	5726
558.4	5713
558.6	5703
558.8	5691
559.0	5684
559.2	5678
559.4	5673
559.6	5663
559.8	5653
560.0	5647
560.2	5642
560.4	5640
560.6	5633
560.8	5619
561.0	5603
561.2	5588
561.4	5576
561.6	5556
561.8	5540
562.0	5527
562.2	5519
562.4	5515
562.6	5509
562.8	5494
563.0	5485
563.2	5474
563.4	5464
563.6	5448
563.8	5427
564.0	5406
564.2	5394
564.4	5389
564.6	5380
564.8	5371
565.0	5365
565.2	5355
565.4	5341
565.6	5327
565.8	5311
566.0	5299
566.2	5290
566.4	5285
566.6	5265
566.8	5249
567.0	5239
567.2	5227
567.4	5217
567.6	5205
567.8	5187
568.0	5170
568.2	5152
568.4	5139
568.6	5129
568.8	5112
569.0	5101
569.2	5085
569.4	5070
569.6	5057
569.8	5042
570.0	5022
570.2	5009
570.4	4991
570.6	4980
570.8	4963
571.0	4950
571.2	4937
571.4	4928
571.6	4918
571.8	4905
572.0	4880
572.2	4864
572.4	4846
572.6	4831
572.8	4827
573.0	4817
573.2	4803
573.4	4786
573.6	4766
573.8	4752
574.0	4736
574.2	4722
574.4	4707
574.6	4684
574.8	4662
575.0	4643
575.2	4622
575.4	4608
575.6	4595
575.8	4580
576.0	4568
576.2	4553
576.4	4541
576.6	4529
576.8	4514
577.0	4499
577.2	4487
577.4	4481
577.6	4467
577.8	4453
578.0	4428
578.2	4403
578.4	4386
578.6	4379
578.8	4368
579.0	4356
579.2	4335
579.4	4314
579.6	4299
579.8	4284
580.0	4268
580.2	4259
580.4	4248
580.6	4232
580.8	4213
581.0	4194
581.2	4172
581.4	4159
581.6	4149
581.8	4131
582.0	4108
582.2	4089
582.4	4071
582.6	4060
582.8	4053
583.0	4033
583.2	4016
583.4	4001
583.6	3989
583.8	3975
584.0	3962
584.2	3942
584.4	3926
584.6	3918
584.8	3909
585.0	3895
585.2	3879
585.4	3859
585.6	3840
585.8	3825
586.0	3812
586.2	3799
586.4	3782
586.6	3767
586.8	3752
587.0	3733
587.2	3716
587.4	3700
587.6	3682
587.8	3672
588.0	3661
588.2	3648
588.4	3631
588.6	3615
588.8	3596
589.0	3578
589.2	3563
589.4	3550
589.6	3538
589.8	3526
590.0	3515
590.2	3501
590.4	3488
590.6	3473
590.8	3458
591.0	3440
591.2	3421
591.4	3403
591.6	3388
591.8	3372
592.0	3361
592.2	3347
592.4	3331
592.6	3316
592.8	3304
593.0	3286
593.2	3277
593.4	3261
593.6	3245
593.8	3228
594.0	3214
594.2	3197
594.4	3190
594.6	3176
594.8	3163
595.0	3150
595.2	3135
595.4	3119
595.6	3106
595.8	3090
596.0	3080
596.2	3070
596.4	3061
596.6	3044
596.8	3029
597.0	3013
597.2	3004
597.4	2990
597.6	2981
597.8	2960
598.0	2944
598.2	2929
598.4	2917
598.6	2905
598.8	2890
599.0	2874
599.2	2861
599.4	2847
599.6	2838
599.8	2828
600.0	2814
600.2	2798
600.4	2782
600.6	2768
600.8	2753
601.0	2741
601.2	2728
601.4	2714
601.6	2703
601.8	2692
602.0	2677
602.2	2665
602.4	2651
602.6	2637
602.8	2631
603.0	2618
603.2	2605
603.4	2594
603.6	2579
603.8	2563
604.0	2548
604.2	2533
604.4	2522
604.6	2513
604.8	2506
605.0	2493
605.2	2477
605.4	2463
605.6	2452
605.8	2442
606.0	2432
606.2	2419
606.4	2405
606.6	2390
606.8	2375
607.0	2362
607.2	2350
607.4	2340
607.6	2329
607.8	2319
608.0	2307
608.2	2296
608.4	2284
608.6	2272
608.8	2263
609.0	2255
609.2	2244
609.4	2233
609.6	2218
609.8	2203
610.0	2192
610.2	2184
610.4	2172
610.6	2163
610.8	2150
611.0	2137
611.2	2126
611.4	2117
611.6	2104
611.8	2093
612.0	2077
612.2	2064
612.4	2059
612.6	2051
612.8	2040
613.0	2028
613.2	2010
613.4	1995
613.6	1984
613.8	1974
614.0	1963
614.2	1955
614.4	1944
614.6	1933
614.8	1920
615.0	1908
615.2	1898
615.4	1892
615.6	1884
615.8	1876
616.0	1864
616.2	1852
616.4	1841
616.6	1830
616.8	1821
617.0	1812
617.2	1803
617.4	1794
617.6	1781
617.8	1768
618.0	1759
618.2	1748
618.4	1737
618.6	1728
618.8	1719
619.0	1710
619.2	1703
619.4	1693
619.6	1679
619.8	1667
620.0	1657
620.2	1647
620.4	1638
620.6	1632
620.8	1621
621.0	1610
621.2	1599
621.4	1588
621.6	1580
621.8	1573
622.0	1566
622.2	1559
622.4	1549
622.6	1537
622.8	1527
623.0	1517
623.2	1509
623.4	1500
623.6	1489
623.8	1479
624.0	1471
624.2	1462
624.4	1453
624.6	1446
624.8	1439
625.0	1432
625.2	1423
625.4	1413
625.6	1401
625.8	1391
626.0	1384
626.2	1374
626.4	1366
626.6	1358
626.8	1348
627.0	1340
627.2	1331
627.4	1320
627.6	1311
627.8	1303
628.0	1295
628.2	1288
628.4	1283
628.6	1277
628.8	1270
629.0	1264
629.2	1254
629.4	1247
629.6	1239
629.8	1231
630.0	1222
630.2	1214
630.4	1203
630.6	1192
630.8	1183
631.0	1175
631.2	1170
631.4	1166
631.6	1160
631.8	1153
632.0	1147
632.2	1138
632.4	1129
632.6	1121
632.8	1116
633.0	1110
633.2	1104
633.4	1098
633.6	1091
633.8	1081
634.0	1073
634.2	1062
634.4	1056
634.6	1050
634.8	1046
635.0	1039
635.2	1034
635.4	1027
635.6	1021
635.8	1014
636.0	1009
636.2	1004
636.4	999.2
636.6	992.9
636.8	983.4
637.0	976.5
637.2	970.1
637.4	964.3
637.6	960.0
637.8	954.1
638.0	947.0
638.2	942.2
638.4	935.4
638.6	929.0
638.8	924.6
639.0	917.9
639.2	910.6
639.4	902.5
639.6	895.1
639.8	889.6
640.0	884.9
640.2	880.9
640.4	874.7
640.6	868.6
640.8	862.9
641.0	857.8
641.2	852.9
641.4	847.4
641.6	840.0
641.8	834.7
642.0	828.8
642.2	822.8
642.4	817.3
642.6	810.5
642.8	805.6
643.0	801.5
643.2	797.6
643.4	792.9
643.6	787.0
643.8	782.0
644.0	776.3
644.2	768.0
644.4	762.9
644.6	756.9
644.8	751.2
645.0	747.8
645.2	743.7
645.4	737.8
645.6	733.0
645.8	727.2
646.0	723.6
646.2	719.4
646.4	716.6
646.6	712.0
646.8	705.3
647.0	698.2
647.2	693.7
647.4	689.2
647.6	685.4
647.8	681.9
648.0	676.8
648.2	671.8
648.4	667.6
648.6	663.6
648.8	659.5
649.0	655.8
649.2	650.8
649.4	646.4
649.6	641.7
649.8	636.6
650.0	631.5
650.2	626.8
650.4	624.8
650.6	622.0
650.8	618.4
651.0	612.5
651.2	607.0
651.4	601.7
651.6	599.7
651.8	595.6
652.0	591.9
652.2	587.6
652.4	583.5
652.6	578.9
652.8	575.5
653.0	570.0
653.2	565.7
653.4	561.9
653.6	557.6
653.8	554.2
654.0	550.1
654.2	545.4
654.4	541.4
654.6	538.2
654.8	534.3
655.0	531.8
655.2	527.7
655.4	524.1
655.6	521.2
655.8	517.5
656.0	513.1
656.2	510.5
656.4	505.9
656.6	502.5
656.8	499.6
657.0	496.2
657.2	493.3
657.4	491.7
657.6	488.6
657.8	484.2
658.0	479.2
658.2	474.4
658.4	470.2
658.6	468.3
658.8	466.4
659.0	462.4
659.2	459.8
659.4	455.2
659.6	452.4
659.8	450.5
660.0	448.3
660.2	445.4
660.4	442.3
660.6	436.6
660.8	433.4
661.0	429.4
661.2	426.9
661.4	425.6
661.6	423.3
661.8	420.2
662.0	416.1
662.2	411.6
662.4	407.9
662.6	405.3
662.8	404.7
663.0	404.3
663.2	401.3
663.4	397.8
663.6	394.3
663.8	390.9
664.0	388.3
664.2	385.3
664.4	381.4
664.6	377.7
664.8	375.5
665.0	373.9
665.2	372.6
665.4	370.9
665.6	368.3
665.8	364.1
666.0	359.3
666.2	354.9
666.4	352.9
666.6	351.3
666.8	351.2
667.0	348.4
667.2	345.4
667.4	341.6
667.6	339.2
667.8	335.5
668.0	334.5
668.2	332.6
668.4	330.9
668.6	328.5
668.8	326.3
669.0	323.4
669.2	320.9
669.4	318.9
669.6	316.5
669.8	314.7
670.0	312.2
670.2	310.4
670.4	306.5
670.6	304.2
670.8	301.2
671.0	299.3
671.2	296.3
671.4	294.4
671.6	292.2
671.8	292.1
672.0	289.9
672.2	287.4
672.4	284.6
672.6	282.1
672.8	279.8
673.0	278.9
673.2	276.8
673.4	274.7
673.6	273.8
673.8	272.2
674.0	270.6
674.2	268.7
674.4	266.2
674.6	263.5
674.8	262.5
675.0	259.9
675.2	258.8
675.4	256.3
675.6	254.3
675.8	251.8
676.0	249.8
676.2	247.1
676.4	246.2
676.6	243.6
676.8	241.8
677.0	241.0
677.2	239.2
677.4	238.3
677.6	236.6
677.8	233.4
678.0	231.2
678.2	231.2
678.4	228.6
678.6	227.0
678.8	225.5
679.0	223.3
679.2	221.9
679.4	220.9
679.6	218.1
679.8	216.0
680.0	215.5
680.2	214.1
680.4	213.2
680.6	211.3
680.8	210.2
681.0	207.9
681.2	206.6
681.4	204.9
681.6	203.5
681.8	200.9
682.0	200.0
682.2	197.9
682.4	197.1
682.6	196.1
682.8	195.1
683.0	193.4
683.2	192.1
683.4	190.1
683.6	188.7
683.8	187.0
684.0	185.3
684.2	183.8
684.4	182.5
684.6	181.4
684.8	180.1
685.0	178.4
685.2	177.0
685.4	175.7
685.6	174.5
685.8	174.0
686.0	172.9
686.2	170.1
686.4	168.4
686.6	166.7
686.8	165.1
687.0	164.4
687.2	163.3
687.4	162.0
687.6	161.0
687.8	160.5
688.0	159.1
688.2	158.1
688.4	156.5
688.6	155.4
688.8	153.9
689.0	152.7
689.2	151.0
689.4	150.6
689.6	149.7
689.8	149.3
690.0	148.5
690.2	146.4
690.4	145.4
690.6	144.9
690.8	143.8
691.0	142.5
691.2	141.1
691.4	140.2
691.6	139.3
691.8	138.4
692.0	137.5
692.2	135.9
692.4	135.1
692.6	134.6
692.8	133.9
693.0	133.6
693.2	133.0
693.4	131.8
693.6	130.5
693.8	128.8
694.0	127.7
694.2	127.7
694.4	127.1
694.6	125.6
694.8	124.0
695.0	122.0
695.2	121.2
695.4	120.9
695.6	120.6
695.8	119.5
696.0	118.5
696.2	117.3
696.4	117.0
696.6	116.8
696.8	116.4
697.0	115.9
697.2	115.0
697.4	113.6
697.6	112.6
697.8	112.0
698.0	111.4
698.2	110.3
698.4	109.3
698.6	107.8
698.8	107.5
699.0	107.2
699.2	107.1
699.4	106.2
699.6	105.5
699.8	104.8
700.0	104.2
700.2	103.3
700.4	102.8
700.6	101.9
700.8	101.4
701.0	100.9
701.2	100.7
701.4	100.7
701.6	100.9
701.8	100.1
702.0	98.92
702.2	97.72
702.4	96.84
702.6	96.06
702.8	95.79
703.0	94.95
703.2	94.17
703.4	93.70
703.6	93.40
703.8	93.13
704.0	92.99
704.2	92.02
704.4	91.09
704.6	90.01
704.8	89.50
705.0	89.16
705.2	88.09
705.4	86.47
705.6	85.64
705.8	85.14
706.0	84.79
706.2	84.72
706.4	84.25
706.6	83.07
706.8	82.23
707.0	81.31
707.2	80.37
707.4	80.17
707.6	80.36
707.8	80.39
708.0	80.79
708.2	80.42
708.4	79.80
708.6	79.42
708.8	78.34
709.0	77.60
709.2	76.74
709.4	75.83
709.6	75.94
709.8	75.66
710.0	75.00
710.2	75.23
710.4	74.54
710.6	73.41
710.8	73.19
711.0	71.87
711.2	71.30
711.4	71.33
711.6	70.73
711.8	69.40
712.0	69.09
712.2	68.05
712.4	67.68
712.6	67.89
712.8	67.82
713.0	67.43
713.2	67.51
713.4	66.64
713.6	65.58
713.8	65.12
714.0	64.43
714.2	64.36
714.4	64.68
714.6	64.23
714.8	63.93
715.0	63.36
715.2	62.16
715.4	61.64
715.6	61.41
715.8	60.95
716.0	60.66
716.2	60.14
716.4	59.17
716.6	58.26
716.8	58.44
717.0	58.28
717.2	57.98
717.4	57.45
717.6	56.89
717.8	55.97
718.0	55.99
718.2	55.51
718.4	55.41
718.6	54.91
718.8	54.84
719.0	53.89
719.2	53.15
719.4	52.22
719.6	52.07
719.8	51.86
720.0	51.86
720.2	51.21
720.4	50.71
720.6	50.28
720.8	50.12
721.0	50.05
721.2	49.95
721.4	49.41
721.6	48.56
721.8	47.71
722.0	47.03
722.2	46.90
722.4	47.07
722.6	47.20
722.8	46.86
723.0	46.05
723.2	45.13
723.4	44.72
723.6	44.60
