Sample:	'20211010A(EM)
File name:	G-CDs 10 1000 1.FDS
Run date:	'21:07:48, 06/10/2023
Operator:	Administrator
Comment:	'

Instrument
Model:	F-4700 FL Spectrophotometer
Serial number:	2019-001
ROM Version:	5J24010 00

Instrument parameters
Measurement type:	Wavelength scan
Scan mode:	Emission
Data mode:	Fluorescence
EX WL:	400.0 nm
EM  Start WL:	420.0 nm
EM  End WL:	800.0 nm
Scan speed:	1200 nm/min
Delay:	0.0 s
EX Slit:	10.0 nm
EM Slit:	10.0 nm
PMT Voltage:	440 V
Response:	0.002 s
Corrected spectra:	Off
Shutter control:	On

Processing performed
Savitsky-Golay smoothed
Smoothing order:	3
Number of points:	7
Number of times:	1

Peak integration
Integration method:	Rectangular
Sensitivity:	1
Threshold:	1.000

Peaks
No.	Start(nm)	Apex(nm)	End(nm)	Height(Data)	Valley(nm)	Valley(Data)
1	420.0	560.4	784.8	3211	784.8	4.499

Data points
nm	Data
420.0	2.912
420.2	2.918
420.4	2.881
420.6	2.824
420.8	2.786
421.0	2.800
421.2	2.787
421.4	2.828
421.6	2.791
421.8	2.650
422.0	2.551
422.2	2.589
422.4	2.638
422.6	2.692
422.8	2.757
423.0	2.744
423.2	2.609
423.4	2.568
423.6	2.543
423.8	2.587
424.0	2.609
424.2	2.583
424.4	2.439
424.6	2.391
424.8	2.425
425.0	2.529
425.2	2.519
425.4	2.578
425.6	2.544
425.8	2.477
426.0	2.403
426.2	2.415
426.4	2.349
426.6	2.401
426.8	2.426
427.0	2.410
427.2	2.448
427.4	2.500
427.6	2.451
427.8	2.432
428.0	2.284
428.2	2.245
428.4	2.382
428.6	2.402
428.8	2.428
429.0	2.349
429.2	2.213
429.4	2.261
429.6	2.281
429.8	2.263
430.0	2.358
430.2	2.274
430.4	2.295
430.6	2.302
430.8	2.213
431.0	2.177
431.2	2.168
431.4	2.095
431.6	2.120
431.8	2.183
432.0	2.355
432.2	2.413
432.4	2.414
432.6	2.301
432.8	2.261
433.0	2.209
433.2	2.185
433.4	2.076
433.6	2.073
433.8	2.092
434.0	2.216
434.2	2.218
434.4	2.224
434.6	2.243
434.8	2.286
435.0	2.255
435.2	2.153
435.4	2.084
435.6	2.068
435.8	2.085
436.0	2.197
436.2	2.228
436.4	2.190
436.6	2.189
436.8	2.127
437.0	2.121
437.2	2.086
437.4	2.112
437.6	2.164
437.8	2.270
438.0	2.242
438.2	2.288
438.4	2.236
438.6	2.232
438.8	2.235
439.0	2.277
439.2	2.158
439.4	2.175
439.6	2.215
439.8	2.245
440.0	2.378
440.2	2.418
440.4	2.384
440.6	2.335
440.8	2.259
441.0	2.179
441.2	2.325
441.4	2.402
441.6	2.461
441.8	2.467
442.0	2.525
442.2	2.417
442.4	2.379
442.6	2.375
442.8	2.470
443.0	2.540
443.2	2.581
443.4	2.640
443.6	2.585
443.8	2.421
444.0	2.395
444.2	2.366
444.4	2.417
444.6	2.593
444.8	2.585
445.0	2.580
445.2	2.621
445.4	2.708
445.6	2.868
445.8	2.835
446.0	2.724
446.2	2.662
446.4	2.674
446.6	2.783
446.8	2.890
447.0	2.797
447.2	2.756
447.4	2.607
447.6	2.680
447.8	2.735
448.0	2.880
448.2	2.870
448.4	2.882
448.6	2.902
448.8	2.948
449.0	2.912
449.2	3.006
449.4	2.907
449.6	2.879
449.8	3.011
450.0	3.044
450.2	3.102
450.4	3.016
450.6	2.898
450.8	2.834
451.0	2.863
451.2	2.872
451.4	2.992
451.6	2.898
451.8	2.992
452.0	3.007
452.2	3.004
452.4	3.010
452.6	3.175
452.8	3.175
453.0	3.142
453.2	3.112
453.4	3.056
453.6	3.017
453.8	3.155
454.0	3.155
454.2	3.054
454.4	3.020
454.6	3.012
454.8	3.055
455.0	3.100
455.2	3.108
455.4	3.085
455.6	3.022
455.8	3.036
456.0	3.109
456.2	3.137
456.4	3.182
456.6	3.177
456.8	3.197
457.0	3.110
457.2	3.072
457.4	2.984
457.6	2.892
457.8	2.863
458.0	2.838
458.2	2.725
458.4	2.879
458.6	2.902
458.8	2.921
459.0	2.949
459.2	2.859
459.4	2.764
459.6	2.806
459.8	2.946
460.0	3.024
460.2	3.094
460.4	3.085
460.6	3.029
460.8	2.790
461.0	2.758
461.2	2.730
461.4	2.729
461.6	2.777
461.8	2.863
462.0	2.773
462.2	2.750
462.4	2.810
462.6	2.905
462.8	2.894
463.0	2.840
463.2	2.762
463.4	2.732
463.6	2.753
463.8	2.842
464.0	2.787
464.2	2.892
464.4	2.951
464.6	2.969
464.8	2.946
465.0	2.940
465.2	2.864
465.4	3.003
465.6	3.000
465.8	2.947
466.0	2.930
466.2	2.973
466.4	2.950
466.6	2.958
466.8	2.901
467.0	2.932
467.2	3.122
467.4	3.164
467.6	3.181
467.8	3.166
468.0	3.100
468.2	3.192
468.4	3.307
468.6	3.253
468.8	3.283
469.0	3.372
469.2	3.485
469.4	3.606
469.6	3.647
469.8	3.522
470.0	3.494
470.2	3.495
470.4	3.582
470.6	3.683
470.8	3.828
471.0	3.820
471.2	3.932
471.4	4.075
471.6	4.061
471.8	4.122
472.0	4.219
472.2	4.232
472.4	4.196
472.6	4.263
472.8	4.091
473.0	4.104
473.2	4.383
473.4	4.606
473.6	4.588
473.8	4.643
474.0	4.661
474.2	4.748
474.4	4.948
474.6	5.146
474.8	5.119
475.0	5.210
475.2	5.358
475.4	5.458
475.6	5.405
475.8	5.502
476.0	5.557
476.2	5.712
476.4	6.072
476.6	6.170
476.8	6.088
477.0	6.118
477.2	6.177
477.4	6.192
477.6	6.532
477.8	6.685
478.0	6.704
478.2	6.801
478.4	6.847
478.6	6.960
478.8	7.175
479.0	7.335
479.2	7.571
479.4	7.773
479.6	7.840
479.8	7.957
480.0	7.945
480.2	8.020
480.4	8.171
480.6	8.456
480.8	8.580
481.0	8.763
481.2	9.001
481.4	9.359
481.6	9.414
481.8	9.675
482.0	9.746
482.2	9.879
482.4	9.956
482.6	10.21
482.8	10.36
483.0	10.67
483.2	10.84
483.4	10.80
483.6	10.79
483.8	11.18
484.0	11.39
484.2	11.72
484.4	12.07
484.6	12.19
484.8	12.48
485.0	12.80
485.2	12.91
485.4	12.99
485.6	13.37
485.8	13.51
486.0	13.76
486.2	14.15
486.4	14.32
486.6	14.26
486.8	14.57
487.0	14.87
487.2	15.16
487.4	15.70
487.6	16.26
487.8	16.46
488.0	16.97
488.2	17.44
488.4	17.61
488.6	17.52
488.8	17.81
489.0	18.37
489.2	19.13
489.4	19.80
489.6	20.40
489.8	20.70
490.0	20.96
490.2	21.38
490.4	21.76
490.6	22.33
490.8	23.13
491.0	23.64
491.2	23.96
491.4	24.26
491.6	24.77
491.8	25.59
492.0	26.52
492.2	27.15
492.4	27.76
492.6	28.44
492.8	29.08
493.0	29.63
493.2	30.48
493.4	31.27
493.6	32.33
493.8	33.29
494.0	34.39
494.2	35.04
494.4	35.73
494.6	36.67
494.8	37.79
495.0	39.05
495.2	40.50
495.4	41.59
495.6	42.13
495.8	43.21
496.0	44.22
496.2	45.59
496.4	47.15
496.6	48.98
496.8	50.45
497.0	51.78
497.2	53.03
497.4	54.50
497.6	55.96
497.8	57.78
498.0	59.97
498.2	61.67
498.4	62.84
498.6	64.34
498.8	65.92
499.0	67.41
499.2	69.29
499.4	71.44
499.6	73.63
499.8	76.22
500.0	79.16
500.2	82.17
500.4	84.99
500.6	87.45
500.8	89.83
501.0	92.33
501.2	94.46
501.4	97.34
501.6	100.3
501.8	103.0
502.0	105.8
502.2	109.6
502.4	112.4
502.6	115.9
502.8	119.4
503.0	123.2
503.2	126.3
503.4	129.9
503.6	133.6
503.8	138.1
504.0	142.0
504.2	146.5
504.4	150.2
504.6	154.5
504.8	159.0
505.0	164.2
505.2	168.0
505.4	172.4
505.6	176.9
505.8	182.1
506.0	187.0
506.2	192.7
506.4	197.6
506.6	202.8
506.8	208.2
507.0	214.7
507.2	220.8
507.4	226.1
507.6	231.8
507.8	238.0
508.0	244.1
508.2	251.9
508.4	258.2
508.6	263.5
508.8	270.0
509.0	277.1
509.2	284.0
509.4	290.4
509.6	297.1
509.8	303.9
510.0	312.0
510.2	319.2
510.4	327.9
510.6	336.0
510.8	344.0
511.0	351.5
511.2	360.7
511.4	367.5
511.6	376.9
511.8	385.8
512.0	394.2
512.2	402.6
512.4	412.9
512.6	421.9
512.8	431.1
513.0	439.9
513.2	448.6
513.4	456.2
513.6	466.1
513.8	477.0
514.0	489.4
514.2	501.5
514.4	511.6
514.6	519.1
514.8	528.7
515.0	539.1
515.2	550.7
515.4	561.3
515.6	572.0
515.8	583.7
516.0	596.6
516.2	608.2
516.4	618.5
516.6	628.6
516.8	639.6
517.0	654.1
517.2	667.7
517.4	677.7
517.6	688.0
517.8	699.9
518.0	713.4
518.2	728.3
518.4	741.5
518.6	752.0
518.8	763.9
519.0	777.4
519.2	790.9
519.4	804.2
519.6	817.4
519.8	830.6
520.0	842.3
520.2	856.8
520.4	872.9
520.6	888.5
520.8	903.2
521.0	915.8
521.2	924.5
521.4	937.8
521.6	953.4
521.8	970.4
522.0	986.9
522.2	1001
522.4	1016
522.6	1030
522.8	1043
523.0	1061
523.2	1077
523.4	1092
523.6	1107
523.8	1120
524.0	1132
524.2	1150
524.4	1165
524.6	1181
524.8	1196
525.0	1212
525.2	1227
525.4	1245
525.6	1260
525.8	1277
526.0	1295
526.2	1311
526.4	1325
526.6	1341
526.8	1356
527.0	1376
527.2	1394
527.4	1411
527.6	1423
527.8	1437
528.0	1451
528.2	1467
528.4	1484
528.6	1505
528.8	1522
529.0	1536
529.2	1548
529.4	1564
529.6	1580
529.8	1602
530.0	1620
530.2	1636
530.4	1655
530.6	1674
530.8	1692
531.0	1712
531.2	1725
531.4	1739
531.6	1754
531.8	1772
532.0	1789
532.2	1808
532.4	1819
532.6	1836
532.8	1851
533.0	1870
533.2	1882
533.4	1903
533.6	1918
533.8	1936
534.0	1951
534.2	1966
534.4	1977
534.6	1998
534.8	2019
535.0	2037
535.2	2051
535.4	2066
535.6	2080
535.8	2098
536.0	2116
536.2	2135
536.4	2152
536.6	2171
536.8	2190
537.0	2202
537.2	2215
537.4	2226
537.6	2238
537.8	2254
538.0	2270
538.2	2286
538.4	2305
538.6	2320
538.8	2337
539.0	2353
539.2	2366
539.4	2384
539.6	2399
539.8	2415
540.0	2430
540.2	2439
540.4	2450
540.6	2463
540.8	2477
541.0	2496
541.2	2516
541.4	2533
541.6	2546
541.8	2560
542.0	2572
542.2	2586
542.4	2599
542.6	2617
542.8	2627
543.0	2638
543.2	2650
543.4	2662
543.6	2672
543.8	2690
544.0	2702
544.2	2710
544.4	2721
544.6	2734
544.8	2740
545.0	2751
545.2	2759
545.4	2770
545.6	2788
545.8	2807
546.0	2820
546.2	2832
546.4	2841
546.6	2849
546.8	2860
547.0	2870
547.2	2876
547.4	2886
547.6	2896
547.8	2906
548.0	2920
548.2	2931
548.4	2940
548.6	2948
548.8	2954
549.0	2964
549.2	2975
549.4	2983
549.6	2995
549.8	3002
550.0	3014
550.2	3024
550.4	3031
550.6	3035
550.8	3040
551.0	3047
551.2	3061
551.4	3070
551.6	3080
551.8	3081
552.0	3086
552.2	3088
552.4	3097
552.6	3106
552.8	3111
553.0	3114
553.2	3122
553.4	3124
553.6	3127
553.8	3132
554.0	3132
554.2	3137
554.4	3148
554.6	3155
554.8	3156
555.0	3161
555.2	3162
555.4	3164
555.6	3171
555.8	3178
556.0	3182
556.2	3187
556.4	3194
556.6	3197
556.8	3198
557.0	3197
557.2	3193
557.4	3190
557.6	3194
557.8	3196
558.0	3203
558.2	3205
558.4	3209
558.6	3207
558.8	3204
559.0	3202
559.2	3205
559.4	3208
559.6	3210
559.8	3206
560.0	3207
560.2	3209
560.4	3211
560.6	3210
560.8	3209
561.0	3206
561.2	3204
561.4	3206
561.6	3209
561.8	3208
562.0	3210
562.2	3209
562.4	3201
562.6	3198
562.8	3193
563.0	3192
563.2	3192
563.4	3189
563.6	3184
563.8	3178
564.0	3172
564.2	3169
564.4	3168
564.6	3166
564.8	3165
565.0	3165
565.2	3163
565.4	3159
565.6	3159
565.8	3156
566.0	3151
566.2	3147
566.4	3141
566.6	3138
566.8	3136
567.0	3132
567.2	3130
567.4	3126
567.6	3125
567.8	3124
568.0	3119
568.2	3110
568.4	3103
568.6	3098
568.8	3091
569.0	3088
569.2	3084
569.4	3075
569.6	3070
569.8	3068
570.0	3058
570.2	3052
570.4	3047
570.6	3042
570.8	3038
571.0	3036
571.2	3030
571.4	3027
571.6	3022
571.8	3017
572.0	3009
572.2	2997
572.4	2987
572.6	2983
572.8	2978
573.0	2971
573.2	2966
573.4	2953
573.6	2944
573.8	2940
574.0	2934
574.2	2928
574.4	2925
574.6	2920
574.8	2912
575.0	2903
575.2	2892
575.4	2885
575.6	2880
575.8	2874
576.0	2868
576.2	2861
576.4	2854
576.6	2848
576.8	2841
577.0	2829
577.2	2819
577.4	2808
577.6	2800
577.8	2794
578.0	2790
578.2	2785
578.4	2778
578.6	2770
578.8	2762
579.0	2752
579.2	2747
579.4	2738
579.6	2731
579.8	2723
580.0	2715
580.2	2707
580.4	2701
580.6	2691
580.8	2683
581.0	2674
581.2	2667
581.4	2659
581.6	2647
581.8	2636
582.0	2628
582.2	2619
582.4	2613
582.6	2607
582.8	2598
583.0	2589
583.2	2583
583.4	2574
583.6	2565
583.8	2557
584.0	2549
584.2	2543
584.4	2534
584.6	2526
584.8	2516
585.0	2507
585.2	2498
585.4	2491
585.6	2480
585.8	2473
586.0	2465
586.2	2458
586.4	2449
586.6	2442
586.8	2433
587.0	2429
587.2	2419
587.4	2411
587.6	2398
587.8	2388
588.0	2381
588.2	2378
588.4	2370
588.6	2365
588.8	2354
589.0	2339
589.2	2331
589.4	2325
589.6	2314
589.8	2310
590.0	2302
590.2	2291
590.4	2283
590.6	2274
590.8	2259
591.0	2253
591.2	2247
591.4	2239
591.6	2229
591.8	2222
592.0	2214
592.2	2209
592.4	2200
592.6	2192
592.8	2181
593.0	2173
593.2	2164
593.4	2155
593.6	2146
593.8	2141
594.0	2131
594.2	2123
594.4	2114
594.6	2106
594.8	2105
595.0	2101
595.2	2094
595.4	2085
595.6	2072
595.8	2060
596.0	2049
596.2	2038
596.4	2031
596.6	2022
596.8	2017
597.0	2012
597.2	2005
597.4	1994
597.6	1984
597.8	1975
598.0	1968
598.2	1961
598.4	1952
598.6	1944
598.8	1934
599.0	1927
599.2	1918
599.4	1911
599.6	1901
599.8	1894
600.0	1886
600.2	1879
600.4	1869
600.6	1861
600.8	1852
601.0	1844
601.2	1837
601.4	1833
601.6	1827
601.8	1821
602.0	1817
602.2	1808
602.4	1799
602.6	1789
602.8	1776
603.0	1764
603.2	1755
603.4	1747
603.6	1740
603.8	1735
604.0	1728
604.2	1719
604.4	1712
604.6	1707
604.8	1697
605.0	1689
605.2	1680
605.4	1674
605.6	1665
605.8	1659
606.0	1650
606.2	1645
606.4	1638
606.6	1629
606.8	1619
607.0	1609
607.2	1601
607.4	1597
607.6	1590
607.8	1578
608.0	1569
608.2	1561
608.4	1554
608.6	1551
608.8	1544
609.0	1537
609.2	1527
609.4	1517
609.6	1509
609.8	1503
610.0	1498
610.2	1488
610.4	1480
610.6	1473
610.8	1465
611.0	1460
611.2	1453
611.4	1444
611.6	1437
611.8	1431
612.0	1420
612.2	1412
612.4	1405
612.6	1399
612.8	1395
613.0	1389
613.2	1378
613.4	1367
613.6	1358
613.8	1352
614.0	1350
614.2	1345
614.4	1337
614.6	1330
614.8	1323
615.0	1319
615.2	1312
615.4	1304
615.6	1295
615.8	1289
616.0	1282
616.2	1274
616.4	1266
616.6	1261
616.8	1253
617.0	1248
617.2	1240
617.4	1232
617.6	1226
617.8	1221
618.0	1213
618.2	1204
618.4	1197
618.6	1188
618.8	1182
619.0	1177
619.2	1171
619.4	1161
619.6	1155
619.8	1150
620.0	1147
620.2	1144
620.4	1139
620.6	1130
620.8	1120
621.0	1114
621.2	1107
621.4	1101
621.6	1094
621.8	1087
622.0	1080
622.2	1077
622.4	1074
622.6	1067
622.8	1059
623.0	1053
623.2	1046
623.4	1042
623.6	1038
623.8	1031
624.0	1025
624.2	1019
624.4	1013
624.6	1008
624.8	1002
625.0	995.9
625.2	992.1
625.4	984.2
625.6	976.9
625.8	970.5
626.0	964.0
626.2	959.9
626.4	955.7
626.6	947.2
626.8	939.8
627.0	936.1
627.2	930.9
627.4	926.4
627.6	920.8
627.8	913.0
628.0	905.4
628.2	902.0
628.4	896.7
628.6	892.3
628.8	888.2
629.0	883.1
629.2	877.1
629.4	871.7
629.6	865.5
629.8	860.7
630.0	856.3
630.2	853.5
630.4	849.5
630.6	842.4
630.8	835.8
631.0	829.9
631.2	825.0
631.4	820.7
631.6	816.0
631.8	811.3
632.0	806.7
632.2	801.7
632.4	797.3
632.6	791.9
632.8	785.2
633.0	780.8
633.2	776.1
633.4	771.1
633.6	766.2
633.8	761.9
634.0	756.7
634.2	754.9
634.4	752.2
634.6	747.3
634.8	741.6
635.0	735.2
635.2	728.1
635.4	724.3
635.6	721.1
635.8	718.2
636.0	716.7
636.2	713.8
636.4	707.5
636.6	700.3
636.8	693.7
637.0	689.0
637.2	684.2
637.4	681.0
637.6	677.8
637.8	673.6
638.0	670.9
638.2	667.8
638.4	663.1
638.6	658.5
638.8	655.8
639.0	651.4
639.2	647.1
639.4	640.6
639.6	636.5
639.8	633.2
640.0	631.4
640.2	628.5
640.4	624.4
640.6	619.3
640.8	616.2
641.0	612.9
641.2	607.6
641.4	602.5
641.6	597.8
641.8	593.9
642.0	591.4
642.2	587.7
642.4	584.6
642.6	580.6
642.8	578.9
643.0	576.0
643.2	572.0
643.4	566.4
643.6	561.5
643.8	556.0
644.0	554.5
644.2	552.5
644.4	550.2
644.6	546.3
644.8	541.6
645.0	535.8
645.2	532.6
645.4	529.7
645.6	528.2
645.8	525.2
646.0	521.2
646.2	516.7
646.4	513.6
646.6	508.5
646.8	505.4
647.0	503.0
647.2	500.7
647.4	499.6
647.6	498.2
647.8	494.6
648.0	490.1
648.2	486.2
648.4	482.4
648.6	480.3
648.8	476.7
649.0	474.9
649.2	471.4
649.4	468.6
649.6	464.6
649.8	462.0
650.0	457.4
650.2	455.3
650.4	452.5
650.6	450.5
650.8	447.5
651.0	443.5
651.2	441.3
651.4	438.9
651.6	436.4
651.8	433.9
652.0	431.0
652.2	427.1
652.4	425.2
652.6	422.4
652.8	420.2
653.0	417.3
653.2	414.7
653.4	412.8
653.6	409.3
653.8	404.9
654.0	402.2
654.2	399.9
654.4	397.3
654.6	395.6
654.8	391.7
655.0	388.1
655.2	386.0
655.4	384.5
655.6	382.3
655.8	380.5
656.0	379.1
656.2	376.1
656.4	372.5
656.6	369.7
656.8	367.0
657.0	363.4
657.2	360.8
657.4	357.6
657.6	356.0
657.8	355.8
658.0	355.4
658.2	353.3
658.4	350.8
658.6	346.5
658.8	342.2
659.0	339.6
659.2	337.6
659.4	337.1
659.6	335.3
659.8	331.8
660.0	328.3
660.2	326.6
660.4	324.9
660.6	323.6
660.8	321.8
661.0	319.2
661.2	316.8
661.4	314.4
661.6	312.8
661.8	310.4
662.0	308.6
662.2	305.0
662.4	303.0
662.6	301.2
662.8	299.9
663.0	297.4
663.2	294.7
663.4	292.2
663.6	290.6
663.8	289.2
664.0	287.8
664.2	285.7
664.4	283.3
664.6	281.6
664.8	278.8
665.0	276.4
665.2	275.9
665.4	274.2
665.6	272.1
665.8	270.4
666.0	268.4
666.2	268.1
666.4	268.1
666.6	266.7
666.8	264.2
667.0	261.3
667.2	258.1
667.4	256.2
667.6	254.4
667.8	253.1
668.0	251.9
668.2	250.8
668.4	248.8
668.6	246.4
668.8	244.4
669.0	242.2
669.2	240.3
669.4	238.0
669.6	235.9
669.8	235.0
670.0	233.5
670.2	232.8
670.4	231.9
670.6	229.9
670.8	228.1
671.0	226.4
671.2	224.0
671.4	223.1
671.6	221.5
671.8	219.6
672.0	217.8
672.2	216.4
672.4	214.9
672.6	213.7
672.8	212.1
673.0	210.6
673.2	209.3
673.4	208.3
673.6	206.8
673.8	205.0
674.0	203.1
674.2	202.3
674.4	201.3
674.6	200.2
674.8	198.6
675.0	197.1
675.2	194.7
675.4	193.0
675.6	190.7
675.8	189.3
676.0	188.0
676.2	188.0
676.4	187.7
676.6	186.8
676.8	184.4
677.0	183.1
677.2	181.5
677.4	180.2
677.6	179.1
677.8	177.2
678.0	176.3
678.2	175.7
678.4	174.1
678.6	173.2
678.8	171.8
679.0	170.0
679.2	168.8
679.4	167.0
679.6	165.5
679.8	164.8
680.0	163.2
680.2	162.2
680.4	160.7
680.6	159.3
680.8	159.0
681.0	158.2
681.2	156.4
681.4	155.2
681.6	153.9
681.8	152.8
682.0	152.3
682.2	151.3
682.4	150.0
682.6	148.6
682.8	147.5
683.0	146.9
683.2	147.1
683.4	147.2
683.6	146.2
683.8	144.7
684.0	142.5
684.2	140.7
684.4	139.9
684.6	139.5
684.8	138.2
685.0	137.0
685.2	136.2
685.4	135.7
685.6	135.1
685.8	134.0
686.0	132.3
686.2	130.6
686.4	129.8
686.6	129.7
686.8	128.4
687.0	127.3
687.2	126.6
687.4	126.5
687.6	125.4
687.8	124.6
688.0	123.0
688.2	121.9
688.4	121.1
688.6	120.4
688.8	119.7
689.0	119.5
689.2	119.1
689.4	118.4
689.6	117.5
689.8	116.0
690.0	115.0
690.2	114.5
690.4	113.7
690.6	112.9
690.8	112.0
691.0	111.1
691.2	110.4
691.4	109.9
691.6	109.7
691.8	108.9
692.0	107.4
692.2	106.6
692.4	106.3
692.6	105.6
692.8	104.6
693.0	104.4
693.2	103.2
693.4	102.8
693.6	102.3
693.8	102.0
694.0	100.8
694.2	99.88
694.4	98.67
694.6	98.16
694.8	97.12
695.0	97.25
695.2	96.48
695.4	96.13
695.6	95.20
695.8	94.95
696.0	94.14
696.2	93.66
696.4	92.70
696.6	92.67
696.8	91.61
697.0	91.07
697.2	89.86
697.4	88.46
697.6	88.33
697.8	88.55
698.0	88.02
698.2	87.06
698.4	86.05
698.6	84.98
698.8	85.19
699.0	85.56
699.2	85.24
699.4	84.46
699.6	84.16
699.8	83.18
700.0	82.68
700.2	82.65
700.4	82.34
700.6	82.04
700.8	81.64
701.0	80.20
701.2	79.39
701.4	78.87
701.6	78.50
701.8	78.39
702.0	77.42
702.2	76.31
702.4	75.37
702.6	75.09
702.8	75.36
703.0	75.09
703.2	74.67
703.4	74.36
703.6	73.03
703.8	72.49
704.0	72.45
704.2	72.17
704.4	72.19
704.6	72.32
704.8	71.29
705.0	70.39
705.2	69.44
705.4	68.34
705.6	67.84
705.8	67.73
706.0	68.22
706.2	68.51
706.4	68.56
706.6	68.27
706.8	67.51
707.0	66.17
707.2	64.95
707.4	64.54
707.6	64.85
707.8	64.73
708.0	64.52
708.2	64.24
708.4	63.24
708.6	63.26
708.8	62.87
709.0	61.91
709.2	61.10
709.4	60.64
709.6	60.86
709.8	60.67
710.0	60.59
710.2	60.19
710.4	59.66
710.6	59.37
710.8	59.44
711.0	58.62
711.2	57.79
711.4	57.05
711.6	56.28
711.8	55.69
712.0	55.64
712.2	55.58
712.4	55.29
712.6	55.84
712.8	55.40
713.0	54.44
713.2	53.93
713.4	53.21
713.6	52.82
713.8	52.79
714.0	52.76
714.2	52.39
714.4	52.07
714.6	51.29
714.8	50.91
715.0	50.13
715.2	50.37
715.4	50.76
715.6	50.40
715.8	49.46
716.0	48.84
716.2	48.32
716.4	48.27
716.6	48.19
716.8	47.68
717.0	46.88
717.2	46.81
717.4	46.97
717.6	46.74
717.8	46.38
718.0	45.99
718.2	45.75
718.4	45.87
718.6	45.46
718.8	44.84
719.0	43.99
719.2	43.05
719.4	42.99
719.6	42.82
719.8	42.40
720.0	41.97
720.2	42.06
720.4	41.91
720.6	42.17
720.8	42.32
721.0	41.87
721.2	41.39
721.4	41.50
721.6	40.83
