Sample:	'20211010A(EM)
File name:	B-CDs 2 200uM.FDS
Run date:	'14:51:51, 06/08/2023
Operator:	Administrator
Comment:	'

Instrument
Model:	F-4700 FL Spectrophotometer
Serial number:	2019-001
ROM Version:	5J24010 00

Instrument parameters
Measurement type:	Wavelength scan
Scan mode:	Emission
Data mode:	Fluorescence
EX WL:	350.0 nm
EM  Start WL:	370.0 nm
EM  End WL:	680.0 nm
Scan speed:	1200 nm/min
Delay:	0.0 s
EX Slit:	10.0 nm
EM Slit:	10.0 nm
PMT Voltage:	515 V
Response:	0.002 s
Corrected spectra:	Off
Shutter control:	On

Processing performed
Savitsky-Golay smoothed
Smoothing order:	3
Number of points:	7
Number of times:	1

Peak integration
Integration method:	Rectangular
Sensitivity:	1
Threshold:	1.000

Peaks
No.	Start(nm)	Apex(nm)	End(nm)	Height(Data)	Valley(nm)	Valley(Data)
1	370.0	479.8	480.4	1893	480.4	1884
2	480.4	483.4	484.4	1932	484.4	1916
3	484.4	486.0	487.0	1929	487.0	1916
4	487.0	487.8	489.2	1940	489.2	1919
5	489.2	489.8	491.6	1931	491.6	1906
6	491.6	492.0	650.0	1921	650.0	46.47
7	650.0	650.6	658.2	49.88	658.2	36.25
8	658.2	659.0	664.8	39.16	664.8	29.70
9	664.8	665.2	668.0	31.27	668.0	25.69
10	668.0	668.6	675.8	27.04	675.8	20.70
11	675.8	676.6	680.0	22.45	680.0	17.71

Data points
nm	Data
370.0	2.508
370.2	2.496
370.4	2.465
370.6	2.452
370.8	2.490
371.0	2.840
371.2	2.833
371.4	2.941
371.6	2.923
371.8	2.654
372.0	2.568
372.2	2.536
372.4	2.479
372.6	2.403
372.8	2.638
373.0	2.887
373.2	3.210
373.4	3.181
373.6	3.307
373.8	3.054
374.0	2.979
374.2	3.017
374.4	2.960
374.6	2.846
374.8	2.760
375.0	2.710
375.2	2.688
375.4	2.539
375.6	2.757
375.8	2.848
376.0	2.836
376.2	2.868
376.4	2.873
376.6	2.679
376.8	2.917
377.0	2.754
377.2	2.780
377.4	2.810
377.6	2.972
377.8	3.081
378.0	3.400
378.2	3.092
378.4	2.736
378.6	2.577
378.8	2.692
379.0	2.714
379.2	3.011
379.4	3.163
379.6	3.076
379.8	2.944
380.0	2.970
380.2	3.131
380.4	3.349
380.6	3.522
380.8	3.472
381.0	3.324
381.2	3.102
381.4	3.268
381.6	3.155
381.8	3.214
382.0	3.174
382.2	3.278
382.4	3.178
382.6	3.678
382.8	3.804
383.0	4.076
383.2	4.013
383.4	3.741
383.6	3.265
383.8	3.482
384.0	3.614
384.2	3.796
384.4	4.134
384.6	4.097
384.8	3.994
385.0	3.936
385.2	3.967
385.4	4.165
385.6	4.325
385.8	4.174
386.0	4.229
386.2	4.133
386.4	4.077
386.6	4.237
386.8	4.459
387.0	4.455
387.2	4.833
387.4	4.910
387.6	4.670
387.8	4.734
388.0	4.720
388.2	4.337
388.4	4.506
388.6	4.729
388.8	4.918
389.0	5.360
389.2	5.354
389.4	5.293
389.6	5.688
389.8	5.937
390.0	5.897
390.2	5.923
390.4	5.619
390.6	5.892
390.8	6.400
391.0	6.412
391.2	6.432
391.4	6.670
391.6	6.683
391.8	6.907
392.0	7.015
392.2	6.731
392.4	7.070
392.6	7.507
392.8	8.092
393.0	8.127
393.2	7.929
393.4	7.802
393.6	8.019
393.8	8.424
394.0	9.113
394.2	8.904
394.4	8.747
394.6	8.757
394.8	9.054
395.0	9.316
395.2	10.30
395.4	10.54
395.6	11.25
395.8	11.11
396.0	11.72
396.2	11.98
396.4	12.73
396.6	12.82
396.8	12.97
397.0	12.50
397.2	12.86
397.4	13.66
397.6	14.50
397.8	14.93
398.0	14.97
398.2	15.16
398.4	15.70
398.6	16.70
398.8	17.00
399.0	16.86
399.2	17.43
399.4	17.81
399.6	18.64
399.8	18.88
400.0	19.56
400.2	20.10
400.4	21.62
400.6	22.46
400.8	23.65
401.0	24.04
401.2	24.81
401.4	25.47
401.6	27.01
401.8	28.77
402.0	30.33
402.2	30.96
402.4	31.03
402.6	31.47
402.8	31.70
403.0	32.98
403.2	34.52
403.4	35.28
403.6	37.14
403.8	38.55
404.0	37.68
404.2	38.06
404.4	40.38
404.6	42.68
404.8	44.59
405.0	46.28
405.2	46.42
405.4	46.86
405.6	49.64
405.8	51.48
406.0	53.07
406.2	55.02
406.4	56.46
406.6	57.48
406.8	60.43
407.0	61.16
407.2	63.32
407.4	64.19
407.6	66.43
407.8	69.55
408.0	72.53
408.2	74.19
408.4	77.03
408.6	77.53
408.8	78.51
409.0	80.86
409.2	82.87
409.4	86.17
409.6	89.35
409.8	91.92
410.0	95.09
410.2	98.41
410.4	102.9
410.6	105.8
410.8	107.7
411.0	109.8
411.2	111.2
411.4	112.0
411.6	115.3
411.8	121.2
412.0	127.4
412.2	132.6
412.4	135.0
412.6	136.9
412.8	138.6
413.0	143.6
413.2	146.7
413.4	150.2
413.6	154.8
413.8	159.8
414.0	163.5
414.2	169.5
414.4	173.2
414.6	176.4
414.8	181.2
415.0	185.5
415.2	189.1
415.4	195.9
415.6	199.0
415.8	202.5
416.0	205.4
416.2	209.6
416.4	214.6
416.6	223.2
416.8	228.2
417.0	234.2
417.2	237.6
417.4	242.5
417.6	246.3
417.8	252.0
418.0	257.5
418.2	264.1
418.4	270.2
418.6	277.1
418.8	282.7
419.0	290.6
419.2	297.2
419.4	302.5
419.6	307.5
419.8	311.6
420.0	317.9
420.2	324.9
420.4	329.6
420.6	333.4
420.8	340.3
421.0	345.4
421.2	355.5
421.4	361.8
421.6	365.8
421.8	370.5
422.0	377.2
422.2	385.3
422.4	394.6
422.6	402.1
422.8	409.0
423.0	414.1
423.2	416.1
423.4	422.9
423.6	428.5
423.8	436.6
424.0	447.5
424.2	456.5
424.4	463.7
424.6	472.6
424.8	481.4
425.0	486.3
425.2	493.6
425.4	499.5
425.6	505.0
425.8	512.1
426.0	521.5
426.2	528.4
426.4	536.0
426.6	541.2
426.8	547.5
427.0	557.1
427.2	568.8
427.4	579.2
427.6	585.3
427.8	590.9
428.0	595.4
428.2	601.2
428.4	605.1
428.6	610.7
428.8	618.3
429.0	629.6
429.2	640.3
429.4	651.6
429.6	655.0
429.8	659.2
430.0	661.4
430.2	668.0
430.4	675.4
430.6	688.5
430.8	695.8
431.0	708.6
431.2	718.0
431.4	726.6
431.6	733.0
431.8	736.5
432.0	737.2
432.2	747.2
432.4	758.1
432.6	763.4
432.8	769.9
433.0	771.4
433.2	778.2
433.4	789.8
433.6	801.2
433.8	807.3
434.0	813.8
434.2	816.3
434.4	826.6
434.6	836.2
434.8	842.1
435.0	847.6
435.2	852.3
435.4	859.5
435.6	870.7
435.8	880.3
436.0	882.1
436.2	888.4
436.4	893.4
436.6	898.5
436.8	906.8
437.0	917.5
437.2	925.2
437.4	934.7
437.6	941.4
437.8	942.5
438.0	947.2
438.2	950.0
438.4	955.8
438.6	961.4
438.8	970.9
439.0	981.6
439.2	988.2
439.4	993.7
439.6	997.3
439.8	997.9
440.0	1003
440.2	1012
440.4	1017
440.6	1027
440.8	1034
441.0	1042
441.2	1049
441.4	1055
441.6	1059
441.8	1065
442.0	1074
442.2	1081
442.4	1082
442.6	1085
442.8	1091
443.0	1096
443.2	1102
443.4	1104
443.6	1106
443.8	1116
444.0	1124
444.2	1129
444.4	1133
444.6	1133
444.8	1135
445.0	1142
445.2	1149
445.4	1156
445.6	1163
445.8	1166
446.0	1168
446.2	1179
446.4	1186
446.6	1189
446.8	1197
447.0	1201
447.2	1200
447.4	1208
447.6	1211
447.8	1216
448.0	1230
448.2	1237
448.4	1241
448.6	1244
448.8	1250
449.0	1255
449.2	1260
449.4	1264
449.6	1266
449.8	1272
450.0	1283
450.2	1289
450.4	1295
450.6	1300
450.8	1301
451.0	1304
451.2	1310
451.4	1312
451.6	1320
451.8	1323
452.0	1326
452.2	1331
452.4	1340
452.6	1347
452.8	1356
453.0	1358
453.2	1367
453.4	1375
453.6	1384
453.8	1384
454.0	1389
454.2	1385
454.4	1390
454.6	1399
454.8	1407
455.0	1411
455.2	1422
455.4	1421
455.6	1422
455.8	1431
456.0	1432
456.2	1439
456.4	1448
456.6	1447
456.8	1452
457.0	1460
457.2	1455
457.4	1460
457.6	1467
457.8	1470
458.0	1479
458.2	1487
458.4	1490
458.6	1501
458.8	1504
459.0	1506
459.2	1511
459.4	1517
459.6	1522
459.8	1526
460.0	1530
460.2	1535
460.4	1544
460.6	1550
460.8	1554
461.0	1555
461.2	1560
461.4	1567
461.6	1572
461.8	1573
462.0	1578
462.2	1581
462.4	1591
462.6	1600
462.8	1611
463.0	1614
463.2	1616
463.4	1614
463.6	1616
463.8	1623
464.0	1628
464.2	1633
464.4	1637
464.6	1639
464.8	1640
465.0	1647
465.2	1646
465.4	1660
465.6	1665
465.8	1669
466.0	1677
466.2	1677
466.4	1676
466.6	1687
466.8	1686
467.0	1692
467.2	1702
467.4	1707
467.6	1711
467.8	1718
468.0	1710
468.2	1714
468.4	1718
468.6	1727
468.8	1730
469.0	1737
469.2	1735
469.4	1740
469.6	1743
469.8	1752
470.0	1751
470.2	1755
470.4	1759
470.6	1756
470.8	1764
471.0	1774
471.2	1787
471.4	1792
471.6	1801
471.8	1792
472.0	1783
472.2	1784
472.4	1789
472.6	1786
472.8	1793
473.0	1798
473.2	1801
473.4	1815
473.6	1823
473.8	1828
474.0	1822
474.2	1821
474.4	1825
474.6	1824
474.8	1826
475.0	1829
475.2	1827
475.4	1832
475.6	1846
475.8	1856
476.0	1859
476.2	1853
476.4	1841
476.6	1833
476.8	1839
477.0	1852
477.2	1865
477.4	1873
477.6	1871
477.8	1866
478.0	1866
478.2	1870
478.4	1870
478.6	1875
478.8	1878
479.0	1880
479.2	1884
479.4	1890
479.6	1889
479.8	1893
480.0	1890
480.2	1892
480.4	1884
480.6	1887
480.8	1887
481.0	1893
481.2	1894
481.4	1904
481.6	1901
481.8	1904
482.0	1897
482.2	1899
482.4	1894
482.6	1901
482.8	1904
483.0	1915
483.2	1919
483.4	1932
483.6	1931
483.8	1929
484.0	1925
484.2	1922
484.4	1916
484.6	1919
484.8	1918
485.0	1919
485.2	1920
485.4	1924
485.6	1922
485.8	1927
486.0	1929
486.2	1926
486.4	1919
486.6	1921
486.8	1916
487.0	1916
487.2	1920
487.4	1920
487.6	1930
487.8	1940
488.0	1938
488.2	1933
488.4	1932
488.6	1927
488.8	1927
489.0	1923
489.2	1919
489.4	1927
489.6	1930
489.8	1931
490.0	1929
490.2	1923
490.4	1917
490.6	1921
490.8	1921
491.0	1914
491.2	1913
491.4	1907
491.6	1906
491.8	1913
492.0	1921
492.2	1920
492.4	1916
492.6	1909
492.8	1903
493.0	1903
493.2	1903
493.4	1898
493.6	1893
493.8	1891
494.0	1890
494.2	1893
494.4	1898
494.6	1893
494.8	1892
495.0	1886
495.2	1888
495.4	1888
495.6	1887
495.8	1880
496.0	1876
496.2	1877
496.4	1877
496.6	1875
496.8	1868
497.0	1864
497.2	1863
497.4	1865
497.6	1859
497.8	1852
498.0	1846
498.2	1842
498.4	1845
498.6	1844
498.8	1842
499.0	1837
499.2	1832
499.4	1828
499.6	1827
499.8	1822
500.0	1818
500.2	1818
500.4	1815
500.6	1818
500.8	1818
501.0	1809
501.2	1803
501.4	1802
501.6	1799
501.8	1803
502.0	1802
502.2	1794
502.4	1790
502.6	1784
502.8	1778
503.0	1772
503.2	1767
503.4	1761
503.6	1761
503.8	1758
504.0	1757
504.2	1751
504.4	1746
504.6	1737
504.8	1736
505.0	1734
505.2	1735
505.4	1737
505.6	1728
505.8	1717
506.0	1715
506.2	1711
506.4	1710
506.6	1707
506.8	1702
507.0	1695
507.2	1687
507.4	1678
507.6	1672
507.8	1663
508.0	1666
508.2	1661
508.4	1655
508.6	1652
508.8	1651
509.0	1646
509.2	1644
509.4	1635
509.6	1628
509.8	1622
510.0	1615
510.2	1605
510.4	1606
510.6	1606
510.8	1606
511.0	1607
511.2	1603
511.4	1596
511.6	1602
511.8	1594
512.0	1589
512.2	1584
512.4	1574
512.6	1564
512.8	1562
513.0	1551
513.2	1554
513.4	1551
513.6	1552
513.8	1544
514.0	1534
514.2	1521
514.4	1523
514.6	1527
514.8	1527
515.0	1522
515.2	1514
515.4	1505
515.6	1504
515.8	1504
516.0	1494
516.2	1484
516.4	1472
516.6	1464
516.8	1457
517.0	1454
517.2	1452
517.4	1451
517.6	1448
517.8	1447
518.0	1433
518.2	1432
518.4	1426
518.6	1422
518.8	1417
519.0	1409
519.2	1399
519.4	1398
519.6	1397
519.8	1400
520.0	1395
520.2	1391
520.4	1385
520.6	1375
520.8	1378
521.0	1378
521.2	1373
521.4	1369
521.6	1358
521.8	1345
522.0	1344
522.2	1343
522.4	1339
522.6	1341
522.8	1334
523.0	1326
523.2	1322
523.4	1320
523.6	1313
523.8	1311
524.0	1302
524.2	1296
524.4	1294
524.6	1291
524.8	1288
525.0	1281
525.2	1275
525.4	1269
525.6	1265
525.8	1261
526.0	1262
526.2	1254
526.4	1245
526.6	1238
526.8	1231
527.0	1228
527.2	1228
527.4	1223
527.6	1221
527.8	1223
528.0	1220
528.2	1218
528.4	1212
528.6	1206
528.8	1202
529.0	1197
529.2	1189
529.4	1183
529.6	1173
529.8	1165
530.0	1164
530.2	1161
530.4	1159
530.6	1159
530.8	1154
531.0	1147
531.2	1141
531.4	1132
531.6	1124
531.8	1124
532.0	1122
532.2	1120
532.4	1115
532.6	1107
532.8	1101
533.0	1099
533.2	1097
533.4	1100
533.6	1100
533.8	1092
534.0	1088
534.2	1077
534.4	1074
534.6	1072
534.8	1064
535.0	1060
535.2	1055
535.4	1048
535.6	1044
535.8	1040
536.0	1033
536.2	1033
536.4	1030
536.6	1032
536.8	1026
537.0	1024
537.2	1016
537.4	1011
537.6	1007
537.8	1004
538.0	995.5
538.2	989.5
538.4	986.2
538.6	982.1
538.8	982.7
539.0	982.8
539.2	982.1
539.4	979.1
539.6	973.8
539.8	966.9
540.0	962.8
540.2	959.1
540.4	958.2
540.6	955.0
540.8	944.9
541.0	939.9
541.2	932.6
541.4	926.2
541.6	927.9
541.8	923.8
542.0	917.0
542.2	913.1
542.4	909.6
542.6	905.7
542.8	906.7
543.0	901.2
543.2	894.7
543.4	888.6
543.6	887.3
543.8	885.5
544.0	883.1
544.2	884.4
544.4	880.4
544.6	877.8
544.8	874.4
545.0	870.8
545.2	863.2
545.4	858.4
545.6	854.0
545.8	853.0
546.0	848.7
546.2	848.2
546.4	845.4
546.6	839.0
546.8	833.4
547.0	827.7
547.2	820.1
547.4	818.3
547.6	819.3
547.8	821.8
548.0	818.9
548.2	812.7
548.4	805.7
548.6	798.4
548.8	794.6
549.0	791.1
549.2	787.0
549.4	781.0
549.6	778.6
549.8	770.7
550.0	767.7
550.2	763.4
550.4	764.9
550.6	760.8
550.8	755.6
551.0	751.0
551.2	746.2
551.4	744.4
551.6	741.4
551.8	732.3
552.0	725.1
552.2	725.3
552.4	724.2
552.6	726.1
552.8	724.2
553.0	720.7
553.2	719.6
553.4	715.1
553.6	709.0
553.8	704.4
554.0	698.4
554.2	697.2
554.4	692.8
554.6	684.6
554.8	681.0
555.0	679.2
555.2	679.7
555.4	681.3
555.6	680.3
555.8	676.3
556.0	675.0
556.2	668.9
556.4	661.7
556.6	653.0
556.8	645.3
557.0	641.7
557.2	644.4
557.4	645.1
557.6	642.7
557.8	638.9
558.0	633.7
558.2	632.5
558.4	631.0
558.6	628.3
558.8	626.0
559.0	623.3
559.2	621.6
559.4	616.8
559.6	606.6
559.8	599.6
560.0	597.4
560.2	601.9
560.4	605.7
560.6	603.3
560.8	597.2
561.0	593.0
561.2	588.6
561.4	588.2
561.6	587.4
561.8	584.0
562.0	580.4
562.2	577.3
562.4	574.6
562.6	572.1
562.8	571.8
563.0	570.8
563.2	561.2
563.4	555.0
563.6	546.5
563.8	541.9
564.0	541.3
564.2	542.2
564.4	539.3
564.6	538.7
564.8	538.1
565.0	535.6
565.2	534.5
565.4	533.9
565.6	532.6
565.8	526.3
566.0	523.1
566.2	518.3
566.4	516.9
566.6	517.0
566.8	516.6
567.0	511.6
567.2	505.1
567.4	502.9
567.6	504.1
567.8	505.7
568.0	502.0
568.2	498.1
568.4	493.6
568.6	489.7
568.8	490.1
569.0	491.6
569.2	485.0
569.4	483.3
569.6	480.5
569.8	476.8
570.0	474.9
570.2	474.8
570.4	469.4
570.6	466.7
570.8	463.2
571.0	461.7
571.2	461.1
571.4	458.7
571.6	456.1
571.8	452.9
572.0	453.5
572.2	455.1
572.4	454.3
572.6	450.3
572.8	449.1
573.0	447.2
573.2	445.3
573.4	442.8
573.6	438.5
573.8	433.8
574.0	431.0
574.2	429.3
574.4	425.2
574.6	421.3
574.8	420.2
575.0	418.3
575.2	416.4
575.4	417.8
575.6	417.5
575.8	414.3
576.0	412.6
576.2	408.1
576.4	402.1
576.6	402.3
576.8	400.3
577.0	399.4
577.2	397.9
577.4	396.3
577.6	393.9
577.8	393.7
578.0	390.5
578.2	388.2
578.4	383.5
578.6	382.5
578.8	383.0
579.0	380.1
579.2	375.6
579.4	372.6
579.6	370.5
579.8	371.4
580.0	374.0
580.2	372.9
580.4	370.5
580.6	366.6
580.8	363.6
581.0	359.7
581.2	360.1
581.4	360.2
581.6	359.8
581.8	356.8
582.0	355.6
582.2	352.6
582.4	351.4
582.6	348.5
582.8	344.6
583.0	341.6
583.2	339.3
583.4	338.4
583.6	339.0
583.8	338.3
584.0	336.3
584.2	332.3
584.4	326.4
584.6	324.9
584.8	326.6
585.0	326.4
585.2	326.0
585.4	323.4
585.6	319.3
585.8	319.2
586.0	318.7
586.2	316.5
586.4	315.2
586.6	316.0
586.8	313.0
587.0	310.9
587.2	307.5
587.4	305.2
587.6	303.4
587.8	303.5
588.0	303.7
588.2	303.3
588.4	300.6
588.6	298.0
588.8	293.7
589.0	292.0
589.2	291.8
589.4	292.1
589.6	291.2
589.8	290.5
590.0	288.5
590.2	288.5
590.4	285.3
590.6	282.0
590.8	279.3
591.0	277.1
591.2	275.1
591.4	275.6
591.6	276.6
591.8	275.4
592.0	275.4
592.2	272.0
592.4	266.8
592.6	264.5
592.8	263.3
593.0	262.8
593.2	264.8
593.4	262.8
593.6	261.9
593.8	261.8
594.0	260.6
594.2	258.3
594.4	255.6
594.6	252.5
594.8	253.2
595.0	252.6
595.2	254.6
595.4	253.5
595.6	249.1
595.8	245.2
596.0	242.8
596.2	241.2
596.4	243.4
596.6	241.7
596.8	238.6
597.0	237.2
597.2	234.9
597.4	234.2
597.6	232.9
597.8	230.5
598.0	230.8
598.2	232.0
598.4	232.3
598.6	231.4
598.8	229.4
599.0	227.9
599.2	227.0
599.4	225.9
599.6	223.8
599.8	221.6
600.0	219.7
600.2	217.0
600.4	216.4
600.6	216.5
600.8	216.6
601.0	216.2
601.2	215.0
601.4	214.6
601.6	213.3
601.8	211.2
602.0	208.6
602.2	206.3
602.4	204.6
602.6	206.7
602.8	207.0
603.0	206.1
603.2	203.1
603.4	200.4
603.6	197.8
603.8	195.2
604.0	193.0
604.2	192.4
604.4	191.8
604.6	193.0
604.8	193.9
605.0	191.5
605.2	189.1
605.4	186.5
605.6	185.4
605.8	185.3
606.0	184.1
606.2	183.8
606.4	183.2
606.6	181.6
606.8	181.0
607.0	180.3
607.2	180.3
607.4	180.8
607.6	181.2
607.8	179.0
608.0	178.0
608.2	176.5
608.4	174.9
608.6	173.2
608.8	172.9
609.0	170.5
609.2	169.9
609.4	168.5
609.6	167.4
609.8	166.8
610.0	167.1
610.2	166.2
610.4	165.7
610.6	163.6
610.8	162.3
611.0	162.6
611.2	163.5
611.4	161.1
611.6	160.0
611.8	157.4
612.0	155.3
612.2	154.9
612.4	152.8
612.6	150.1
612.8	150.4
613.0	151.3
613.2	151.8
613.4	151.8
613.6	150.4
613.8	150.4
614.0	150.8
614.2	150.3
614.4	149.9
614.6	148.4
614.8	146.5
615.0	143.5
615.2	141.0
615.4	141.0
615.6	141.1
615.8	139.6
616.0	139.1
616.2	137.8
616.4	136.1
616.6	136.8
616.8	136.4
617.0	134.4
617.2	134.2
617.4	133.6
617.6	131.9
617.8	131.8
618.0	132.3
618.2	131.6
618.4	131.6
618.6	130.2
618.8	129.7
619.0	128.1
619.2	126.4
619.4	125.9
619.6	125.7
619.8	125.5
620.0	125.5
620.2	123.5
620.4	122.5
620.6	121.6
620.8	121.7
621.0	120.9
621.2	119.9
621.4	119.4
621.6	120.4
621.8	119.8
622.0	118.4
622.2	117.1
622.4	116.1
622.6	115.5
622.8	115.4
623.0	113.2
623.2	111.9
623.4	112.2
623.6	111.5
623.8	111.2
624.0	111.0
624.2	109.5
624.4	109.0
624.6	108.9
624.8	108.4
625.0	108.6
625.2	108.0
625.4	106.8
625.6	105.0
625.8	103.3
626.0	103.3
626.2	103.2
626.4	102.5
626.6	101.8
626.8	100.9
627.0	100.3
627.2	100.9
627.4	101.1
627.6	100.4
627.8	100.0
628.0	99.16
628.2	97.87
628.4	96.82
628.6	95.56
628.8	93.94
629.0	94.34
629.2	94.51
629.4	94.56
629.6	94.60
629.8	94.13
630.0	93.20
630.2	91.09
630.4	89.91
630.6	89.96
630.8	89.12
631.0	90.16
631.2	90.00
631.4	88.82
631.6	88.76
631.8	86.67
632.0	85.50
632.2	84.64
632.4	83.14
632.6	83.09
632.8	82.40
633.0	81.35
633.2	82.24
633.4	82.53
633.6	84.14
633.8	83.68
634.0	81.36
634.2	80.31
634.4	79.61
634.6	79.63
634.8	81.51
635.0	81.15
635.2	79.47
635.4	78.66
635.6	78.05
635.8	75.46
636.0	74.78
636.2	75.67
636.4	75.76
636.6	75.50
636.8	75.88
637.0	72.02
637.2	71.55
637.4	73.06
637.6	71.84
637.8	71.37
638.0	71.24
638.2	70.08
638.4	71.14
638.6	72.28
638.8	69.67
639.0	68.84
639.2	68.48
639.4	69.12
639.6	69.34
639.8	69.61
640.0	68.47
640.2	67.72
640.4	66.61
640.6	66.01
640.8	65.24
641.0	66.01
641.2	65.94
641.4	65.42
641.6	64.17
641.8	62.86
642.0	61.65
642.2	62.98
642.4	63.33
642.6	63.38
642.8	63.36
643.0	62.90
643.2	62.17
643.4	62.11
643.6	62.06
643.8	60.59
644.0	59.01
644.2	57.91
644.4	56.30
644.6	55.17
644.8	55.64
645.0	55.75
645.2	55.61
645.4	56.70
645.6	56.94
645.8	56.48
646.0	55.39
646.2	54.79
646.4	53.92
646.6	54.53
646.8	54.23
647.0	53.02
647.2	51.67
647.4	51.82
647.6	52.21
647.8	52.23
648.0	51.60
648.2	50.80
648.4	50.58
648.6	50.21
648.8	49.81
649.0	49.94
649.2	49.50
649.4	48.97
649.6	47.74
649.8	46.50
650.0	46.47
650.2	48.51
650.4	49.26
650.6	49.88
650.8	48.85
651.0	47.77
651.2	47.51
651.4	47.72
651.6	47.84
651.8	46.85
652.0	46.97
652.2	44.96
652.4	44.67
652.6	45.02
652.8	45.76
653.0	44.79
653.2	45.26
653.4	43.39
653.6	43.85
653.8	43.63
654.0	42.67
654.2	42.02
654.4	41.86
654.6	41.55
654.8	41.81
655.0	40.93
655.2	40.80
655.4	40.92
655.6	41.21
655.8	40.77
656.0	40.81
656.2	40.86
656.4	40.92
656.6	39.94
656.8	39.50
657.0	38.67
657.2	39.00
657.4	39.11
657.6	38.50
657.8	37.59
658.0	36.93
658.2	36.25
658.4	36.71
658.6	37.48
658.8	38.59
659.0	39.16
659.2	37.57
659.4	36.36
659.6	35.66
659.8	35.49
660.0	35.81
660.2	36.27
660.4	35.76
660.6	35.79
660.8	35.23
661.0	34.91
661.2	34.25
661.4	34.25
661.6	33.73
661.8	33.18
662.0	33.09
662.2	32.15
662.4	31.52
662.6	31.22
662.8	30.58
663.0	31.07
663.2	31.43
663.4	30.86
663.6	31.21
663.8	31.39
664.0	31.30
664.2	31.13
664.4	30.29
664.6	29.94
664.8	29.70
665.0	30.61
665.2	31.27
665.4	30.62
