Sample:	'20211010A(EM)
File name:	B-CDs 7.FDS
Run date:	'15:20:33, 06/08/2023
Operator:	Administrator
Comment:	'

Instrument
Model:	F-4700 FL Spectrophotometer
Serial number:	2019-001
ROM Version:	5J24010 00

Instrument parameters
Measurement type:	Wavelength scan
Scan mode:	Emission
Data mode:	Fluorescence
EX WL:	350.0 nm
EM  Start WL:	370.0 nm
EM  End WL:	680.0 nm
Scan speed:	1200 nm/min
Delay:	0.0 s
EX Slit:	10.0 nm
EM Slit:	10.0 nm
PMT Voltage:	440 V
Response:	0.002 s
Corrected spectra:	Off
Shutter control:	On

Processing performed
Savitsky-Golay smoothed
Smoothing order:	3
Number of points:	7
Number of times:	1

Peak integration
Integration method:	Rectangular
Sensitivity:	1
Threshold:	1.000

Peaks
No.	Start(nm)	Apex(nm)	End(nm)	Height(Data)	Valley(nm)	Valley(Data)
1	370.0	473.8	474.8	1218	474.8	1212
2	474.8	475.8	477.4	1222	477.4	1212
3	477.4	478.8	479.4	1221	479.4	1219
4	479.4	479.8	480.8	1223	480.8	1214
5	480.8	482.2	680.0	1219	680.0	7.014

Data points
nm	Data
370.0	1.385
370.2	1.334
370.4	1.297
370.6	1.271
370.8	1.229
371.0	1.259
371.2	1.305
371.4	1.293
371.6	1.267
371.8	1.277
372.0	1.288
372.2	1.278
372.4	1.344
372.6	1.305
372.8	1.272
373.0	1.294
373.2	1.356
373.4	1.338
373.6	1.313
373.8	1.188
374.0	1.203
374.2	1.182
374.4	1.295
374.6	1.367
374.8	1.434
375.0	1.442
375.2	1.488
375.4	1.364
375.6	1.396
375.8	1.390
376.0	1.489
376.2	1.477
376.4	1.505
376.6	1.466
376.8	1.455
377.0	1.447
377.2	1.426
377.4	1.328
377.6	1.382
377.8	1.384
378.0	1.368
378.2	1.353
378.4	1.369
378.6	1.321
378.8	1.374
379.0	1.418
379.2	1.560
379.4	1.549
379.6	1.584
379.8	1.511
380.0	1.414
380.2	1.417
380.4	1.521
380.6	1.427
380.8	1.480
381.0	1.594
381.2	1.508
381.4	1.637
381.6	1.752
381.8	1.688
382.0	1.784
382.2	1.813
382.4	1.695
382.6	1.725
382.8	1.730
383.0	1.679
383.2	1.888
383.4	1.930
383.6	1.924
383.8	1.774
384.0	1.635
384.2	1.589
384.4	1.784
384.6	1.838
384.8	1.977
385.0	1.881
385.2	1.820
385.4	1.764
385.6	1.822
385.8	1.702
386.0	1.915
386.2	1.998
386.4	2.087
386.6	2.137
386.8	2.320
387.0	2.176
387.2	2.156
387.4	2.026
387.6	1.899
387.8	1.846
388.0	1.971
388.2	2.049
388.4	2.066
388.6	2.262
388.8	2.351
389.0	2.465
389.2	2.448
389.4	2.428
389.6	2.320
389.8	2.453
390.0	2.528
390.2	2.631
390.4	2.620
390.6	2.555
390.8	2.566
391.0	2.736
391.2	2.965
391.4	2.919
391.6	2.983
391.8	3.011
392.0	3.092
392.2	3.173
392.4	3.169
392.6	3.063
392.8	3.090
393.0	3.196
393.2	3.280
393.4	3.283
393.6	3.474
393.8	3.836
394.0	4.069
394.2	4.203
394.4	4.220
394.6	4.184
394.8	4.551
395.0	4.835
395.2	4.916
395.4	4.891
395.6	4.839
395.8	4.908
396.0	5.123
396.2	5.188
396.4	5.391
396.6	5.610
396.8	5.850
397.0	6.076
397.2	6.196
397.4	6.085
397.6	6.398
397.8	6.731
398.0	7.249
398.2	7.387
398.4	7.768
398.6	7.914
398.8	8.280
399.0	8.529
399.2	8.908
399.4	8.899
399.6	9.385
399.8	9.752
400.0	10.19
400.2	10.55
400.4	11.15
400.6	11.48
400.8	11.97
401.0	12.19
401.2	12.68
401.4	13.04
401.6	14.11
401.8	14.87
402.0	15.55
402.2	15.90
402.4	16.54
402.6	16.86
402.8	17.43
403.0	18.00
403.2	18.60
403.4	19.24
403.6	20.09
403.8	20.82
404.0	21.66
404.2	22.60
404.4	23.39
404.6	24.53
404.8	25.65
405.0	26.44
405.2	27.71
405.4	28.88
405.6	29.78
405.8	30.95
406.0	31.98
406.2	33.14
406.4	34.56
406.6	36.09
406.8	38.06
407.0	39.62
407.2	40.66
407.4	42.09
407.6	42.97
407.8	44.65
408.0	46.48
408.2	48.04
408.4	49.38
408.6	50.72
408.8	52.78
409.0	55.34
409.2	57.32
409.4	59.29
409.6	60.77
409.8	62.59
410.0	64.71
410.2	66.77
410.4	68.94
410.6	71.02
410.8	73.76
411.0	77.38
411.2	80.62
411.4	83.89
411.6	86.65
411.8	88.59
412.0	91.07
412.2	93.01
412.4	95.65
412.6	98.83
412.8	102.7
413.0	106.9
413.2	110.6
413.4	113.9
413.6	116.9
413.8	120.3
414.0	123.4
414.2	126.4
414.4	128.5
414.6	131.8
414.8	135.4
415.0	139.8
415.2	144.2
415.4	148.6
415.6	151.7
415.8	155.2
416.0	158.1
416.2	162.5
416.4	167.7
416.6	172.3
416.8	176.6
417.0	181.4
417.2	185.6
417.4	191.2
417.6	195.0
417.8	198.6
418.0	202.3
418.2	207.0
418.4	212.3
418.6	217.0
418.8	221.5
419.0	226.5
419.2	231.7
419.4	237.9
419.6	244.1
419.8	248.9
420.0	253.5
420.2	256.8
420.4	260.7
420.6	266.1
420.8	271.7
421.0	277.6
421.2	282.5
421.4	285.8
421.6	291.3
421.8	297.0
422.0	304.6
422.2	311.9
422.4	317.1
422.6	321.1
422.8	326.7
423.0	331.8
423.2	338.9
423.4	344.5
423.6	349.5
423.8	354.9
424.0	359.2
424.2	363.6
424.4	368.4
424.6	374.2
424.8	381.7
425.0	388.8
425.2	395.0
425.4	401.6
425.6	407.4
425.8	415.9
426.0	422.4
426.2	427.0
426.4	430.5
426.6	434.8
426.8	439.3
427.0	446.4
427.2	452.3
427.4	457.0
427.6	461.9
427.8	467.4
428.0	472.8
428.2	479.4
428.4	488.1
428.6	493.3
428.8	499.7
429.0	505.9
429.2	511.0
429.4	516.6
429.6	521.0
429.8	524.9
430.0	530.4
430.2	536.1
430.4	542.1
430.6	548.8
430.8	554.0
431.0	560.6
431.2	566.0
431.4	569.2
431.6	573.2
431.8	578.6
432.0	583.7
432.2	589.5
432.4	596.8
432.6	600.5
432.8	606.9
433.0	611.1
433.2	616.2
433.4	620.7
433.6	626.2
433.8	630.5
434.0	636.9
434.2	640.8
434.4	646.4
434.6	649.9
434.8	654.4
435.0	659.9
435.2	666.0
435.4	673.6
435.6	679.0
435.8	683.6
436.0	688.1
436.2	692.0
436.4	697.2
436.6	701.6
436.8	703.6
437.0	707.3
437.2	711.0
437.4	716.5
437.6	724.0
437.8	727.7
438.0	729.3
438.2	733.1
438.4	738.6
438.6	744.3
438.8	751.5
439.0	754.7
439.2	756.9
439.4	760.9
439.6	765.3
439.8	768.3
440.0	772.5
440.2	775.6
440.4	779.8
440.6	786.0
440.8	792.9
441.0	799.0
441.2	802.9
441.4	805.0
441.6	806.0
441.8	809.3
442.0	813.7
442.2	815.9
442.4	819.7
442.6	820.8
442.8	822.9
443.0	827.7
443.2	833.1
443.4	839.3
443.6	843.7
443.8	845.1
444.0	848.7
444.2	854.1
444.4	860.5
444.6	866.5
444.8	864.8
445.0	865.1
445.2	866.6
445.4	872.1
445.6	877.5
445.8	881.3
446.0	883.1
446.2	887.0
446.4	889.5
446.6	895.3
446.8	897.2
447.0	900.9
447.2	903.6
447.4	905.5
447.6	906.9
447.8	910.6
448.0	911.9
448.2	915.0
448.4	918.7
448.6	920.0
448.8	922.0
449.0	923.5
449.2	928.5
449.4	933.1
449.6	939.8
449.8	943.0
450.0	946.7
450.2	948.0
450.4	953.6
450.6	957.6
450.8	962.2
451.0	966.1
451.2	968.7
451.4	971.4
451.6	972.1
451.8	971.6
452.0	972.9
452.2	974.6
452.4	978.4
452.6	984.1
452.8	990.0
453.0	997.2
453.2	1001
453.4	1001
453.6	1003
453.8	1004
454.0	1008
454.2	1015
454.4	1019
454.6	1020
454.8	1019
455.0	1021
455.2	1026
455.4	1032
455.6	1036
455.8	1038
456.0	1038
456.2	1041
456.4	1044
456.6	1051
456.8	1052
457.0	1053
457.2	1055
457.4	1058
457.6	1061
457.8	1066
458.0	1067
458.2	1069
458.4	1072
458.6	1076
458.8	1078
459.0	1082
459.2	1086
459.4	1091
459.6	1094
459.8	1097
460.0	1097
460.2	1099
460.4	1101
460.6	1106
460.8	1107
461.0	1109
461.2	1111
461.4	1113
461.6	1117
461.8	1120
462.0	1123
462.2	1128
462.4	1128
462.6	1128
462.8	1129
463.0	1128
463.2	1132
463.4	1139
463.6	1141
463.8	1139
464.0	1140
464.2	1142
464.4	1144
464.6	1148
464.8	1152
465.0	1153
465.2	1158
465.4	1162
465.6	1163
465.8	1166
466.0	1169
466.2	1173
466.4	1177
466.6	1177
466.8	1176
467.0	1176
467.2	1172
467.4	1173
467.6	1175
467.8	1178
468.0	1183
468.2	1187
468.4	1185
468.6	1185
468.8	1185
469.0	1188
469.2	1191
469.4	1194
469.6	1193
469.8	1193
470.0	1194
470.2	1196
470.4	1197
470.6	1200
470.8	1200
471.0	1199
471.2	1199
471.4	1200
471.6	1199
471.8	1201
472.0	1203
472.2	1204
472.4	1206
472.6	1208
472.8	1208
473.0	1211
473.2	1214
473.4	1218
473.6	1218
473.8	1218
474.0	1215
474.2	1213
474.4	1212
474.6	1213
474.8	1212
475.0	1216
475.2	1218
475.4	1219
475.6	1221
475.8	1222
476.0	1219
476.2	1217
476.4	1217
476.6	1219
476.8	1219
477.0	1215
477.2	1216
477.4	1212
477.6	1217
477.8	1221
478.0	1221
478.2	1220
478.4	1220
478.6	1220
478.8	1221
479.0	1220
479.2	1219
479.4	1219
479.6	1219
479.8	1223
480.0	1222
480.2	1221
480.4	1218
480.6	1215
480.8	1214
481.0	1215
481.2	1217
481.4	1218
481.6	1217
481.8	1216
482.0	1219
482.2	1219
482.4	1219
482.6	1215
482.8	1213
483.0	1213
483.2	1213
483.4	1212
483.6	1210
483.8	1207
484.0	1210
484.2	1212
484.4	1211
484.6	1210
484.8	1204
485.0	1202
485.2	1202
485.4	1205
485.6	1204
485.8	1206
486.0	1201
486.2	1203
486.4	1203
486.6	1203
486.8	1198
487.0	1195
487.2	1191
487.4	1190
487.6	1191
487.8	1189
488.0	1184
488.2	1181
488.4	1179
488.6	1178
488.8	1178
489.0	1179
489.2	1179
489.4	1179
489.6	1176
489.8	1175
490.0	1172
490.2	1171
490.4	1169
490.6	1166
490.8	1163
491.0	1163
491.2	1162
491.4	1159
491.6	1154
491.8	1150
492.0	1148
492.2	1150
492.4	1150
492.6	1148
492.8	1142
493.0	1139
493.2	1134
493.4	1134
493.6	1132
493.8	1133
494.0	1131
494.2	1130
494.4	1128
494.6	1127
494.8	1122
495.0	1117
495.2	1112
495.4	1107
495.6	1106
495.8	1108
496.0	1109
496.2	1108
496.4	1105
496.6	1102
496.8	1096
497.0	1094
497.2	1090
497.4	1089
497.6	1083
497.8	1081
498.0	1078
498.2	1074
498.4	1069
498.6	1067
498.8	1064
499.0	1062
499.2	1060
499.4	1060
499.6	1055
499.8	1051
500.0	1048
500.2	1047
500.4	1044
500.6	1042
500.8	1041
501.0	1035
501.2	1031
501.4	1030
501.6	1026
501.8	1022
502.0	1022
502.2	1017
502.4	1010
502.6	1007
502.8	1007
503.0	1005
503.2	1005
503.4	1002
503.6	993.6
503.8	987.3
504.0	984.4
504.2	980.5
504.4	979.3
504.6	979.6
504.8	975.8
505.0	971.3
505.2	970.3
505.4	963.6
505.6	961.7
505.8	961.5
506.0	955.8
506.2	951.6
506.4	948.6
506.6	942.6
506.8	938.0
507.0	935.7
507.2	934.9
507.4	934.9
507.6	931.8
507.8	927.2
508.0	921.8
508.2	914.2
508.4	912.5
508.6	910.0
508.8	909.7
509.0	907.1
509.2	907.9
509.4	901.4
509.6	897.7
509.8	893.9
510.0	893.6
510.2	887.3
510.4	883.0
510.6	876.7
510.8	871.5
511.0	867.4
511.2	866.0
511.4	863.2
511.6	861.9
511.8	860.7
512.0	857.4
512.2	853.2
512.4	849.3
512.6	843.9
512.8	841.1
513.0	837.2
513.2	835.4
513.4	833.9
513.6	832.2
513.8	829.5
514.0	826.9
514.2	822.3
514.4	817.3
514.6	813.1
514.8	811.6
515.0	810.2
515.2	808.9
515.4	803.8
515.6	796.9
515.8	792.0
516.0	790.5
516.2	787.7
516.4	787.5
516.6	783.4
516.8	780.3
517.0	776.9
517.2	772.7
517.4	768.9
517.6	766.4
517.8	762.7
518.0	759.9
518.2	756.0
518.4	750.3
518.6	746.1
518.8	744.1
519.0	741.3
519.2	738.9
519.4	738.2
519.6	735.2
519.8	730.9
520.0	729.1
520.2	725.4
520.4	723.4
520.6	721.0
520.8	717.8
521.0	713.0
521.2	710.0
521.4	708.3
521.6	708.0
521.8	702.3
522.0	698.5
522.2	693.5
522.4	689.8
522.6	689.2
522.8	689.7
523.0	687.4
523.2	684.6
523.4	679.0
523.6	672.9
523.8	670.8
524.0	670.1
524.2	667.4
524.4	666.1
524.6	663.0
524.8	660.2
525.0	659.1
525.2	656.5
525.4	651.3
525.6	647.9
525.8	643.9
526.0	640.2
526.2	638.2
526.4	635.5
526.6	632.1
526.8	628.8
527.0	628.6
527.2	628.0
527.4	625.1
527.6	622.4
527.8	618.3
528.0	614.2
528.2	612.6
528.4	610.1
528.6	605.8
528.8	602.8
529.0	600.6
529.2	597.2
529.4	594.7
529.6	591.4
529.8	589.1
530.0	586.1
530.2	585.6
530.4	586.4
530.6	587.7
530.8	585.8
531.0	581.9
531.2	576.3
531.4	571.2
531.6	568.1
531.8	566.1
532.0	563.7
532.2	559.6
532.4	556.3
532.6	552.7
532.8	549.8
533.0	548.9
533.2	549.9
533.4	547.3
533.6	545.1
533.8	542.5
534.0	538.0
534.2	535.4
534.4	533.1
534.6	529.9
534.8	528.3
535.0	526.9
535.2	523.2
535.4	519.1
535.6	514.7
535.8	513.5
536.0	513.4
536.2	513.6
536.4	512.3
536.6	508.6
536.8	504.3
537.0	499.6
537.2	496.3
537.4	493.7
537.6	491.0
537.8	489.7
538.0	488.7
538.2	484.9
538.4	483.7
538.6	482.9
538.8	481.0
539.0	480.0
539.2	479.5
539.4	476.4
539.6	475.4
539.8	473.5
540.0	470.5
540.2	468.0
540.4	466.8
540.6	464.5
540.8	462.4
541.0	459.0
541.2	455.4
541.4	452.8
541.6	449.7
541.8	449.2
542.0	447.5
542.2	444.1
542.4	442.3
542.6	440.4
542.8	438.5
543.0	439.0
543.2	436.6
543.4	431.2
543.6	428.2
543.8	425.2
544.0	422.5
544.2	421.7
544.4	419.2
544.6	416.7
544.8	416.4
545.0	415.0
545.2	412.2
545.4	411.6
545.6	407.9
545.8	404.5
546.0	403.5
546.2	401.4
546.4	398.5
546.6	396.8
546.8	396.4
547.0	394.0
547.2	391.9
547.4	389.8
547.6	384.2
547.8	380.0
548.0	378.7
548.2	377.9
548.4	376.7
548.6	375.8
548.8	372.7
549.0	370.4
549.2	368.9
549.4	366.8
549.6	364.5
549.8	363.2
550.0	361.6
550.2	360.1
550.4	359.1
550.6	356.8
550.8	355.3
551.0	355.3
551.2	353.8
551.4	350.2
551.6	346.9
551.8	345.5
552.0	343.0
552.2	341.3
552.4	340.4
552.6	338.3
552.8	336.8
553.0	336.7
553.2	334.3
553.4	331.6
553.6	329.0
553.8	326.3
554.0	323.0
554.2	321.2
554.4	319.8
554.6	318.4
554.8	317.1
555.0	317.0
555.2	316.5
555.4	315.7
555.6	312.9
555.8	311.1
556.0	309.8
556.2	305.8
556.4	303.8
556.6	302.7
556.8	300.8
557.0	301.8
557.2	301.7
557.4	297.9
557.6	294.2
557.8	291.8
558.0	290.9
558.2	290.8
558.4	289.2
558.6	287.8
558.8	284.7
559.0	282.0
559.2	281.0
559.4	280.6
559.6	279.5
559.8	278.3
560.0	276.7
560.2	274.7
560.4	272.4
560.6	270.5
560.8	268.7
561.0	266.8
561.2	265.5
561.4	263.8
561.6	261.6
561.8	260.7
562.0	260.3
562.2	260.3
562.4	258.4
562.6	257.4
562.8	255.1
563.0	253.1
563.2	251.9
563.4	251.0
563.6	249.0
563.8	247.8
564.0	245.4
564.2	244.4
564.4	243.4
564.6	243.5
564.8	242.0
565.0	239.8
565.2	236.2
565.4	234.6
565.6	232.5
565.8	232.2
566.0	231.1
566.2	231.3
566.4	230.9
566.6	230.1
566.8	228.2
567.0	227.5
567.2	226.1
567.4	224.7
567.6	223.0
567.8	220.3
568.0	218.0
568.2	218.2
568.4	217.3
568.6	216.9
568.8	215.3
569.0	213.8
569.2	212.1
569.4	209.9
569.6	209.2
569.8	208.9
570.0	207.8
570.2	207.5
570.4	207.2
570.6	205.2
570.8	204.8
571.0	203.8
571.2	201.4
571.4	199.9
571.6	199.3
571.8	198.4
572.0	197.6
572.2	196.3
572.4	194.6
572.6	192.2
572.8	191.0
573.0	191.5
573.2	191.6
573.4	191.2
573.6	189.0
573.8	185.8
574.0	184.4
574.2	183.9
574.4	183.2
574.6	181.9
574.8	179.6
575.0	178.6
575.2	179.5
575.4	180.4
575.6	180.4
575.8	179.0
576.0	176.8
576.2	176.0
576.4	175.4
576.6	173.7
576.8	172.0
577.0	170.4
577.2	168.7
577.4	168.3
577.6	167.6
577.8	166.7
578.0	166.7
578.2	165.7
578.4	164.7
578.6	163.7
578.8	161.6
579.0	160.7
579.2	160.1
579.4	160.2
579.6	159.9
579.8	159.9
580.0	158.6
580.2	157.5
580.4	154.6
580.6	154.0
580.8	153.2
581.0	152.7
581.2	152.7
581.4	151.8
581.6	150.1
581.8	148.9
582.0	148.7
582.2	147.5
582.4	147.3
582.6	145.9
582.8	145.4
583.0	143.7
583.2	142.7
583.4	141.1
583.6	141.5
583.8	140.7
584.0	139.4
584.2	137.8
584.4	137.3
584.6	136.4
584.8	136.6
585.0	135.7
585.2	135.1
585.4	134.3
585.6	133.8
585.8	133.5
586.0	133.0
586.2	132.0
586.4	132.3
586.6	131.2
586.8	130.3
587.0	130.2
587.2	129.2
587.4	128.1
587.6	127.3
587.8	125.7
588.0	123.9
588.2	122.9
588.4	122.5
588.6	122.5
588.8	122.9
589.0	122.7
589.2	122.0
589.4	120.5
589.6	120.1
589.8	120.1
590.0	119.3
590.2	118.3
590.4	117.1
590.6	114.8
590.8	113.8
591.0	113.9
591.2	113.4
591.4	112.9
591.6	112.1
591.8	111.5
592.0	110.8
592.2	110.3
592.4	109.3
592.6	108.4
592.8	107.4
593.0	107.1
593.2	106.2
593.4	105.9
593.6	105.1
593.8	105.1
594.0	105.1
594.2	105.4
594.4	104.7
594.6	104.2
594.8	102.8
595.0	102.1
595.2	101.4
595.4	100.9
595.6	100.5
595.8	99.14
596.0	98.43
596.2	98.20
596.4	97.05
596.6	96.09
596.8	95.63
597.0	94.70
597.2	95.50
597.4	95.44
597.6	94.79
597.8	94.28
598.0	94.22
598.2	93.43
598.4	93.73
598.6	92.59
598.8	91.49
599.0	91.16
599.2	90.25
599.4	88.73
599.6	88.70
599.8	87.67
600.0	87.31
600.2	87.28
600.4	86.79
600.6	85.81
600.8	85.78
601.0	84.90
601.2	84.30
601.4	83.55
601.6	83.20
601.8	82.53
602.0	82.09
602.2	82.08
602.4	81.62
602.6	81.23
602.8	80.89
603.0	79.89
603.2	79.29
603.4	79.29
603.6	79.02
603.8	78.37
604.0	77.84
604.2	77.40
604.4	77.19
604.6	76.67
604.8	75.58
605.0	74.29
605.2	73.80
605.4	73.64
605.6	73.63
605.8	73.84
606.0	73.86
606.2	73.85
606.4	73.11
606.6	72.21
606.8	71.32
607.0	70.60
607.2	70.29
607.4	70.29
607.6	69.38
607.8	68.96
608.0	67.99
608.2	67.39
608.4	67.08
608.6	67.31
608.8	66.93
609.0	66.39
609.2	65.45
609.4	65.40
609.6	64.97
609.8	64.62
610.0	64.72
610.2	64.03
610.4	63.50
610.6	63.06
610.8	62.55
611.0	62.16
611.2	62.93
611.4	62.52
611.6	62.23
611.8	61.13
612.0	60.85
612.2	59.76
612.4	59.14
612.6	58.62
612.8	58.90
613.0	58.95
613.2	59.65
613.4	59.53
613.6	58.58
613.8	58.00
614.0	57.69
614.2	57.02
614.4	56.47
614.6	56.17
614.8	55.25
615.0	54.69
615.2	54.78
615.4	54.96
615.6	54.92
615.8	54.29
616.0	52.80
616.2	52.07
616.4	51.75
616.6	51.96
616.8	52.56
617.0	52.88
617.2	52.05
617.4	51.20
617.6	50.07
617.8	49.69
618.0	50.13
618.2	50.96
618.4	50.49
618.6	49.07
618.8	47.91
619.0	47.62
619.2	47.51
619.4	48.16
619.6	48.09
619.8	47.54
620.0	47.07
620.2	47.45
620.4	46.85
620.6	46.35
620.8	45.52
621.0	45.37
621.2	45.16
621.4	45.61
621.6	45.40
621.8	44.57
622.0	43.73
622.2	43.36
622.4	42.94
622.6	42.69
622.8	43.03
623.0	43.49
623.2	43.28
623.4	42.71
623.6	42.20
623.8	41.84
624.0	42.10
624.2	42.50
624.4	42.03
624.6	41.04
624.8	40.38
625.0	40.20
625.2	39.75
625.4	39.88
625.6	39.72
625.8	39.15
626.0	39.36
626.2	38.84
626.4	38.23
626.6	38.24
626.8	38.13
627.0	37.86
627.2	37.68
627.4	36.79
627.6	36.37
627.8	35.95
628.0	36.20
628.2	36.09
628.4	35.98
628.6	35.80
628.8	35.63
629.0	35.11
629.2	35.07
629.4	34.62
629.6	34.75
629.8	34.98
630.0	34.96
630.2	34.59
630.4	34.23
630.6	33.82
630.8	33.56
631.0	33.24
631.2	32.80
631.4	32.70
631.6	32.69
631.8	33.20
632.0	33.06
632.2	32.69
632.4	31.98
632.6	31.60
632.8	31.32
633.0	31.31
633.2	31.03
633.4	30.62
633.6	29.92
633.8	29.57
634.0	29.48
634.2	29.86
634.4	30.23
634.6	30.07
634.8	29.31
635.0	28.56
635.2	27.77
635.4	27.74
635.6	27.72
635.8	27.81
636.0	27.47
636.2	27.58
636.4	27.37
636.6	27.63
636.8	27.66
637.0	27.77
637.2	27.20
637.4	26.93
637.6	26.27
637.8	26.48
638.0	26.40
638.2	26.62
638.4	26.35
638.6	25.91
638.8	25.60
639.0	25.71
639.2	25.66
639.4	25.62
639.6	25.23
639.8	24.60
640.0	24.69
640.2	23.95
640.4	23.86
640.6	23.75
640.8	23.81
641.0	23.70
641.2	23.81
641.4	23.26
641.6	23.00
641.8	22.71
642.0	22.72
642.2	22.39
642.4	22.42
642.6	22.64
642.8	22.67
643.0	22.76
643.2	22.56
643.4	21.89
643.6	21.73
643.8	21.38
644.0	21.75
644.2	21.80
644.4	21.42
644.6	21.06
644.8	21.01
645.0	20.64
645.2	21.46
645.4	21.30
645.6	20.91
645.8	20.52
646.0	20.22
646.2	19.73
646.4	20.38
646.6	20.46
646.8	20.62
647.0	20.22
647.2	19.93
647.4	19.37
647.6	19.16
647.8	19.08
648.0	19.13
648.2	18.73
648.4	18.55
648.6	18.39
648.8	18.20
649.0	18.09
649.2	17.80
649.4	17.63
649.6	17.59
649.8	17.38
650.0	17.34
650.2	17.26
650.4	16.92
650.6	17.34
650.8	17.64
651.0	17.41
651.2	16.94
651.4	16.43
651.6	16.14
651.8	16.30
652.0	16.66
652.2	16.80
652.4	16.58
652.6	16.31
652.8	15.97
653.0	15.82
653.2	15.86
653.4	15.79
653.6	15.78
653.8	15.73
654.0	15.51
654.2	15.45
654.4	15.45
654.6	15.28
654.8	14.95
655.0	14.45
655.2	14.30
655.4	14.29
655.6	14.49
655.8	14.47
656.0	14.68
656.2	14.60
656.4	14.26
656.6	14.14
656.8	13.81
657.0	13.43
657.2	13.46
657.4	13.55
657.6	13.38
657.8	13.51
658.0	13.34
658.2	13.15
658.4	13.06
658.6	12.94
658.8	12.79
659.0	13.04
659.2	12.81
659.4	12.86
659.6	12.98
659.8	12.86
660.0	12.50
660.2	12.34
660.4	12.16
660.6	12.57
660.8	12.77
661.0	13.00
661.2	12.67
661.4	12.56
661.6	12.41
661.8	12.42
662.0	12.22
662.2	12.03
662.4	11.59
662.6	11.50
662.8	11.17
663.0	11.10
663.2	11.20
663.4	11.39
663.6	11.19
663.8	11.15
664.0	11.08
664.2	11.14
664.4	11.09
664.6	11.26
664.8	11.11
665.0	11.03
665.2	10.90
665.4	10.59
