Sample:	'20211010A(EM)
File name:	g-cds 1;5 560v.FDS
Run date:	'09:12:26, 03/22/2023
Operator:	Administrator
Comment:	'

Instrument
Model:	F-4700 FL Spectrophotometer
Serial number:	2019-001
ROM Version:	5J24010 00

Instrument parameters
Measurement type:	Wavelength scan
Scan mode:	Emission
Data mode:	Fluorescence
EX WL:	400.0 nm
EM  Start WL:	420.0 nm
EM  End WL:	850.0 nm
Scan speed:	1200 nm/min
Delay:	0.0 s
EX Slit:	10.0 nm
EM Slit:	10.0 nm
PMT Voltage:	560 V
Response:	0.002 s
Corrected spectra:	Off
Shutter control:	On

Processing performed
Savitsky-Golay smoothed
Smoothing order:	3
Number of points:	7
Number of times:	1

Peak integration
Integration method:	Rectangular
Sensitivity:	1
Threshold:	1.000

Peaks
No.	Start(nm)	Apex(nm)	End(nm)	Height(Data)	Valley(nm)	Valley(Data)
1	420.0	426.8	430.4	5.219	430.4	4.158
2	430.4	539.2	539.8	8271	539.8	8245
3	539.8	542.0	753.6	8289	753.6	29.21
4	753.6	754.4	768.8	30.78	768.8	17.45
5	768.8	769.8	793.2	18.61	793.2	10.56
6	793.2	794.0	794.6	11.80	794.6	10.66
7	794.6	795.6	798.4	11.90	798.4	10.26
8	798.4	800.6	803.0	11.35	803.0	9.348
9	803.0	804.4	825.8	10.74	825.8	6.220
10	825.8	826.6	850.0	7.272	850.0	4.177

Data points
nm	Data
420.0	4.549
420.2	4.126
420.4	3.869
420.6	3.762
420.8	3.770
421.0	3.826
421.2	4.551
421.4	4.836
421.6	4.629
421.8	4.575
422.0	4.540
422.2	4.325
422.4	4.461
422.6	4.434
422.8	4.328
423.0	4.331
423.2	4.700
423.4	4.639
423.6	4.269
423.8	3.993
424.0	3.919
424.2	3.837
424.4	4.414
424.6	4.935
424.8	5.150
425.0	4.797
425.2	4.529
425.4	4.351
425.6	4.554
425.8	4.816
426.0	4.998
426.2	4.847
426.4	4.834
426.6	5.133
426.8	5.219
427.0	5.107
427.2	4.956
427.4	4.672
427.6	4.318
427.8	4.436
428.0	4.349
428.2	4.535
428.4	4.486
428.6	4.527
428.8	4.533
429.0	4.693
429.2	4.785
429.4	5.021
429.6	5.029
429.8	4.765
430.0	4.464
430.2	4.283
430.4	4.158
430.6	4.288
430.8	4.698
431.0	4.578
431.2	4.613
431.4	4.749
431.6	4.733
431.8	4.613
432.0	4.456
432.2	4.249
432.4	4.415
432.6	4.575
432.8	4.788
433.0	4.815
433.2	4.817
433.4	4.693
433.6	4.667
433.8	4.560
434.0	4.584
434.2	4.542
434.4	4.640
434.6	4.649
434.8	4.659
435.0	4.771
435.2	5.119
435.4	5.204
435.6	5.414
435.8	5.234
436.0	4.820
436.2	4.615
436.4	4.714
436.6	4.987
436.8	5.325
437.0	5.245
437.2	5.004
437.4	4.909
437.6	4.807
437.8	4.831
438.0	4.694
438.2	4.672
438.4	4.584
438.6	4.653
438.8	4.613
439.0	4.637
439.2	4.593
439.4	4.679
439.6	4.786
439.8	4.966
440.0	4.996
440.2	5.180
440.4	5.192
440.6	5.166
440.8	5.123
441.0	5.138
441.2	5.136
441.4	5.228
441.6	5.172
441.8	5.133
442.0	4.926
442.2	4.825
442.4	4.825
442.6	4.826
442.8	5.161
443.0	5.375
443.2	5.230
443.4	4.989
443.6	5.003
443.8	4.748
444.0	5.128
444.2	5.061
444.4	5.266
444.6	5.202
444.8	5.842
445.0	5.815
445.2	6.007
445.4	5.455
445.6	5.310
445.8	5.119
446.0	5.495
446.2	5.615
446.4	5.642
446.6	5.442
446.8	5.279
447.0	5.122
447.2	5.277
447.4	5.753
447.6	5.736
447.8	5.896
448.0	5.921
448.2	6.021
448.4	5.960
448.6	5.912
448.8	5.780
449.0	5.645
449.2	5.797
449.4	6.061
449.6	5.603
449.8	5.415
450.0	5.745
450.2	5.881
450.4	6.350
450.6	6.538
450.8	6.206
451.0	6.015
451.2	6.076
451.4	6.118
451.6	6.324
451.8	6.629
452.0	6.772
452.2	6.980
452.4	6.711
452.6	6.541
452.8	6.326
453.0	6.226
453.2	6.300
453.4	6.531
453.6	6.296
453.8	6.300
454.0	6.135
454.2	6.155
454.4	6.370
454.6	6.684
454.8	6.944
455.0	6.865
455.2	6.672
455.4	6.479
455.6	6.451
455.8	6.749
456.0	6.956
456.2	6.950
456.4	7.320
456.6	7.133
456.8	7.142
457.0	7.262
457.2	7.138
457.4	7.207
457.6	7.493
457.8	7.714
458.0	7.570
458.2	7.393
458.4	7.295
458.6	7.088
458.8	7.337
459.0	7.956
459.2	7.876
459.4	7.992
459.6	8.405
459.8	8.273
460.0	8.322
460.2	8.233
460.4	7.886
460.6	7.994
460.8	8.435
461.0	8.948
461.2	9.164
461.4	9.198
461.6	9.128
461.8	9.129
462.0	9.270
462.2	9.820
462.4	9.887
462.6	9.919
462.8	9.972
463.0	9.984
463.2	10.24
463.4	10.81
463.6	11.04
463.8	11.08
464.0	11.21
464.2	11.20
464.4	11.37
464.6	11.66
464.8	12.12
465.0	12.45
465.2	12.63
465.4	12.66
465.6	12.97
465.8	13.07
466.0	13.45
466.2	13.88
466.4	14.18
466.6	14.81
466.8	15.48
467.0	15.78
467.2	15.81
467.4	16.25
467.6	16.45
467.8	17.20
468.0	17.87
468.2	18.44
468.4	18.82
468.6	19.77
468.8	20.07
469.0	21.02
469.2	21.58
469.4	22.10
469.6	23.13
469.8	23.85
470.0	24.47
470.2	24.64
470.4	24.81
470.6	25.23
470.8	26.33
471.0	27.54
471.2	29.43
471.4	30.33
471.6	31.02
471.8	31.05
472.0	31.50
472.2	31.97
472.4	33.00
472.6	33.89
472.8	34.81
473.0	36.01
473.2	37.63
473.4	38.93
473.6	39.86
473.8	41.33
474.0	42.31
474.2	44.60
474.4	47.05
474.6	48.21
474.8	49.48
475.0	51.07
475.2	51.59
475.4	53.69
475.6	55.37
475.8	55.93
476.0	58.33
476.2	61.26
476.4	63.09
476.6	65.27
476.8	67.24
477.0	68.73
477.2	70.32
477.4	73.24
477.6	75.28
477.8	78.59
478.0	81.89
478.2	84.50
478.4	85.35
478.6	87.73
478.8	89.26
479.0	92.59
479.2	96.18
479.4	100.6
479.6	104.6
479.8	108.4
480.0	112.0
480.2	115.5
480.4	117.7
480.6	120.9
480.8	124.8
481.0	128.2
481.2	132.1
481.4	137.4
481.6	141.7
481.8	146.6
482.0	151.1
482.2	154.7
482.4	158.1
482.6	164.0
482.8	169.3
483.0	173.9
483.2	178.1
483.4	182.1
483.6	188.6
483.8	196.7
484.0	204.3
484.2	211.0
484.4	217.3
484.6	223.7
484.8	231.9
485.0	239.6
485.2	245.7
485.4	253.2
485.6	261.6
485.8	270.8
486.0	279.5
486.2	286.5
486.4	293.4
486.6	303.5
486.8	314.8
487.0	325.5
487.2	334.4
487.4	342.7
487.6	348.9
487.8	356.4
488.0	368.3
488.2	378.5
488.4	388.1
488.6	399.9
488.8	410.3
489.0	420.8
489.2	435.6
489.4	448.2
489.6	459.4
489.8	476.1
490.0	490.4
490.2	506.7
490.4	520.8
490.6	533.6
490.8	546.7
491.0	562.8
491.2	575.0
491.4	592.3
491.6	608.8
491.8	629.1
492.0	645.3
492.2	659.9
492.4	671.7
492.6	687.2
492.8	705.4
493.0	731.8
493.2	754.0
493.4	777.1
493.6	795.0
493.8	813.2
494.0	831.4
494.2	851.9
494.4	873.3
494.6	897.5
494.8	921.4
495.0	945.3
495.2	969.6
495.4	990.9
495.6	1014
495.8	1038
496.0	1062
496.2	1087
496.4	1114
496.6	1141
496.8	1168
497.0	1196
497.2	1219
497.4	1244
497.6	1272
497.8	1301
498.0	1331
498.2	1364
498.4	1394
498.6	1425
498.8	1453
499.0	1481
499.2	1509
499.4	1541
499.6	1576
499.8	1615
500.0	1650
500.2	1688
500.4	1729
500.6	1769
500.8	1804
501.0	1841
501.2	1872
501.4	1907
501.6	1946
501.8	1983
502.0	2021
502.2	2063
502.4	2096
502.6	2132
502.8	2170
503.0	2206
503.2	2246
503.4	2292
503.6	2327
503.8	2365
504.0	2407
504.2	2451
504.4	2492
504.6	2536
504.8	2582
505.0	2632
505.2	2684
505.4	2735
505.6	2773
505.8	2811
506.0	2854
506.2	2904
506.4	2946
506.6	2993
506.8	3037
507.0	3080
507.2	3125
507.4	3166
507.6	3204
507.8	3259
508.0	3309
508.2	3356
508.4	3404
508.6	3450
508.8	3496
509.0	3549
509.2	3596
509.4	3640
509.6	3683
509.8	3739
510.0	3784
510.2	3835
510.4	3883
510.6	3928
510.8	3972
511.0	4031
511.2	4074
511.4	4125
511.6	4176
511.8	4220
512.0	4265
512.2	4324
512.4	4376
512.6	4426
512.8	4469
513.0	4512
513.2	4559
513.4	4611
513.6	4664
513.8	4707
514.0	4746
514.2	4790
514.4	4836
514.6	4889
514.8	4941
515.0	4993
515.2	5042
515.4	5085
515.6	5128
515.8	5174
516.0	5221
516.2	5268
516.4	5309
516.6	5350
516.8	5392
517.0	5444
517.2	5501
517.4	5554
517.6	5597
517.8	5636
518.0	5666
518.2	5702
518.4	5741
518.6	5791
518.8	5843
519.0	5888
519.2	5926
519.4	5972
519.6	6008
519.8	6050
520.0	6094
520.2	6136
520.4	6178
520.6	6233
520.8	6274
521.0	6314
521.2	6354
521.4	6388
521.6	6421
521.8	6463
522.0	6492
522.2	6531
522.4	6568
522.6	6597
522.8	6619
523.0	6653
523.2	6690
523.4	6730
523.6	6777
523.8	6811
524.0	6831
524.2	6867
524.4	6905
524.6	6939
524.8	6984
525.0	7023
525.2	7053
525.4	7090
525.6	7109
525.8	7135
526.0	7156
526.2	7194
526.4	7220
526.6	7260
526.8	7280
527.0	7303
527.2	7320
527.4	7348
527.6	7385
527.8	7422
528.0	7452
528.2	7479
528.4	7497
528.6	7526
528.8	7554
529.0	7566
529.2	7585
529.4	7608
529.6	7632
529.8	7661
530.0	7685
530.2	7704
530.4	7721
530.6	7746
530.8	7764
531.0	7785
531.2	7799
531.4	7811
531.6	7828
531.8	7850
532.0	7862
532.2	7892
532.4	7904
532.6	7925
532.8	7943
533.0	7952
533.2	7969
533.4	7987
533.6	8002
533.8	8020
534.0	8027
534.2	8038
534.4	8066
534.6	8087
534.8	8108
535.0	8116
535.2	8116
535.4	8111
535.6	8118
535.8	8125
536.0	8138
536.2	8149
536.4	8157
536.6	8160
536.8	8177
537.0	8184
537.2	8207
537.4	8218
537.6	8217
537.8	8229
538.0	8235
538.2	8235
538.4	8243
538.6	8251
538.8	8257
539.0	8269
539.2	8271
539.4	8261
539.6	8248
539.8	8245
540.0	8255
540.2	8261
540.4	8269
540.6	8254
540.8	8264
541.0	8258
541.2	8259
541.4	8264
541.6	8268
541.8	8272
542.0	8289
542.2	8288
542.4	8288
542.6	8289
542.8	8288
543.0	8285
543.2	8276
543.4	8262
543.6	8260
543.8	8260
544.0	8257
544.2	8248
544.4	8248
544.6	8248
544.8	8249
545.0	8238
545.2	8225
545.4	8208
545.6	8204
545.8	8210
546.0	8213
546.2	8212
546.4	8214
546.6	8212
546.8	8204
547.0	8196
547.2	8183
547.4	8173
547.6	8167
547.8	8161
548.0	8154
548.2	8148
548.4	8145
548.6	8148
548.8	8141
549.0	8130
549.2	8116
549.4	8097
549.6	8085
549.8	8083
550.0	8068
550.2	8064
550.4	8052
550.6	8034
550.8	8022
551.0	8012
551.2	8001
551.4	7998
551.6	7999
551.8	7998
552.0	7996
552.2	7979
552.4	7961
552.6	7946
552.8	7932
553.0	7920
553.2	7906
553.4	7880
553.6	7852
553.8	7829
554.0	7806
554.2	7797
554.4	7792
554.6	7786
554.8	7784
555.0	7763
555.2	7748
555.4	7735
555.6	7712
555.8	7703
556.0	7697
556.2	7683
556.4	7678
556.6	7666
556.8	7651
557.0	7635
557.2	7610
557.4	7598
557.6	7581
557.8	7564
558.0	7552
558.2	7535
558.4	7512
558.6	7494
558.8	7464
559.0	7450
559.2	7443
559.4	7433
559.6	7419
559.8	7400
560.0	7373
560.2	7362
560.4	7364
560.6	7345
560.8	7326
561.0	7304
561.2	7289
561.4	7279
561.6	7280
561.8	7266
562.0	7247
562.2	7209
562.4	7187
562.6	7164
562.8	7154
563.0	7138
563.2	7136
563.4	7118
563.6	7108
563.8	7081
564.0	7049
564.2	7006
564.4	6997
564.6	6995
564.8	6995
565.0	6976
565.2	6949
565.4	6923
565.6	6904
565.8	6889
566.0	6874
566.2	6856
566.4	6832
566.6	6815
566.8	6791
567.0	6765
567.2	6754
567.4	6734
567.6	6719
567.8	6696
568.0	6674
568.2	6653
568.4	6642
568.6	6620
568.8	6618
569.0	6595
569.2	6585
569.4	6560
569.6	6533
569.8	6509
570.0	6500
570.2	6477
570.4	6459
570.6	6430
570.8	6409
571.0	6391
571.2	6374
571.4	6347
571.6	6324
571.8	6306
572.0	6294
572.2	6275
572.4	6265
572.6	6242
572.8	6219
573.0	6201
573.2	6183
573.4	6153
573.6	6135
573.8	6103
574.0	6077
574.2	6068
574.4	6069
574.6	6053
574.8	6033
575.0	6011
575.2	5987
575.4	5958
575.6	5937
575.8	5909
576.0	5895
576.2	5875
576.4	5856
576.6	5822
576.8	5798
577.0	5779
577.2	5770
577.4	5747
577.6	5730
577.8	5698
578.0	5677
578.2	5656
578.4	5645
578.6	5631
578.8	5620
579.0	5596
579.2	5579
579.4	5560
579.6	5539
579.8	5520
580.0	5503
580.2	5478
580.4	5463
580.6	5444
580.8	5420
581.0	5399
581.2	5380
581.4	5352
581.6	5340
581.8	5316
582.0	5304
582.2	5288
582.4	5276
582.6	5245
582.8	5228
583.0	5200
583.2	5188
583.4	5168
583.6	5151
583.8	5128
584.0	5112
584.2	5097
584.4	5091
584.6	5067
584.8	5041
585.0	5011
585.2	4980
585.4	4962
585.6	4953
585.8	4939
586.0	4925
586.2	4901
586.4	4870
586.6	4848
586.8	4833
587.0	4817
587.2	4803
587.4	4785
587.6	4753
587.8	4736
588.0	4720
588.2	4699
588.4	4683
588.6	4664
588.8	4643
589.0	4630
589.2	4612
589.4	4593
589.6	4576
589.8	4560
590.0	4540
590.2	4522
590.4	4500
590.6	4479
590.8	4468
591.0	4460
591.2	4433
591.4	4416
591.6	4392
591.8	4371
592.0	4358
592.2	4342
592.4	4323
592.6	4314
592.8	4294
593.0	4270
593.2	4247
593.4	4221
593.6	4205
593.8	4197
594.0	4180
594.2	4169
594.4	4152
594.6	4128
594.8	4100
595.0	4078
595.2	4060
595.4	4051
595.6	4040
595.8	4023
596.0	4000
596.2	3980
596.4	3961
596.6	3938
596.8	3922
597.0	3908
597.2	3895
597.4	3894
597.6	3875
597.8	3855
598.0	3831
598.2	3809
598.4	3787
598.6	3776
598.8	3757
599.0	3748
599.2	3733
599.4	3723
599.6	3707
599.8	3683
600.0	3667
600.2	3648
600.4	3625
600.6	3612
600.8	3599
601.0	3583
601.2	3571
601.4	3556
601.6	3534
601.8	3518
602.0	3511
602.2	3492
602.4	3471
602.6	3456
602.8	3432
603.0	3408
603.2	3391
603.4	3370
603.6	3361
603.8	3352
604.0	3336
604.2	3315
604.4	3300
604.6	3281
604.8	3274
605.0	3263
605.2	3246
605.4	3233
605.6	3221
605.8	3212
606.0	3204
606.2	3189
606.4	3164
606.6	3140
606.8	3121
607.0	3108
607.2	3096
607.4	3084
607.6	3069
607.8	3056
608.0	3040
608.2	3017
608.4	3001
608.6	2987
608.8	2969
609.0	2955
609.2	2941
609.4	2926
609.6	2916
609.8	2905
610.0	2891
610.2	2871
610.4	2859
610.6	2838
610.8	2822
611.0	2814
611.2	2804
611.4	2786
611.6	2771
611.8	2745
612.0	2734
612.2	2731
612.4	2725
612.6	2712
612.8	2701
613.0	2681
613.2	2665
613.4	2648
613.6	2634
613.8	2619
614.0	2608
614.2	2592
614.4	2574
614.6	2552
614.8	2541
615.0	2532
615.2	2524
615.4	2514
615.6	2505
615.8	2489
616.0	2476
616.2	2461
616.4	2447
616.6	2434
616.8	2425
617.0	2413
617.2	2395
617.4	2379
617.6	2362
617.8	2346
618.0	2337
618.2	2324
618.4	2311
618.6	2300
618.8	2288
619.0	2282
619.2	2277
619.4	2269
619.6	2256
619.8	2234
620.0	2215
620.2	2200
620.4	2190
620.6	2183
620.8	2174
621.0	2162
621.2	2144
621.4	2126
621.6	2113
621.8	2104
622.0	2099
622.2	2091
622.4	2077
622.6	2065
622.8	2053
623.0	2038
623.2	2025
623.4	2013
623.6	2007
623.8	1999
624.0	1996
624.2	1986
624.4	1974
624.6	1962
624.8	1945
625.0	1927
625.2	1918
625.4	1909
625.6	1902
625.8	1898
626.0	1892
626.2	1878
626.4	1860
626.6	1838
626.8	1823
627.0	1817
627.2	1813
627.4	1804
627.6	1797
627.8	1784
628.0	1773
628.2	1760
628.4	1747
628.6	1737
628.8	1731
629.0	1719
629.2	1706
629.4	1693
629.6	1684
629.8	1677
630.0	1669
630.2	1658
630.4	1649
630.6	1643
630.8	1631
631.0	1621
631.2	1609
631.4	1601
631.6	1597
631.8	1589
632.0	1578
632.2	1569
632.4	1557
632.6	1549
632.8	1539
633.0	1524
633.2	1514
633.4	1507
633.6	1500
633.8	1493
634.0	1488
634.2	1477
634.4	1469
634.6	1463
634.8	1455
635.0	1444
635.2	1438
635.4	1430
635.6	1423
635.8	1410
636.0	1399
636.2	1393
636.4	1389
636.6	1383
636.8	1373
637.0	1355
637.2	1343
637.4	1339
637.6	1332
637.8	1325
638.0	1316
638.2	1302
638.4	1295
638.6	1290
638.8	1284
639.0	1278
639.2	1269
639.4	1260
639.6	1251
639.8	1243
640.0	1239
640.2	1233
640.4	1226
640.6	1217
640.8	1208
641.0	1199
641.2	1193
641.4	1187
641.6	1179
641.8	1173
642.0	1169
642.2	1162
642.4	1152
642.6	1144
642.8	1137
643.0	1132
643.2	1128
643.4	1119
643.6	1112
643.8	1106
644.0	1100
644.2	1096
644.4	1088
644.6	1077
644.8	1070
645.0	1065
645.2	1058
645.4	1053
645.6	1044
645.8	1035
646.0	1028
646.2	1024
646.4	1021
646.6	1016
646.8	1011
647.0	1003
647.2	997.4
647.4	987.8
647.6	981.4
647.8	972.6
648.0	965.6
648.2	959.1
648.4	957.5
648.6	953.7
648.8	947.7
649.0	941.4
649.2	932.6
649.4	926.0
649.6	919.8
649.8	914.7
650.0	907.5
650.2	902.5
650.4	896.4
650.6	889.5
650.8	883.1
651.0	880.3
651.2	876.0
651.4	873.6
651.6	867.3
651.8	860.0
652.0	855.4
652.2	849.3
652.4	841.1
652.6	836.4
652.8	827.8
653.0	822.4
653.2	817.0
653.4	812.0
653.6	803.8
653.8	798.9
654.0	796.2
654.2	794.5
654.4	794.3
654.6	789.2
654.8	784.4
655.0	780.3
655.2	774.1
655.4	767.1
655.6	762.5
655.8	751.5
656.0	743.7
656.2	739.2
656.4	734.7
656.6	732.3
656.8	729.9
657.0	725.7
657.2	717.8
657.4	709.9
657.6	705.0
657.8	702.8
658.0	701.8
658.2	701.1
658.4	697.7
658.6	690.6
658.8	684.8
659.0	679.7
659.2	675.4
659.4	671.3
659.6	664.9
659.8	660.0
660.0	655.6
660.2	649.9
660.4	647.2
660.6	645.3
660.8	639.5
661.0	635.6
661.2	631.6
661.4	626.5
661.6	624.3
661.8	619.7
662.0	614.2
662.2	610.0
662.4	606.9
662.6	603.4
662.8	599.3
663.0	594.1
663.2	589.0
663.4	586.6
663.6	582.1
663.8	577.5
664.0	572.9
664.2	571.7
664.4	568.6
664.6	566.2
664.8	561.9
665.0	556.4
665.2	553.6
665.4	549.9
665.6	545.1
665.8	540.5
666.0	538.9
666.2	536.7
666.4	535.7
666.6	532.3
666.8	526.5
667.0	521.6
667.2	518.2
667.4	514.4
667.6	509.5
667.8	508.5
668.0	503.9
668.2	500.3
668.4	496.9
668.6	495.4
668.8	491.9
669.0	490.5
669.2	488.1
669.4	485.5
669.6	482.0
669.8	477.0
670.0	472.6
670.2	467.8
670.4	463.6
670.6	462.9
670.8	458.0
671.0	452.0
671.2	449.2
671.4	446.2
671.6	443.8
671.8	446.1
672.0	441.6
672.2	439.7
672.4	434.5
672.6	430.6
672.8	428.4
673.0	427.4
673.2	423.3
673.4	419.7
673.6	414.8
673.8	412.8
674.0	412.9
674.2	410.9
674.4	407.6
674.6	402.0
674.8	400.5
675.0	398.1
675.2	397.4
675.4	391.5
675.6	389.4
675.8	387.8
676.0	386.8
676.2	386.3
676.4	382.3
676.6	376.8
676.8	373.1
677.0	370.7
677.2	367.5
677.4	368.2
677.6	365.5
677.8	363.4
678.0	360.7
678.2	358.6
678.4	357.2
678.6	355.4
678.8	353.4
679.0	349.0
679.2	346.5
679.4	343.0
679.6	340.2
679.8	336.2
680.0	334.9
680.2	331.7
680.4	329.4
680.6	326.6
680.8	325.0
681.0	321.9
681.2	319.4
681.4	316.7
681.6	314.9
681.8	313.0
682.0	313.0
682.2	312.0
682.4	309.4
682.6	309.1
682.8	306.0
683.0	303.1
683.2	302.0
683.4	299.9
683.6	297.0
683.8	295.4
684.0	292.4
684.2	291.0
684.4	291.6
684.6	291.1
684.8	288.0
685.0	285.3
685.2	280.7
685.4	277.4
685.6	276.8
685.8	275.0
686.0	270.9
686.2	270.6
686.4	267.5
686.6	267.2
686.8	266.8
687.0	265.5
687.2	262.2
687.4	261.2
687.6	259.5
687.8	258.0
688.0	255.3
688.2	254.5
688.4	252.4
688.6	251.2
688.8	249.3
689.0	247.4
689.2	244.7
689.4	244.8
689.6	242.7
689.8	240.9
690.0	236.9
690.2	234.8
690.4	233.3
690.6	233.4
690.8	230.6
691.0	230.4
691.2	228.0
691.4	228.8
691.6	229.9
691.8	228.3
692.0	225.5
692.2	223.8
692.4	221.0
692.6	221.4
692.8	219.5
693.0	216.5
693.2	214.9
693.4	213.4
693.6	213.2
693.8	214.4
694.0	213.4
694.2	211.1
694.4	209.4
694.6	206.2
694.8	204.7
695.0	204.3
695.2	202.6
695.4	200.0
695.6	199.8
695.8	197.3
696.0	196.3
696.2	196.9
696.4	193.6
696.6	193.6
696.8	192.5
697.0	190.6
697.2	189.6
697.4	189.8
697.6	188.1
697.8	189.3
698.0	187.9
698.2	186.6
698.4	183.8
698.6	179.5
698.8	177.4
699.0	177.9
699.2	179.4
699.4	180.6
699.6	181.1
699.8	178.2
700.0	175.0
700.2	171.9
700.4	169.8
700.6	168.7
700.8	170.9
701.0	171.3
701.2	172.1
701.4	169.8
701.6	168.4
701.8	166.7
702.0	166.0
702.2	163.3
702.4	162.2
702.6	158.2
702.8	157.6
703.0	157.6
703.2	158.7
703.4	159.5
703.6	158.6
703.8	157.4
704.0	156.5
704.2	155.0
704.4	153.9
704.6	152.8
704.8	151.8
705.0	152.2
705.2	151.3
705.4	149.6
705.6	147.6
705.8	144.8
706.0	144.0
706.2	144.9
706.4	144.6
706.6	144.6
706.8	144.1
707.0	142.7
707.2	143.0
707.4	142.4
707.6	142.0
707.8	141.3
708.0	138.7
708.2	137.7
708.4	137.5
708.6	136.6
708.8	135.5
709.0	133.0
709.2	131.1
709.4	131.7
709.6	132.3
709.8	133.2
710.0	132.6
710.2	131.0
710.4	129.5
710.6	128.0
710.8	127.0
711.0	126.4
711.2	126.0
711.4	126.4
711.6	124.8
711.8	123.4
712.0	123.0
712.2	122.3
712.4	123.4
712.6	124.2
712.8	122.6
713.0	120.5
713.2	118.1
713.4	115.7
713.6	116.1
713.8	115.3
714.0	115.4
714.2	115.0
714.4	113.6
714.6	113.8
714.8	113.5
715.0	112.2
715.2	110.5
715.4	108.8
715.6	107.7
715.8	108.9
716.0	108.3
716.2	108.5
716.4	107.5
716.6	107.1
716.8	107.0
717.0	105.5
717.2	104.2
717.4	103.3
717.6	102.7
717.8	102.8
718.0	102.1
718.2	99.80
718.4	99.32
718.6	98.64
718.8	98.31
719.0	97.63
719.2	97.44
719.4	95.74
719.6	94.76
719.8	94.45
720.0	94.29
