Sample:	'20211010A(EM)
File name:	g-cds 1;15 460v.FDS
Run date:	'09:17:31, 03/22/2023
Operator:	Administrator
Comment:	'

Instrument
Model:	F-4700 FL Spectrophotometer
Serial number:	2019-001
ROM Version:	5J24010 00

Instrument parameters
Measurement type:	Wavelength scan
Scan mode:	Emission
Data mode:	Fluorescence
EX WL:	400.0 nm
EM  Start WL:	420.0 nm
EM  End WL:	850.0 nm
Scan speed:	1200 nm/min
Delay:	0.0 s
EX Slit:	10.0 nm
EM Slit:	10.0 nm
PMT Voltage:	460 V
Response:	0.002 s
Corrected spectra:	Off
Shutter control:	On

Processing performed
Savitsky-Golay smoothed
Smoothing order:	3
Number of points:	7
Number of times:	1

Peak integration
Integration method:	Rectangular
Sensitivity:	1
Threshold:	1.000

Peaks
No.	Start(nm)	Apex(nm)	End(nm)	Height(Data)	Valley(nm)	Valley(Data)
1	420.0	535.6	779.8	8717	779.8	5.727
2	779.8	801.6	850.0	14.45	850.0	2.103

Data points
nm	Data
420.0	7.766
420.2	7.944
420.4	7.870
420.6	7.669
420.8	7.417
421.0	7.502
421.2	7.714
421.4	7.867
421.6	7.903
421.8	7.841
422.0	7.805
422.2	7.931
422.4	7.903
422.6	7.959
422.8	7.964
423.0	7.866
423.2	8.066
423.4	8.094
423.6	8.024
423.8	8.076
424.0	8.016
424.2	8.105
424.4	8.172
424.6	8.052
424.8	8.140
425.0	8.030
425.2	7.984
425.4	8.203
425.6	8.192
425.8	8.319
426.0	8.520
426.2	8.387
426.4	8.515
426.6	8.515
426.8	8.484
427.0	8.598
427.2	8.680
427.4	8.531
427.6	8.706
427.8	8.476
428.0	8.554
428.2	8.676
428.4	8.986
428.6	9.111
428.8	9.156
429.0	9.064
429.2	8.910
429.4	8.849
429.6	9.113
429.8	9.388
430.0	9.470
430.2	9.686
430.4	9.565
430.6	9.496
430.8	9.616
431.0	9.573
431.2	9.513
431.4	9.460
431.6	9.552
431.8	9.587
432.0	9.748
432.2	9.740
432.4	9.780
432.6	9.963
432.8	10.14
433.0	10.19
433.2	10.34
433.4	10.53
433.6	10.72
433.8	10.87
434.0	10.91
434.2	10.73
434.4	10.71
434.6	10.80
434.8	10.86
435.0	10.97
435.2	11.14
435.4	11.26
435.6	11.45
435.8	11.61
436.0	11.71
436.2	11.89
436.4	11.79
436.6	11.99
436.8	12.09
437.0	12.34
437.2	12.50
437.4	12.78
437.6	12.82
437.8	13.20
438.0	13.43
438.2	13.69
438.4	13.63
438.6	13.70
438.8	13.75
439.0	13.97
439.2	14.25
439.4	14.53
439.6	14.46
439.8	14.54
440.0	14.73
440.2	14.89
440.4	15.15
440.6	15.44
440.8	15.62
441.0	15.84
441.2	16.10
441.4	16.61
441.6	16.89
441.8	17.17
442.0	17.34
442.2	17.45
442.4	17.42
442.6	17.65
442.8	17.93
443.0	18.14
443.2	18.44
443.4	18.88
443.6	19.04
443.8	19.04
444.0	19.41
444.2	19.56
444.4	19.73
444.6	19.92
444.8	20.14
445.0	20.37
445.2	20.75
445.4	21.21
445.6	21.62
445.8	21.87
446.0	22.13
446.2	22.49
446.4	22.76
446.6	22.99
446.8	23.26
447.0	23.34
447.2	23.59
447.4	23.86
447.6	24.29
447.8	24.31
448.0	24.51
448.2	24.77
448.4	25.29
448.6	25.73
448.8	26.08
449.0	26.03
449.2	26.28
449.4	26.53
449.6	26.68
449.8	27.14
450.0	27.46
450.2	27.86
450.4	28.52
450.6	28.89
450.8	28.88
451.0	29.05
451.2	29.04
451.4	29.48
451.6	29.97
451.8	30.15
452.0	30.25
452.2	30.46
452.4	30.54
452.6	31.11
452.8	31.43
453.0	31.75
453.2	31.99
453.4	32.18
453.6	32.42
453.8	32.86
454.0	33.23
454.2	33.77
454.4	34.23
454.6	34.59
454.8	34.44
455.0	34.56
455.2	34.76
455.4	35.14
455.6	35.67
455.8	36.16
456.0	36.13
456.2	36.47
456.4	36.73
456.6	37.23
456.8	37.51
457.0	37.79
457.2	38.03
457.4	38.52
457.6	38.87
457.8	39.33
458.0	39.59
458.2	40.40
458.4	40.97
458.6	41.70
458.8	42.30
459.0	43.13
459.2	43.62
459.4	44.44
459.6	44.86
459.8	45.18
460.0	45.74
460.2	46.36
460.4	47.04
460.6	47.62
460.8	48.23
461.0	49.51
461.2	50.25
461.4	50.89
461.6	51.50
461.8	52.01
462.0	52.62
462.2	54.06
462.4	54.75
462.6	55.80
462.8	57.12
463.0	57.80
463.2	58.81
463.4	59.97
463.6	61.14
463.8	62.79
464.0	64.52
464.2	64.93
464.4	65.89
464.6	66.83
464.8	67.85
465.0	68.99
465.2	70.26
465.4	71.76
465.6	73.46
465.8	75.46
466.0	76.79
466.2	78.33
466.4	80.22
466.6	82.59
466.8	84.82
467.0	86.57
467.2	87.64
467.4	88.66
467.6	90.19
467.8	92.27
468.0	94.53
468.2	96.55
468.4	98.36
468.6	100.4
468.8	103.2
469.0	105.8
469.2	108.5
469.4	110.9
469.6	112.4
469.8	114.5
470.0	117.1
470.2	119.6
470.4	123.0
470.6	127.0
470.8	130.0
471.0	132.8
471.2	135.1
471.4	137.6
471.6	140.5
471.8	143.6
472.0	146.9
472.2	151.1
472.4	154.4
472.6	158.7
472.8	162.4
473.0	165.5
473.2	169.0
473.4	172.9
473.6	175.7
473.8	179.0
474.0	183.2
474.2	188.3
474.4	193.1
474.6	197.9
474.8	202.2
475.0	206.2
475.2	211.8
475.4	217.8
475.6	223.7
475.8	228.9
476.0	233.2
476.2	238.1
476.4	242.6
476.6	247.4
476.8	252.9
477.0	258.3
477.2	263.9
477.4	270.9
477.6	277.0
477.8	282.9
478.0	289.1
478.2	295.5
478.4	302.7
478.6	310.1
478.8	317.1
479.0	323.8
479.2	331.2
479.4	338.9
479.6	347.1
479.8	354.6
480.0	362.8
480.2	370.5
480.4	378.7
480.6	386.9
480.8	394.6
481.0	401.7
481.2	410.4
481.4	419.6
481.6	430.5
481.8	440.9
482.0	450.5
482.2	459.4
482.4	468.9
482.6	479.5
482.8	491.0
483.0	501.7
483.2	512.3
483.4	523.8
483.6	535.2
483.8	548.0
484.0	561.1
484.2	572.4
484.4	584.7
484.6	597.1
484.8	608.2
485.0	623.1
485.2	638.3
485.4	653.2
485.6	667.8
485.8	680.8
486.0	693.3
486.2	707.9
486.4	721.5
486.6	739.3
486.8	755.9
487.0	772.4
487.2	790.5
487.4	806.7
487.6	821.6
487.8	838.6
488.0	854.4
488.2	872.3
488.4	894.9
488.6	915.4
488.8	933.7
489.0	953.4
489.2	972.4
489.4	994.0
489.6	1017
489.8	1038
490.0	1060
490.2	1085
490.4	1108
490.6	1132
490.8	1152
491.0	1174
491.2	1197
491.4	1223
491.6	1250
491.8	1277
492.0	1302
492.2	1324
492.4	1348
492.6	1375
492.8	1400
493.0	1428
493.2	1456
493.4	1485
493.6	1517
493.8	1548
494.0	1578
494.2	1610
494.4	1643
494.6	1679
494.8	1710
495.0	1741
495.2	1769
495.4	1804
495.6	1839
495.8	1877
496.0	1907
496.2	1939
496.4	1972
496.6	2011
496.8	2045
497.0	2083
497.2	2114
497.4	2150
497.6	2190
497.8	2228
498.0	2265
498.2	2305
498.4	2343
498.6	2387
498.8	2431
499.0	2473
499.2	2516
499.4	2560
499.6	2599
499.8	2643
500.0	2685
500.2	2728
500.4	2775
500.6	2820
500.8	2863
501.0	2908
501.2	2951
501.4	2999
501.6	3044
501.8	3088
502.0	3134
502.2	3179
502.4	3225
502.6	3278
502.8	3323
503.0	3375
503.2	3425
503.4	3471
503.6	3520
503.8	3573
504.0	3618
504.2	3669
504.4	3717
504.6	3765
504.8	3818
505.0	3873
505.2	3923
505.4	3975
505.6	4022
505.8	4070
506.0	4118
506.2	4171
506.4	4220
506.6	4268
506.8	4321
507.0	4372
507.2	4425
507.4	4477
507.6	4529
507.8	4583
508.0	4634
508.2	4686
508.4	4737
508.6	4784
508.8	4834
509.0	4890
509.2	4938
509.4	4992
509.6	5043
509.8	5092
510.0	5140
510.2	5191
510.4	5240
510.6	5295
510.8	5346
511.0	5396
511.2	5447
511.4	5492
511.6	5540
511.8	5593
512.0	5644
512.2	5702
512.4	5761
512.6	5810
512.8	5857
513.0	5896
513.2	5942
513.4	5991
513.6	6036
513.8	6085
514.0	6129
514.2	6176
514.4	6224
514.6	6271
514.8	6311
515.0	6357
515.2	6399
515.4	6449
515.6	6500
515.8	6555
516.0	6599
516.2	6645
516.4	6681
516.6	6721
516.8	6763
517.0	6810
517.2	6853
517.4	6898
517.6	6941
517.8	6986
518.0	7021
518.2	7062
518.4	7102
518.6	7135
518.8	7176
519.0	7211
519.2	7238
519.4	7276
519.6	7308
519.8	7350
520.0	7394
520.2	7437
520.4	7478
520.6	7522
520.8	7550
521.0	7583
521.2	7609
521.4	7639
521.6	7673
521.8	7713
522.0	7744
522.2	7774
522.4	7800
522.6	7818
522.8	7840
523.0	7867
523.2	7898
523.4	7938
523.6	7978
523.8	8010
524.0	8039
524.2	8063
524.4	8084
524.6	8110
524.8	8142
525.0	8167
525.2	8182
525.4	8198
525.6	8211
525.8	8231
526.0	8255
526.2	8274
526.4	8294
526.6	8318
526.8	8344
527.0	8361
527.2	8373
527.4	8380
527.6	8393
527.8	8412
528.0	8427
528.2	8440
528.4	8463
528.6	8478
528.8	8498
529.0	8513
529.2	8523
529.4	8537
529.6	8547
529.8	8561
530.0	8574
530.2	8588
530.4	8607
530.6	8619
530.8	8629
531.0	8637
531.2	8636
531.4	8640
531.6	8652
531.8	8656
532.0	8665
532.2	8668
532.4	8673
532.6	8677
532.8	8684
533.0	8682
533.2	8680
533.4	8680
533.6	8686
533.8	8688
534.0	8690
534.2	8699
534.4	8705
534.6	8706
534.8	8708
535.0	8712
535.2	8713
535.4	8716
535.6	8717
535.8	8715
536.0	8714
536.2	8714
536.4	8713
536.6	8708
536.8	8702
537.0	8698
537.2	8692
537.4	8682
537.6	8679
537.8	8677
538.0	8669
538.2	8663
538.4	8658
538.6	8654
538.8	8655
539.0	8657
539.2	8647
539.4	8639
539.6	8626
539.8	8620
540.0	8614
540.2	8610
540.4	8600
540.6	8598
540.8	8592
541.0	8587
541.2	8575
541.4	8553
541.6	8530
541.8	8518
542.0	8508
542.2	8498
542.4	8490
542.6	8478
542.8	8469
543.0	8459
543.2	8448
543.4	8436
543.6	8429
543.8	8421
544.0	8410
544.2	8391
544.4	8377
544.6	8364
544.8	8354
545.0	8336
545.2	8323
545.4	8307
545.6	8290
545.8	8271
546.0	8252
546.2	8232
546.4	8223
546.6	8211
546.8	8198
547.0	8181
547.2	8163
547.4	8147
547.6	8130
547.8	8117
548.0	8105
548.2	8098
548.4	8085
548.6	8070
548.8	8051
549.0	8031
549.2	8008
549.4	7988
549.6	7970
549.8	7956
550.0	7936
550.2	7916
550.4	7896
550.6	7870
550.8	7854
551.0	7835
551.2	7812
551.4	7795
551.6	7779
551.8	7758
552.0	7742
552.2	7724
552.4	7707
552.6	7688
552.8	7675
553.0	7649
553.2	7627
553.4	7608
553.6	7589
553.8	7571
554.0	7558
554.2	7528
554.4	7502
554.6	7473
554.8	7443
555.0	7428
555.2	7411
555.4	7390
555.6	7367
555.8	7349
556.0	7328
556.2	7316
556.4	7299
556.6	7279
556.8	7254
557.0	7232
557.2	7207
557.4	7185
557.6	7161
557.8	7142
558.0	7123
558.2	7103
558.4	7090
558.6	7067
558.8	7037
559.0	7010
559.2	6980
559.4	6958
559.6	6941
559.8	6919
560.0	6897
560.2	6872
560.4	6846
560.6	6825
560.8	6801
561.0	6776
561.2	6754
561.4	6733
561.6	6714
561.8	6695
562.0	6674
562.2	6651
562.4	6625
562.6	6602
562.8	6578
563.0	6558
563.2	6537
563.4	6518
563.6	6493
563.8	6465
564.0	6436
564.2	6408
564.4	6384
564.6	6362
564.8	6345
565.0	6325
565.2	6304
565.4	6280
565.6	6257
565.8	6236
566.0	6213
566.2	6186
566.4	6162
566.6	6139
566.8	6120
567.0	6102
567.2	6080
567.4	6051
567.6	6023
567.8	6000
568.0	5980
568.2	5958
568.4	5940
568.6	5908
568.8	5877
569.0	5848
569.2	5822
569.4	5805
569.6	5790
569.8	5763
570.0	5741
570.2	5717
570.4	5693
570.6	5672
570.8	5649
571.0	5626
571.2	5602
571.4	5579
571.6	5552
571.8	5525
572.0	5502
572.2	5483
572.4	5459
572.6	5435
572.8	5413
573.0	5391
573.2	5369
573.4	5347
573.6	5325
573.8	5302
574.0	5285
574.2	5266
574.4	5244
574.6	5224
574.8	5198
575.0	5170
575.2	5147
575.4	5129
575.6	5109
575.8	5084
576.0	5060
576.2	5033
576.4	5008
576.6	4984
576.8	4962
577.0	4940
577.2	4922
577.4	4904
577.6	4881
577.8	4856
578.0	4831
578.2	4809
578.4	4791
578.6	4771
578.8	4755
579.0	4735
579.2	4712
579.4	4689
579.6	4665
579.8	4638
580.0	4616
580.2	4597
580.4	4582
580.6	4563
580.8	4536
581.0	4514
581.2	4488
581.4	4467
581.6	4447
581.8	4431
582.0	4410
582.2	4388
582.4	4363
582.6	4341
582.8	4318
583.0	4302
583.2	4284
583.4	4259
583.6	4239
583.8	4221
584.0	4200
584.2	4181
584.4	4164
584.6	4142
584.8	4124
585.0	4108
585.2	4084
585.4	4063
585.6	4043
585.8	4020
586.0	4004
586.2	3986
586.4	3964
586.6	3942
586.8	3922
587.0	3902
587.2	3886
587.4	3864
587.6	3845
587.8	3823
588.0	3809
588.2	3794
588.4	3780
588.6	3761
588.8	3742
589.0	3720
589.2	3699
589.4	3678
589.6	3657
589.8	3640
590.0	3624
590.2	3607
590.4	3586
590.6	3561
590.8	3539
591.0	3525
591.2	3510
591.4	3493
591.6	3477
591.8	3453
592.0	3438
592.2	3425
592.4	3407
592.6	3386
592.8	3369
593.0	3349
593.2	3339
593.4	3325
593.6	3308
593.8	3288
594.0	3269
594.2	3248
594.4	3228
594.6	3207
594.8	3190
595.0	3177
595.2	3162
595.4	3149
595.6	3133
595.8	3116
596.0	3101
596.2	3088
596.4	3073
596.6	3060
596.8	3043
597.0	3024
597.2	3008
597.4	2991
597.6	2978
597.8	2965
598.0	2950
598.2	2932
598.4	2916
598.6	2896
598.8	2880
599.0	2865
599.2	2847
599.4	2833
599.6	2815
599.8	2799
600.0	2782
600.2	2765
600.4	2747
600.6	2738
600.8	2726
601.0	2718
601.2	2705
601.4	2690
601.6	2672
601.8	2656
602.0	2643
602.2	2632
602.4	2619
602.6	2601
602.8	2586
603.0	2569
603.2	2558
603.4	2544
603.6	2529
603.8	2510
604.0	2495
604.2	2479
604.4	2465
604.6	2450
604.8	2436
605.0	2422
605.2	2410
605.4	2400
605.6	2388
605.8	2375
606.0	2360
606.2	2344
606.4	2331
606.6	2320
606.8	2311
607.0	2299
607.2	2284
607.4	2268
607.6	2252
607.8	2235
608.0	2222
608.2	2209
608.4	2195
608.6	2183
608.8	2170
609.0	2161
609.2	2150
609.4	2140
609.6	2126
609.8	2112
610.0	2097
610.2	2084
610.4	2073
610.6	2063
610.8	2050
611.0	2037
611.2	2023
611.4	2009
611.6	1997
611.8	1986
612.0	1972
612.2	1959
612.4	1948
612.6	1935
612.8	1924
613.0	1913
613.2	1901
613.4	1891
613.6	1882
613.8	1870
614.0	1859
614.2	1848
614.4	1834
614.6	1825
614.8	1813
615.0	1801
615.2	1790
615.4	1780
615.6	1770
615.8	1760
616.0	1749
616.2	1736
616.4	1724
616.6	1712
616.8	1703
617.0	1692
617.2	1683
617.4	1674
617.6	1664
617.8	1652
618.0	1642
618.2	1631
618.4	1621
618.6	1616
618.8	1606
619.0	1593
619.2	1582
619.4	1570
619.6	1560
619.8	1552
620.0	1543
620.2	1533
620.4	1523
620.6	1513
620.8	1502
621.0	1491
621.2	1480
621.4	1470
621.6	1462
621.8	1453
622.0	1446
622.2	1439
622.4	1428
622.6	1421
622.8	1410
623.0	1400
623.2	1391
623.4	1381
623.6	1372
623.8	1365
624.0	1357
624.2	1350
624.4	1341
624.6	1331
624.8	1324
625.0	1315
625.2	1307
625.4	1299
625.6	1290
625.8	1281
626.0	1271
626.2	1260
626.4	1251
626.6	1245
626.8	1237
627.0	1232
627.2	1224
627.4	1215
627.6	1205
627.8	1196
628.0	1188
628.2	1181
628.4	1173
628.6	1164
628.8	1156
629.0	1148
629.2	1141
629.4	1134
629.6	1128
629.8	1118
630.0	1111
630.2	1104
630.4	1097
630.6	1092
630.8	1086
631.0	1077
631.2	1068
631.4	1059
631.6	1051
631.8	1044
632.0	1039
632.2	1033
632.4	1026
632.6	1020
632.8	1014
633.0	1008
633.2	1003
633.4	993.8
633.6	987.0
633.8	979.4
634.0	970.4
634.2	962.6
634.4	955.8
634.6	950.3
634.8	946.3
635.0	940.8
635.2	934.0
635.4	928.3
635.6	922.5
635.8	916.5
636.0	910.3
636.2	903.7
636.4	896.2
636.6	890.3
636.8	885.2
637.0	879.3
637.2	874.0
637.4	867.6
637.6	859.6
637.8	851.2
638.0	845.6
638.2	839.7
638.4	835.6
638.6	830.8
638.8	825.0
639.0	816.7
639.2	810.8
639.4	804.6
639.6	801.3
639.8	795.5
640.0	790.8
640.2	783.2
640.4	775.3
640.6	768.8
640.8	765.3
641.0	761.6
641.2	757.7
641.4	752.3
641.6	746.6
641.8	741.3
642.0	736.1
642.2	732.6
642.4	727.6
642.6	723.1
642.8	719.5
643.0	714.0
643.2	708.9
643.4	703.0
643.6	696.9
643.8	690.9
644.0	685.5
644.2	679.5
644.4	675.2
644.6	671.6
644.8	668.6
645.0	666.3
645.2	663.2
645.4	656.6
645.6	650.3
645.8	645.2
646.0	641.2
646.2	638.0
646.4	633.6
646.6	628.3
646.8	623.5
647.0	619.2
647.2	615.4
647.4	610.5
647.6	605.6
647.8	600.7
648.0	595.2
648.2	591.6
648.4	588.1
648.6	584.5
648.8	581.9
649.0	579.0
649.2	575.1
649.4	571.0
649.6	566.2
649.8	561.6
650.0	556.2
650.2	553.2
650.4	548.8
650.6	544.7
650.8	540.5
651.0	536.6
651.2	531.4
651.4	527.4
651.6	523.2
651.8	519.7
652.0	517.3
652.2	513.9
652.4	509.9
652.6	506.0
652.8	501.9
653.0	497.3
653.2	493.9
653.4	489.6
653.6	486.1
653.8	483.7
654.0	480.7
654.2	478.7
654.4	476.8
654.6	472.9
654.8	468.9
655.0	464.4
655.2	461.2
655.4	458.9
655.6	455.6
655.8	451.8
656.0	449.4
656.2	445.7
656.4	442.2
656.6	438.1
656.8	433.5
657.0	430.5
657.2	428.8
657.4	425.9
657.6	422.6
657.8	419.5
658.0	415.4
658.2	412.7
658.4	410.3
658.6	407.5
658.8	404.6
659.0	400.7
659.2	396.9
659.4	394.1
659.6	392.7
659.8	391.4
660.0	388.1
660.2	383.8
660.4	380.0
660.6	376.1
660.8	374.3
661.0	373.0
661.2	370.3
661.4	367.4
661.6	363.7
661.8	360.8
662.0	359.2
662.2	356.7
662.4	353.7
662.6	351.0
662.8	347.9
663.0	345.9
663.2	343.6
663.4	340.1
663.6	338.5
663.8	337.1
664.0	335.0
664.2	332.7
664.4	328.9
664.6	325.4
664.8	324.2
665.0	322.4
665.2	320.8
665.4	318.0
665.6	314.2
665.8	311.4
666.0	309.2
666.2	306.5
666.4	304.6
666.6	302.3
666.8	300.1
667.0	299.0
667.2	297.6
667.4	295.7
667.6	293.5
667.8	292.0
668.0	289.5
668.2	286.8
668.4	283.8
668.6	281.1
668.8	279.0
669.0	277.4
669.2	275.7
669.4	273.2
669.6	270.0
669.8	267.6
670.0	266.8
670.2	265.6
670.4	264.2
670.6	262.1
670.8	259.1
671.0	256.2
671.2	254.5
671.4	252.4
671.6	250.0
671.8	248.6
672.0	246.4
672.2	245.1
672.4	243.9
672.6	241.9
672.8	239.7
673.0	237.8
673.2	236.0
673.4	235.6
673.6	234.3
673.8	232.3
674.0	230.1
674.2	227.4
674.4	224.8
674.6	224.2
674.8	223.7
675.0	221.7
675.2	220.4
675.4	217.9
675.6	215.3
675.8	214.5
676.0	214.2
676.2	212.3
676.4	211.4
676.6	209.3
676.8	207.6
677.0	205.8
677.2	204.6
677.4	202.4
677.6	200.1
677.8	198.4
678.0	196.7
678.2	195.8
678.4	195.4
678.6	193.9
678.8	192.8
679.0	191.1
679.2	189.0
679.4	187.0
679.6	184.9
679.8	183.1
680.0	182.2
680.2	181.4
680.4	180.4
680.6	178.5
680.8	176.2
681.0	174.5
681.2	172.9
681.4	172.1
681.6	171.3
681.8	170.6
682.0	169.8
682.2	167.8
682.4	166.2
682.6	165.3
682.8	164.4
683.0	164.3
683.2	163.6
683.4	161.5
683.6	159.9
683.8	158.5
684.0	156.9
684.2	155.8
684.4	154.4
684.6	153.6
684.8	152.6
685.0	151.8
685.2	150.9
685.4	149.2
685.6	148.1
685.8	147.2
686.0	145.9
686.2	144.8
686.4	143.9
686.6	143.1
686.8	141.9
687.0	140.8
687.2	139.3
687.4	138.1
687.6	136.8
687.8	135.6
688.0	134.0
688.2	133.2
688.4	132.7
688.6	132.4
688.8	131.6
689.0	130.4
689.2	129.2
689.4	127.9
689.6	127.0
689.8	126.2
690.0	126.2
690.2	125.3
690.4	124.7
690.6	123.5
690.8	121.7
691.0	120.4
691.2	119.5
691.4	118.4
691.6	118.1
691.8	117.0
692.0	115.6
692.2	115.7
692.4	115.1
692.6	114.4
692.8	114.1
693.0	112.8
693.2	111.3
693.4	111.2
693.6	110.0
693.8	108.9
694.0	108.1
694.2	107.3
694.4	106.7
694.6	106.2
694.8	105.4
695.0	104.3
695.2	102.9
695.4	102.2
695.6	101.8
695.8	101.7
696.0	101.8
696.2	101.2
696.4	100.4
696.6	99.65
696.8	98.86
697.0	98.33
697.2	96.90
697.4	95.52
697.6	94.41
697.8	93.80
698.0	94.04
698.2	93.96
698.4	93.32
698.6	92.88
698.8	92.31
699.0	91.88
699.2	91.32
699.4	89.85
699.6	89.16
699.8	87.96
700.0	87.22
700.2	87.88
700.4	87.89
700.6	86.77
700.8	86.44
701.0	85.75
701.2	84.99
701.4	84.72
701.6	84.25
701.8	82.67
702.0	81.82
702.2	81.46
702.4	80.88
702.6	80.18
702.8	80.21
703.0	80.12
703.2	79.93
703.4	79.62
703.6	78.96
703.8	78.21
704.0	77.49
704.2	76.61
704.4	76.33
704.6	76.25
704.8	75.98
705.0	75.80
705.2	75.25
705.4	74.39
705.6	73.71
705.8	73.08
706.0	72.27
706.2	71.61
706.4	71.01
706.6	71.08
706.8	70.74
707.0	70.63
707.2	70.06
707.4	69.57
707.6	68.76
707.8	68.26
708.0	67.31
708.2	66.41
708.4	66.03
708.6	66.48
708.8	66.44
709.0	66.48
709.2	65.49
709.4	64.01
709.6	63.52
709.8	63.29
710.0	63.34
710.2	63.56
710.4	63.28
710.6	62.79
710.8	62.48
711.0	61.98
711.2	61.62
711.4	60.78
711.6	59.82
711.8	59.25
712.0	58.53
712.2	58.19
712.4	58.10
712.6	57.65
712.8	56.72
713.0	56.74
713.2	56.48
713.4	56.17
713.6	55.87
713.8	55.39
714.0	54.75
714.2	54.44
714.4	54.55
714.6	53.89
714.8	53.13
715.0	52.60
715.2	52.57
715.4	51.64
715.6	51.56
715.8	50.95
716.0	50.28
716.2	49.56
716.4	49.80
716.6	49.49
716.8	49.42
717.0	49.64
717.2	49.12
717.4	48.77
717.6	48.63
717.8	48.11
718.0	47.35
718.2	47.30
718.4	46.73
718.6	46.72
718.8	46.27
719.0	45.37
719.2	44.59
719.4	44.68
719.6	44.65
719.8	44.64
720.0	44.28
720.2	43.43
720.4	42.77
720.6	42.46
720.8	42.14
721.0	41.94
721.2	41.84
721.4	41.63
721.6	41.61
721.8	41.51
722.0	41.43
722.2	41.28
722.4	40.98
722.6	40.25
722.8	39.57
723.0	39.07
723.2	38.97
723.4	38.97
723.6	38.84
723.8	38.06
724.0	37.55
724.2	36.99
