Sample:	'20211010A(EM)
File name:	g-ni-cds 1;5 430v.FDS
Run date:	'09:33:29, 03/22/2023
Operator:	Administrator
Comment:	'

Instrument
Model:	F-4700 FL Spectrophotometer
Serial number:	2019-001
ROM Version:	5J24010 00

Instrument parameters
Measurement type:	Wavelength scan
Scan mode:	Emission
Data mode:	Fluorescence
EX WL:	400.0 nm
EM  Start WL:	420.0 nm
EM  End WL:	850.0 nm
Scan speed:	1200 nm/min
Delay:	0.0 s
EX Slit:	10.0 nm
EM Slit:	10.0 nm
PMT Voltage:	430 V
Response:	0.002 s
Corrected spectra:	Off
Shutter control:	On

Processing performed
Savitsky-Golay smoothed
Smoothing order:	3
Number of points:	7
Number of times:	1

Peak integration
Integration method:	Rectangular
Sensitivity:	1
Threshold:	1.000

Peaks
No.	Start(nm)	Apex(nm)	End(nm)	Height(Data)	Valley(nm)	Valley(Data)
1	420.0	537.2	542.0	152.5	542.0	151.0
2	542.0	542.8	850.0	152.4	850.0	0.174

Data points
nm	Data
420.0	0.123
420.2	0.118
420.4	0.122
420.6	0.129
420.8	0.124
421.0	0.118
421.2	0.132
421.4	0.158
421.6	0.175
421.8	0.179
422.0	0.163
422.2	0.137
422.4	0.138
422.6	0.127
422.8	0.131
423.0	0.140
423.2	0.158
423.4	0.177
423.6	0.182
423.8	0.153
424.0	0.147
424.2	0.150
424.4	0.158
424.6	0.172
424.8	0.177
425.0	0.164
425.2	0.168
425.4	0.174
425.6	0.174
425.8	0.164
426.0	0.163
426.2	0.150
426.4	0.141
426.6	0.148
426.8	0.140
427.0	0.148
427.2	0.153
427.4	0.144
427.6	0.151
427.8	0.148
428.0	0.150
428.2	0.161
428.4	0.163
428.6	0.161
428.8	0.163
429.0	0.150
429.2	0.153
429.4	0.142
429.6	0.136
429.8	0.142
430.0	0.148
430.2	0.155
430.4	0.169
430.6	0.163
430.8	0.150
431.0	0.151
431.2	0.158
431.4	0.151
431.6	0.162
431.8	0.162
432.0	0.165
432.2	0.167
432.4	0.158
432.6	0.164
432.8	0.167
433.0	0.163
433.2	0.154
433.4	0.142
433.6	0.145
433.8	0.170
434.0	0.152
434.2	0.151
434.4	0.137
434.6	0.127
434.8	0.150
435.0	0.167
435.2	0.158
435.4	0.179
435.6	0.163
435.8	0.149
436.0	0.145
436.2	0.146
436.4	0.153
436.6	0.172
436.8	0.181
437.0	0.188
437.2	0.168
437.4	0.153
437.6	0.148
437.8	0.133
438.0	0.123
438.2	0.110
438.4	0.112
438.6	0.124
438.8	0.160
439.0	0.159
439.2	0.167
439.4	0.164
439.6	0.172
439.8	0.169
440.0	0.172
440.2	0.147
440.4	0.136
440.6	0.131
440.8	0.146
441.0	0.160
441.2	0.159
441.4	0.171
441.6	0.153
441.8	0.170
442.0	0.187
442.2	0.204
442.4	0.184
442.6	0.178
442.8	0.161
443.0	0.153
443.2	0.138
443.4	0.151
443.6	0.140
443.8	0.140
444.0	0.158
444.2	0.181
444.4	0.177
444.6	0.179
444.8	0.158
445.0	0.127
445.2	0.117
445.4	0.129
445.6	0.130
445.8	0.136
446.0	0.138
446.2	0.147
446.4	0.168
446.6	0.171
446.8	0.163
447.0	0.133
447.2	0.108
447.4	0.107
447.6	0.138
447.8	0.162
448.0	0.186
448.2	0.193
448.4	0.180
448.6	0.154
448.8	0.150
449.0	0.146
449.2	0.151
449.4	0.155
449.6	0.146
449.8	0.145
450.0	0.157
450.2	0.162
450.4	0.173
450.6	0.180
450.8	0.182
451.0	0.201
451.2	0.195
451.4	0.199
451.6	0.183
451.8	0.187
452.0	0.208
452.2	0.217
452.4	0.198
452.6	0.198
452.8	0.170
453.0	0.170
453.2	0.185
453.4	0.194
453.6	0.191
453.8	0.186
454.0	0.201
454.2	0.216
454.4	0.211
454.6	0.213
454.8	0.201
455.0	0.173
455.2	0.161
455.4	0.164
455.6	0.170
455.8	0.194
456.0	0.210
456.2	0.220
456.4	0.195
456.6	0.180
456.8	0.171
457.0	0.156
457.2	0.158
457.4	0.180
457.6	0.189
457.8	0.190
458.0	0.203
458.2	0.193
458.4	0.207
458.6	0.212
458.8	0.211
459.0	0.195
459.2	0.194
459.4	0.183
459.6	0.201
459.8	0.204
460.0	0.206
460.2	0.206
460.4	0.208
460.6	0.207
460.8	0.223
461.0	0.222
461.2	0.206
461.4	0.222
461.6	0.237
461.8	0.230
462.0	0.235
462.2	0.238
462.4	0.231
462.6	0.249
462.8	0.244
463.0	0.233
463.2	0.227
463.4	0.258
463.6	0.276
463.8	0.272
464.0	0.263
464.2	0.272
464.4	0.253
464.6	0.284
464.8	0.269
465.0	0.250
465.2	0.259
465.4	0.277
465.6	0.299
465.8	0.323
466.0	0.298
466.2	0.301
466.4	0.310
466.6	0.324
466.8	0.360
467.0	0.379
467.2	0.377
467.4	0.408
467.6	0.396
467.8	0.408
468.0	0.405
468.2	0.410
468.4	0.419
468.6	0.418
468.8	0.400
469.0	0.417
469.2	0.433
469.4	0.432
469.6	0.480
469.8	0.474
470.0	0.500
470.2	0.505
470.4	0.539
470.6	0.549
470.8	0.600
471.0	0.615
471.2	0.620
471.4	0.601
471.6	0.637
471.8	0.653
472.0	0.642
472.2	0.684
472.4	0.726
472.6	0.778
472.8	0.803
473.0	0.796
473.2	0.751
473.4	0.793
473.6	0.828
473.8	0.920
474.0	0.954
474.2	0.956
474.4	0.966
474.6	0.976
474.8	0.945
475.0	1.017
475.2	1.064
475.4	1.123
475.6	1.167
475.8	1.167
476.0	1.128
476.2	1.152
476.4	1.212
476.6	1.323
476.8	1.401
477.0	1.458
477.2	1.460
477.4	1.511
477.6	1.585
477.8	1.656
478.0	1.695
478.2	1.699
478.4	1.715
478.6	1.780
478.8	1.837
479.0	1.948
479.2	2.048
479.4	2.197
479.6	2.300
479.8	2.375
480.0	2.377
480.2	2.428
480.4	2.527
480.6	2.696
480.8	2.700
481.0	2.703
481.2	2.676
481.4	2.785
481.6	2.882
481.8	3.107
482.0	3.199
482.2	3.307
482.4	3.457
482.6	3.570
482.8	3.546
483.0	3.659
483.2	3.753
483.4	3.844
483.6	4.186
483.8	4.412
484.0	4.480
484.2	4.519
484.4	4.634
484.6	4.700
484.8	4.994
485.0	5.242
485.2	5.386
485.4	5.450
485.6	5.620
485.8	5.689
486.0	5.901
486.2	6.193
486.4	6.462
486.6	6.694
486.8	6.884
487.0	6.927
487.2	7.128
487.4	7.309
487.6	7.493
487.8	7.792
488.0	8.061
488.2	8.226
488.4	8.378
488.6	8.613
488.8	8.838
489.0	9.226
489.2	9.697
489.4	10.05
489.6	10.32
489.8	10.60
490.0	10.78
490.2	10.98
490.4	11.25
490.6	11.52
490.8	11.89
491.0	12.36
491.2	12.71
491.4	13.14
491.6	13.48
491.8	13.94
492.0	14.42
492.2	14.63
492.4	14.77
492.6	15.08
492.8	15.34
493.0	15.88
493.2	16.52
493.4	16.87
493.6	17.35
493.8	17.85
494.0	18.43
494.2	19.06
494.4	19.34
494.6	19.68
494.8	20.03
495.0	20.36
495.2	20.93
495.4	21.54
495.6	21.73
495.8	22.24
496.0	22.90
496.2	23.47
496.4	24.18
496.6	24.89
496.8	25.45
497.0	25.91
497.2	26.59
497.4	27.15
497.6	27.78
497.8	28.41
498.0	28.91
498.2	29.45
498.4	30.05
498.6	30.63
498.8	31.12
499.0	31.57
499.2	32.09
499.4	32.90
499.6	33.65
499.8	34.43
500.0	35.16
500.2	36.05
500.4	36.94
500.6	37.93
500.8	38.50
501.0	39.04
501.2	39.75
501.4	40.38
501.6	41.19
501.8	42.16
502.0	42.74
502.2	43.32
502.4	44.15
502.6	45.00
502.8	45.98
503.0	47.37
503.2	48.17
503.4	48.66
503.6	49.58
503.8	50.37
504.0	51.09
504.2	52.23
504.4	52.83
504.6	53.35
504.8	54.05
505.0	54.86
505.2	55.79
505.4	57.08
505.6	58.10
505.8	59.09
506.0	59.65
506.2	60.51
506.4	61.24
506.6	61.68
506.8	62.56
507.0	63.57
507.2	64.51
507.4	65.77
507.6	66.79
507.8	67.11
508.0	68.23
508.2	69.03
508.4	69.77
508.6	70.80
508.8	71.49
509.0	72.47
509.2	73.75
509.4	74.65
509.6	75.48
509.8	76.52
510.0	76.92
510.2	78.22
510.4	79.48
510.6	80.34
510.8	81.51
511.0	82.32
511.2	82.79
511.4	83.57
511.6	84.80
511.8	85.68
512.0	86.86
512.2	88.08
512.4	89.21
512.6	89.80
512.8	90.77
513.0	91.43
513.2	91.89
513.4	92.39
513.6	93.24
513.8	94.11
514.0	95.43
514.2	97.14
514.4	98.34
514.6	99.01
514.8	99.58
515.0	100.1
515.2	100.6
515.4	101.6
515.6	102.7
515.8	103.8
516.0	104.6
516.2	105.9
516.4	106.8
516.6	107.5
516.8	108.2
517.0	109.0
517.2	109.5
517.4	110.7
517.6	111.6
517.8	111.7
518.0	112.2
518.2	113.0
518.4	113.5
518.6	114.5
518.8	115.4
519.0	116.1
519.2	117.0
519.4	117.9
519.6	118.5
519.8	119.7
520.0	120.3
520.2	121.0
520.4	121.4
520.6	122.0
520.8	122.1
521.0	123.2
521.2	124.3
521.4	125.1
521.6	125.7
521.8	126.2
522.0	126.2
522.2	126.9
522.4	127.6
522.6	128.3
522.8	128.7
523.0	129.4
523.2	130.2
523.4	131.0
523.6	132.0
523.8	132.6
524.0	132.7
524.2	133.5
524.4	133.7
524.6	134.1
524.8	134.7
525.0	135.4
525.2	136.2
525.4	136.8
525.6	137.0
525.8	137.2
526.0	137.5
526.2	138.0
526.4	138.5
526.6	139.4
526.8	139.9
527.0	140.4
527.2	141.1
527.4	141.1
527.6	141.9
527.8	142.3
528.0	142.4
528.2	142.7
528.4	142.3
528.6	142.5
528.8	143.3
529.0	143.6
529.2	144.6
529.4	145.2
529.6	145.4
529.8	145.3
530.0	145.6
530.2	146.0
530.4	146.9
530.6	147.1
530.8	147.1
531.0	146.5
531.2	147.0
531.4	147.2
531.6	147.6
531.8	147.5
532.0	147.3
532.2	147.2
532.4	148.2
532.6	149.5
532.8	149.9
533.0	149.9
533.2	149.6
533.4	148.9
533.6	149.2
533.8	150.0
534.0	150.1
534.2	150.3
534.4	150.1
534.6	149.7
534.8	149.9
535.0	150.0
535.2	150.4
535.4	150.9
535.6	151.7
535.8	151.3
536.0	151.2
536.2	151.0
536.4	151.2
536.6	151.4
536.8	152.4
537.0	152.2
537.2	152.5
537.4	152.3
537.6	152.3
537.8	152.4
538.0	152.3
538.2	152.1
538.4	152.0
538.6	151.7
538.8	152.1
539.0	152.4
539.2	152.1
539.4	151.8
539.6	151.6
539.8	152.1
540.0	151.9
540.2	152.0
540.4	152.1
540.6	152.2
540.8	151.9
541.0	151.8
541.2	151.4
541.4	151.0
541.6	151.2
541.8	151.2
542.0	151.0
542.2	151.0
542.4	151.8
542.6	152.4
542.8	152.4
543.0	151.9
543.2	151.6
543.4	151.2
543.6	150.4
543.8	150.5
544.0	150.2
544.2	150.5
544.4	150.9
544.6	150.9
544.8	150.3
545.0	150.0
545.2	149.6
545.4	149.6
545.6	149.6
545.8	149.2
546.0	148.7
546.2	148.6
546.4	148.5
546.6	148.8
546.8	149.4
547.0	149.0
547.2	148.4
547.4	148.1
547.6	147.7
547.8	147.6
548.0	147.9
548.2	147.3
548.4	146.8
548.6	146.1
548.8	146.0
549.0	146.3
549.2	146.8
549.4	146.3
549.6	145.9
549.8	144.8
550.0	144.5
550.2	144.3
550.4	144.8
550.6	144.7
550.8	144.6
551.0	144.2
551.2	143.7
551.4	143.0
551.6	143.0
551.8	142.6
552.0	142.2
552.2	142.1
552.4	141.7
552.6	141.4
552.8	141.1
553.0	140.8
553.2	140.9
553.4	141.3
553.6	141.7
553.8	141.6
554.0	140.4
554.2	139.7
554.4	139.4
554.6	139.4
554.8	139.2
555.0	138.9
555.2	138.0
555.4	137.2
555.6	137.4
555.8	137.2
556.0	136.6
556.2	137.0
556.4	136.7
556.6	136.3
556.8	136.6
557.0	135.8
557.2	135.1
557.4	135.1
557.6	134.2
557.8	133.7
558.0	133.2
558.2	133.1
558.4	133.4
558.6	133.6
558.8	132.8
559.0	132.1
559.2	131.7
559.4	132.0
559.6	131.9
559.8	131.8
560.0	131.1
560.2	130.2
560.4	129.6
560.6	129.1
560.8	128.8
561.0	128.7
561.2	128.7
561.4	128.2
561.6	128.1
561.8	128.0
562.0	128.2
562.2	127.8
562.4	127.3
562.6	126.6
562.8	126.3
563.0	126.2
563.2	126.2
563.4	125.9
563.6	125.7
563.8	125.3
564.0	124.6
564.2	124.0
564.4	123.4
564.6	122.9
564.8	122.5
565.0	122.0
565.2	121.5
565.4	121.3
565.6	120.9
565.8	120.9
566.0	120.5
566.2	119.8
566.4	119.6
566.6	119.2
566.8	119.0
567.0	119.4
567.2	119.4
567.4	118.6
567.6	118.0
567.8	117.3
568.0	116.5
568.2	116.4
568.4	116.2
568.6	115.7
568.8	115.5
569.0	115.7
569.2	114.9
569.4	114.4
569.6	113.6
569.8	112.9
570.0	112.4
570.2	112.3
570.4	111.9
570.6	111.6
570.8	111.3
571.0	111.3
571.2	111.5
571.4	111.3
571.6	110.3
571.8	110.0
572.0	109.5
572.2	109.3
572.4	109.7
572.6	109.1
572.8	108.3
573.0	108.6
573.2	108.0
573.4	108.1
573.6	107.7
573.8	106.8
574.0	106.2
574.2	105.5
574.4	104.8
574.6	104.7
574.8	104.4
575.0	103.7
575.2	103.5
575.4	102.8
575.6	102.5
575.8	102.6
576.0	102.5
576.2	102.2
576.4	102.2
576.6	101.6
576.8	100.8
577.0	100.4
577.2	99.80
577.4	99.61
577.6	99.76
577.8	98.99
578.0	98.30
578.2	97.72
578.4	97.33
578.6	97.05
578.8	97.15
579.0	96.75
579.2	96.39
579.4	95.95
579.6	95.45
579.8	95.29
580.0	95.20
580.2	95.11
580.4	94.81
580.6	94.01
580.8	93.59
581.0	92.80
581.2	92.43
581.4	92.44
581.6	91.99
581.8	91.56
582.0	91.28
582.2	90.51
582.4	90.39
582.6	90.34
582.8	89.98
583.0	89.72
583.2	89.64
583.4	89.01
583.6	88.56
583.8	88.43
584.0	87.87
584.2	87.52
584.4	87.44
584.6	86.45
584.8	86.25
585.0	86.17
585.2	86.01
585.4	85.90
585.6	85.13
585.8	84.65
586.0	84.10
586.2	83.77
586.4	83.85
586.6	83.64
586.8	82.99
587.0	82.82
587.2	82.06
587.4	82.14
587.6	81.66
587.8	81.26
588.0	80.66
588.2	80.30
588.4	80.10
588.6	80.27
588.8	79.73
589.0	79.31
589.2	79.08
589.4	79.00
589.6	78.59
589.8	77.89
590.0	77.29
590.2	76.90
590.4	77.26
590.6	77.20
590.8	76.95
591.0	76.19
591.2	75.66
591.4	75.34
591.6	75.33
591.8	74.82
592.0	74.50
592.2	74.05
592.4	73.69
592.6	73.55
592.8	73.19
593.0	72.84
593.2	72.61
593.4	72.31
593.6	71.94
593.8	71.90
594.0	71.54
594.2	71.14
594.4	70.93
594.6	70.41
594.8	69.70
595.0	69.57
595.2	69.34
595.4	69.19
595.6	69.01
595.8	68.73
596.0	68.05
596.2	67.83
596.4	67.60
596.6	67.47
596.8	67.28
597.0	66.82
597.2	66.27
597.4	66.00
597.6	65.64
597.8	65.23
598.0	65.05
598.2	64.53
598.4	64.43
598.6	64.21
598.8	64.01
599.0	63.67
599.2	63.55
599.4	63.03
599.6	62.87
599.8	62.41
600.0	62.32
600.2	62.08
600.4	61.84
600.6	60.98
600.8	60.65
601.0	60.42
601.2	60.36
601.4	60.37
601.6	59.70
601.8	59.04
602.0	58.75
602.2	58.91
602.4	58.97
602.6	59.04
602.8	58.81
603.0	58.48
603.2	58.13
603.4	57.93
603.6	57.48
603.8	57.01
604.0	56.93
604.2	56.36
604.4	56.09
604.6	56.12
604.8	55.89
605.0	55.50
605.2	55.09
605.4	54.39
605.6	54.13
605.8	53.98
606.0	53.62
606.2	52.95
606.4	52.45
606.6	52.28
606.8	52.80
607.0	53.00
607.2	52.98
607.4	52.52
607.6	52.14
607.8	51.95
608.0	51.79
608.2	51.60
608.4	51.09
608.6	50.53
608.8	50.45
609.0	50.35
609.2	49.78
609.4	49.67
609.6	49.32
609.8	48.86
610.0	48.77
610.2	48.65
610.4	48.17
610.6	48.03
610.8	47.92
611.0	47.56
611.2	47.30
611.4	46.94
611.6	46.54
611.8	46.44
612.0	46.28
612.2	46.02
612.4	45.63
612.6	45.35
612.8	45.13
613.0	45.20
613.2	45.05
613.4	45.04
613.6	44.75
613.8	44.69
614.0	44.48
614.2	44.46
614.4	44.14
614.6	43.91
614.8	43.32
615.0	43.06
615.2	42.64
615.4	42.25
615.6	42.01
615.8	42.00
616.0	41.76
616.2	41.87
616.4	41.46
616.6	40.99
616.8	40.75
617.0	40.64
617.2	40.29
617.4	40.14
617.6	39.96
617.8	39.58
618.0	39.29
618.2	39.01
618.4	38.87
618.6	38.89
618.8	38.82
619.0	38.57
619.2	38.44
619.4	38.25
619.6	38.28
619.8	38.02
620.0	37.58
620.2	37.27
620.4	36.98
620.6	36.81
620.8	36.75
621.0	36.71
621.2	36.52
621.4	36.33
621.6	36.02
621.8	35.66
622.0	35.31
622.2	35.13
622.4	34.96
622.6	34.91
622.8	34.67
623.0	34.39
623.2	34.06
623.4	33.62
623.6	33.61
623.8	33.57
624.0	33.42
624.2	33.31
624.4	33.13
624.6	32.98
624.8	32.78
625.0	32.42
625.2	32.29
625.4	32.12
625.6	32.11
625.8	32.04
626.0	31.80
626.2	31.59
626.4	31.49
626.6	31.05
626.8	30.86
627.0	30.73
627.2	30.53
627.4	30.64
627.6	30.82
627.8	30.36
628.0	30.03
628.2	29.74
628.4	29.38
628.6	29.50
628.8	29.74
629.0	29.32
629.2	28.90
629.4	28.56
629.6	28.34
629.8	28.18
630.0	28.33
630.2	28.32
630.4	28.22
630.6	28.25
630.8	27.94
631.0	27.40
631.2	27.09
631.4	26.79
631.6	26.67
631.8	26.72
632.0	26.73
632.2	26.62
632.4	26.56
632.6	26.34
632.8	26.30
633.0	26.13
633.2	25.84
633.4	25.79
633.6	25.71
633.8	25.46
634.0	25.12
634.2	24.78
634.4	24.65
634.6	24.94
634.8	24.99
635.0	24.97
635.2	24.59
635.4	24.25
635.6	23.99
635.8	23.76
636.0	23.45
636.2	23.27
636.4	23.21
636.6	23.30
636.8	23.29
637.0	23.44
637.2	23.33
637.4	23.09
637.6	22.81
637.8	22.61
638.0	22.41
638.2	22.47
638.4	22.40
638.6	22.25
638.8	21.96
639.0	21.84
639.2	21.72
639.4	21.53
639.6	21.33
639.8	20.96
640.0	20.58
640.2	20.60
640.4	20.63
640.6	20.72
640.8	20.73
641.0	20.78
641.2	20.87
641.4	20.63
641.6	20.32
641.8	19.89
642.0	19.34
642.2	19.20
642.4	19.43
642.6	19.40
642.8	19.64
643.0	19.51
643.2	19.22
643.4	19.01
643.6	19.11
643.8	18.94
644.0	18.76
644.2	18.46
644.4	18.30
644.6	18.13
644.8	18.17
645.0	17.99
645.2	17.85
645.4	17.87
645.6	18.01
645.8	18.04
646.0	17.97
646.2	17.81
646.4	17.58
646.6	17.41
646.8	17.39
647.0	17.43
647.2	17.44
647.4	17.21
647.6	16.87
647.8	16.54
648.0	16.48
648.2	16.43
648.4	16.42
648.6	16.22
648.8	16.16
649.0	16.17
649.2	16.33
649.4	16.34
649.6	16.19
649.8	15.85
650.0	15.74
650.2	15.50
650.4	15.47
650.6	15.45
650.8	15.40
651.0	15.24
651.2	15.14
651.4	14.94
651.6	15.00
651.8	14.96
652.0	14.92
652.2	14.92
652.4	14.59
652.6	14.53
652.8	14.43
653.0	14.40
653.2	14.45
653.4	14.49
653.6	14.26
653.8	14.27
654.0	13.98
654.2	13.87
654.4	13.88
654.6	13.69
654.8	13.66
655.0	13.68
655.2	13.47
655.4	13.42
655.6	13.32
655.8	13.17
656.0	13.12
656.2	13.08
656.4	12.99
656.6	13.14
656.8	12.96
657.0	12.72
657.2	12.51
657.4	12.42
657.6	12.50
657.8	12.65
658.0	12.56
658.2	12.39
658.4	12.12
658.6	11.98
658.8	11.96
659.0	11.95
659.2	11.90
659.4	11.91
659.6	11.63
659.8	11.58
660.0	11.48
660.2	11.54
660.4	11.46
660.6	11.40
660.8	11.30
661.0	11.26
661.2	11.12
661.4	11.15
661.6	11.02
661.8	10.99
662.0	11.05
662.2	10.94
662.4	10.91
662.6	10.90
662.8	10.71
663.0	10.70
663.2	10.68
663.4	10.55
663.6	10.58
663.8	10.54
664.0	10.46
664.2	10.35
664.4	10.18
664.6	10.01
664.8	9.872
665.0	9.879
665.2	9.850
665.4	9.885
665.6	9.874
665.8	9.839
666.0	9.789
666.2	9.838
666.4	9.748
666.6	9.740
666.8	9.593
667.0	9.375
667.2	9.191
667.4	9.135
667.6	9.118
667.8	9.016
668.0	9.029
668.2	8.923
668.4	8.782
668.6	8.731
668.8	8.834
669.0	8.832
669.2	8.907
669.4	8.784
669.6	8.744
669.8	8.571
670.0	8.499
670.2	8.315
670.4	8.362
670.6	8.336
670.8	8.483
671.0	8.482
671.2	8.318
671.4	8.017
671.6	8.037
671.8	8.040
672.0	8.119
672.2	8.181
672.4	8.109
672.6	8.034
672.8	8.019
673.0	8.076
673.2	8.066
673.4	7.937
673.6	7.791
673.8	7.649
674.0	7.620
674.2	7.698
674.4	7.710
674.6	7.570
674.8	7.459
675.0	7.413
675.2	7.466
675.4	7.531
675.6	7.482
675.8	7.314
676.0	7.189
676.2	7.183
676.4	7.152
676.6	7.103
676.8	7.096
677.0	7.047
677.2	7.064
677.4	7.116
677.6	7.131
677.8	6.950
678.0	6.843
678.2	6.760
678.4	6.751
678.6	6.709
678.8	6.673
679.0	6.522
679.2	6.466
679.4	6.432
679.6	6.443
679.8	6.499
680.0	6.496
680.2	6.431
680.4	6.410
680.6	6.300
680.8	6.298
681.0	6.318
681.2	6.297
681.4	6.178
681.6	6.123
681.8	6.054
682.0	6.069
682.2	5.924
682.4	5.949
682.6	5.986
682.8	6.024
683.0	5.999
683.2	5.959
683.4	5.827
683.6	5.811
683.8	5.837
684.0	5.771
684.2	5.707
684.4	5.688
684.6	5.661
684.8	5.617
685.0	5.663
685.2	5.584
685.4	5.551
685.6	5.468
685.8	5.402
686.0	5.322
686.2	5.414
686.4	5.393
686.6	5.456
686.8	5.278
687.0	5.188
687.2	5.110
687.4	5.061
687.6	5.067
687.8	5.141
688.0	5.036
688.2	5.049
688.4	5.100
688.6	5.060
688.8	5.044
689.0	4.980
689.2	4.862
689.4	4.867
689.6	4.916
689.8	4.931
690.0	4.985
690.2	4.981
690.4	4.895
690.6	4.896
690.8	4.817
691.0	4.803
691.2	4.782
691.4	4.771
691.6	4.695
691.8	4.727
692.0	4.724
692.2	4.694
692.4	4.604
692.6	4.557
692.8	4.496
693.0	4.494
693.2	4.507
693.4	4.403
693.6	4.433
693.8	4.403
694.0	4.405
694.2	4.381
694.4	4.300
694.6	4.234
694.8	4.219
695.0	4.160
695.2	4.157
695.4	4.240
695.6	4.276
695.8	4.301
696.0	4.196
696.2	4.106
696.4	4.095
696.6	4.155
696.8	4.259
697.0	4.232
697.2	4.115
697.4	4.009
697.6	4.002
697.8	3.951
698.0	3.956
698.2	3.911
698.4	3.897
698.6	4.000
698.8	4.063
699.0	4.008
699.2	3.942
699.4	3.875
699.6	3.754
699.8	3.825
700.0	3.828
700.2	3.776
700.4	3.795
700.6	3.776
700.8	3.742
701.0	3.816
701.2	3.831
701.4	3.777
701.6	3.751
701.8	3.685
702.0	3.709
702.2	3.770
702.4	3.753
702.6	3.650
702.8	3.568
703.0	3.517
703.2	3.536
703.4	3.649
703.6	3.589
703.8	3.479
704.0	3.456
704.2	3.360
704.4	3.341
704.6	3.378
704.8	3.268
705.0	3.333
705.2	3.446
705.4	3.394
705.6	3.407
705.8	3.335
706.0	3.237
706.2	3.271
706.4	3.282
706.6	3.279
706.8	3.270
707.0	3.265
707.2	3.295
707.4	3.276
707.6	3.275
707.8	3.281
708.0	3.248
708.2	3.252
708.4	3.240
708.6	3.153
708.8	3.070
709.0	3.020
709.2	3.029
709.4	3.077
709.6	3.053
709.8	3.030
710.0	3.007
710.2	3.040
710.4	3.094
710.6	3.160
710.8	3.063
711.0	2.993
711.2	2.959
711.4	2.917
711.6	2.814
711.8	2.829
712.0	2.786
712.2	2.813
712.4	2.859
712.6	2.910
712.8	2.754
713.0	2.772
