Sample:	'20211010A(EM)
File name:	g-ni-cds-cho 1;15 408v.FDS
Run date:	'10:59:04, 03/22/2023
Operator:	Administrator
Comment:	'

Instrument
Model:	F-4700 FL Spectrophotometer
Serial number:	2019-001
ROM Version:	5J24010 00

Instrument parameters
Measurement type:	Wavelength scan
Scan mode:	Emission
Data mode:	Fluorescence
EX WL:	410.0 nm
EM  Start WL:	430.0 nm
EM  End WL:	850.0 nm
Scan speed:	1200 nm/min
Delay:	0.0 s
EX Slit:	10.0 nm
EM Slit:	10.0 nm
PMT Voltage:	408 V
Response:	0.002 s
Corrected spectra:	Off
Shutter control:	On

Processing performed
Savitsky-Golay smoothed
Smoothing order:	3
Number of points:	7
Number of times:	1

Peak integration
Integration method:	Rectangular
Sensitivity:	1
Threshold:	1.000

Peaks
No.	Start(nm)	Apex(nm)	End(nm)	Height(Data)	Valley(nm)	Valley(Data)
1	430.0	526.2	795.4	8268	795.4	3.445
2	795.4	823.6	850.0	25.17	850.0	1.867

Data points
nm	Data
430.0	13.42
430.2	13.25
430.4	13.37
430.6	13.67
430.8	14.03
431.0	14.29
431.2	14.54
431.4	14.50
431.6	14.71
431.8	15.04
432.0	15.29
432.2	15.66
432.4	15.93
432.6	16.06
432.8	16.36
433.0	16.59
433.2	16.81
433.4	17.16
433.6	17.50
433.8	17.84
434.0	18.14
434.2	18.50
434.4	19.07
434.6	19.53
434.8	19.78
435.0	19.99
435.2	20.26
435.4	20.64
435.6	21.29
435.8	21.94
436.0	22.36
436.2	22.79
436.4	23.19
436.6	23.59
436.8	23.85
437.0	24.18
437.2	24.72
437.4	25.27
437.6	25.89
437.8	26.60
438.0	27.22
438.2	27.78
438.4	28.40
438.6	28.84
438.8	29.61
439.0	30.39
439.2	31.18
439.4	31.89
439.6	32.57
439.8	33.11
440.0	33.78
440.2	34.47
440.4	35.43
440.6	36.20
440.8	37.20
441.0	38.11
441.2	38.84
441.4	39.54
441.6	40.47
441.8	41.34
442.0	42.54
442.2	43.63
442.4	44.69
442.6	45.45
442.8	45.83
443.0	47.01
443.2	48.24
443.4	49.55
443.6	50.96
443.8	51.96
444.0	52.62
444.2	53.88
444.4	55.26
444.6	56.52
444.8	57.84
445.0	59.02
445.2	60.52
445.4	62.26
445.6	64.04
445.8	65.41
446.0	66.71
446.2	67.87
446.4	69.13
446.6	70.45
446.8	71.81
447.0	73.57
447.2	75.49
447.4	77.39
447.6	79.26
447.8	80.96
448.0	82.86
448.2	84.70
448.4	86.50
448.6	88.60
448.8	90.49
449.0	92.57
449.2	95.02
449.4	97.31
449.6	99.53
449.8	102.3
450.0	104.8
450.2	107.7
450.4	110.6
450.6	112.9
450.8	115.3
451.0	118.0
451.2	120.8
451.4	124.1
451.6	126.8
451.8	129.8
452.0	132.9
452.2	136.3
452.4	139.4
452.6	143.4
452.8	147.1
453.0	151.4
453.2	155.1
453.4	160.4
453.6	164.3
453.8	168.8
454.0	173.5
454.2	178.1
454.4	182.6
454.6	188.8
454.8	193.7
455.0	199.5
455.2	205.2
455.4	210.8
455.6	217.1
455.8	223.6
456.0	229.5
456.2	236.9
456.4	243.4
456.6	249.5
456.8	256.5
457.0	263.5
457.2	271.1
457.4	278.6
457.6	286.3
457.8	294.6
458.0	302.9
458.2	312.6
458.4	322.9
458.6	331.5
458.8	340.6
459.0	350.5
459.2	360.3
459.4	372.8
459.6	385.0
459.8	396.6
460.0	407.6
460.2	418.6
460.4	429.7
460.6	442.5
460.8	456.2
461.0	470.7
461.2	484.2
461.4	498.5
461.6	512.0
461.8	525.9
462.0	540.3
462.2	554.1
462.4	568.4
462.6	585.7
462.8	603.8
463.0	621.9
463.2	638.9
463.4	654.1
463.6	668.9
463.8	685.7
464.0	704.4
464.2	724.9
464.4	745.1
464.6	764.8
464.8	784.5
465.0	804.3
465.2	824.8
465.4	847.1
465.6	867.8
465.8	887.7
466.0	909.5
466.2	931.0
466.4	953.3
466.6	977.5
466.8	1000
467.0	1022
467.2	1045
467.4	1068
467.6	1091
467.8	1115
468.0	1140
468.2	1163
468.4	1188
468.6	1213
468.8	1240
469.0	1268
469.2	1296
469.4	1323
469.6	1349
469.8	1375
470.0	1401
470.2	1430
470.4	1457
470.6	1485
470.8	1512
471.0	1541
471.2	1569
471.4	1598
471.6	1626
471.8	1654
472.0	1680
472.2	1710
472.4	1737
472.6	1766
472.8	1795
473.0	1822
473.2	1849
473.4	1878
473.6	1905
473.8	1936
474.0	1968
474.2	1999
474.4	2029
474.6	2057
474.8	2085
475.0	2115
475.2	2142
475.4	2173
475.6	2200
475.8	2228
476.0	2255
476.2	2283
476.4	2312
476.6	2341
476.8	2368
477.0	2398
477.2	2426
477.4	2456
477.6	2487
477.8	2516
478.0	2544
478.2	2571
478.4	2595
478.6	2620
478.8	2647
479.0	2678
479.2	2708
479.4	2735
479.6	2762
479.8	2786
480.0	2811
480.2	2839
480.4	2865
480.6	2895
480.8	2924
481.0	2950
481.2	2977
481.4	3003
481.6	3026
481.8	3054
482.0	3079
482.2	3105
482.4	3132
482.6	3158
482.8	3181
483.0	3207
483.2	3232
483.4	3260
483.6	3286
483.8	3313
484.0	3334
484.2	3360
484.4	3386
484.6	3410
484.8	3434
485.0	3461
485.2	3485
485.4	3514
485.6	3540
485.8	3565
486.0	3589
486.2	3611
486.4	3635
486.6	3663
486.8	3689
487.0	3717
487.2	3742
487.4	3767
487.6	3790
487.8	3817
488.0	3844
488.2	3868
488.4	3893
488.6	3919
488.8	3944
489.0	3973
489.2	3999
489.4	4024
489.6	4048
489.8	4073
490.0	4098
490.2	4124
490.4	4152
490.6	4181
490.8	4211
491.0	4239
491.2	4261
491.4	4285
491.6	4312
491.8	4344
492.0	4375
492.2	4401
492.4	4427
492.6	4450
492.8	4477
493.0	4507
493.2	4536
493.4	4565
493.6	4595
493.8	4624
494.0	4655
494.2	4684
494.4	4715
494.6	4746
494.8	4775
495.0	4805
495.2	4836
495.4	4865
495.6	4893
495.8	4922
496.0	4955
496.2	4984
496.4	5018
496.6	5050
496.8	5077
497.0	5102
497.2	5130
497.4	5157
497.6	5187
497.8	5221
498.0	5253
498.2	5285
498.4	5316
498.6	5350
498.8	5379
499.0	5416
499.2	5447
499.4	5479
499.6	5511
499.8	5545
500.0	5582
500.2	5622
500.4	5658
500.6	5688
500.8	5717
501.0	5750
501.2	5785
501.4	5817
501.6	5850
501.8	5879
502.0	5907
502.2	5937
502.4	5967
502.6	5998
502.8	6027
503.0	6059
503.2	6089
503.4	6118
503.6	6149
503.8	6181
504.0	6216
504.2	6254
504.4	6290
504.6	6323
504.8	6353
505.0	6388
505.2	6420
505.4	6456
505.6	6493
505.8	6525
506.0	6559
506.2	6591
506.4	6621
506.6	6650
506.8	6675
507.0	6699
507.2	6726
507.4	6755
507.6	6788
507.8	6814
508.0	6842
508.2	6870
508.4	6898
508.6	6928
508.8	6954
509.0	6985
509.2	7019
509.4	7055
509.6	7085
509.8	7110
510.0	7132
510.2	7158
510.4	7186
510.6	7220
510.8	7244
511.0	7268
511.2	7290
511.4	7312
511.6	7336
511.8	7361
512.0	7386
512.2	7410
512.4	7435
512.6	7459
512.8	7472
513.0	7492
513.2	7511
513.4	7529
513.6	7554
513.8	7578
514.0	7603
514.2	7628
514.4	7648
514.6	7668
514.8	7686
515.0	7714
515.2	7739
515.4	7765
515.6	7789
515.8	7809
516.0	7821
516.2	7835
516.4	7841
516.6	7855
516.8	7867
517.0	7881
517.2	7892
517.4	7902
517.6	7917
517.8	7932
518.0	7951
518.2	7971
518.4	7988
518.6	8005
518.8	8022
519.0	8032
519.2	8043
519.4	8055
519.6	8063
519.8	8075
520.0	8091
520.2	8100
520.4	8110
520.6	8122
520.8	8129
521.0	8138
521.2	8144
521.4	8150
521.6	8155
521.8	8160
522.0	8171
522.2	8183
522.4	8187
522.6	8195
522.8	8196
523.0	8199
523.2	8208
523.4	8216
523.6	8223
523.8	8230
524.0	8235
524.2	8242
524.4	8250
524.6	8251
524.8	8248
525.0	8245
525.2	8246
525.4	8250
525.6	8260
525.8	8265
526.0	8265
526.2	8268
526.4	8266
526.6	8267
526.8	8263
527.0	8263
527.2	8263
527.4	8264
527.6	8265
527.8	8265
528.0	8262
528.2	8260
528.4	8257
528.6	8259
528.8	8253
529.0	8253
529.2	8253
529.4	8249
529.6	8253
529.8	8252
530.0	8242
530.2	8236
530.4	8231
530.6	8226
530.8	8221
531.0	8211
531.2	8203
531.4	8196
531.6	8192
531.8	8188
532.0	8178
532.2	8168
532.4	8159
532.6	8156
532.8	8147
533.0	8146
533.2	8142
533.4	8139
533.6	8136
533.8	8128
534.0	8116
534.2	8110
534.4	8102
534.6	8100
534.8	8096
535.0	8086
535.2	8079
535.4	8068
535.6	8051
535.8	8038
536.0	8021
536.2	8003
536.4	7990
536.6	7977
536.8	7965
537.0	7958
537.2	7948
537.4	7941
537.6	7938
537.8	7927
538.0	7919
538.2	7908
538.4	7897
538.6	7894
538.8	7889
539.0	7877
539.2	7871
539.4	7861
539.6	7851
539.8	7841
540.0	7826
540.2	7813
540.4	7795
540.6	7779
540.8	7756
541.0	7741
541.2	7725
541.4	7709
541.6	7690
541.8	7670
542.0	7648
542.2	7636
542.4	7623
542.6	7613
542.8	7601
543.0	7585
543.2	7570
543.4	7557
543.6	7549
543.8	7534
544.0	7521
544.2	7507
544.4	7494
544.6	7481
544.8	7466
545.0	7446
545.2	7429
545.4	7411
545.6	7395
545.8	7371
546.0	7350
546.2	7330
546.4	7312
546.6	7298
546.8	7284
547.0	7262
547.2	7249
547.4	7231
547.6	7214
547.8	7199
548.0	7181
548.2	7165
548.4	7152
548.6	7141
548.8	7125
549.0	7103
549.2	7081
549.4	7064
549.6	7048
549.8	7036
550.0	7017
550.2	6996
550.4	6974
550.6	6950
550.8	6928
551.0	6908
551.2	6894
551.4	6879
551.6	6862
551.8	6838
552.0	6815
552.2	6799
552.4	6786
552.6	6772
552.8	6756
553.0	6732
553.2	6711
553.4	6689
553.6	6668
553.8	6646
554.0	6626
554.2	6606
554.4	6586
554.6	6566
554.8	6547
555.0	6525
555.2	6502
555.4	6477
555.6	6455
555.8	6434
556.0	6414
556.2	6398
556.4	6378
556.6	6363
556.8	6343
557.0	6325
557.2	6307
557.4	6287
557.6	6270
557.8	6252
558.0	6227
558.2	6210
558.4	6193
558.6	6172
558.8	6152
559.0	6131
559.2	6109
559.4	6090
559.6	6070
559.8	6046
560.0	6019
560.2	5998
560.4	5976
560.6	5958
560.8	5937
561.0	5915
561.2	5894
561.4	5873
561.6	5852
561.8	5831
562.0	5806
562.2	5789
562.4	5768
562.6	5751
562.8	5734
563.0	5715
563.2	5693
563.4	5670
563.6	5648
563.8	5626
564.0	5606
564.2	5589
564.4	5565
564.6	5543
564.8	5523
565.0	5498
565.2	5478
565.4	5457
565.6	5433
565.8	5412
566.0	5390
566.2	5370
566.4	5357
566.6	5339
566.8	5317
567.0	5291
567.2	5272
567.4	5252
567.6	5238
567.8	5220
568.0	5197
568.2	5175
568.4	5154
568.6	5132
568.8	5111
569.0	5089
569.2	5069
569.4	5049
569.6	5028
569.8	5004
570.0	4982
570.2	4962
570.4	4940
570.6	4915
570.8	4897
571.0	4874
571.2	4857
571.4	4836
571.6	4816
571.8	4793
572.0	4774
572.2	4755
572.4	4739
572.6	4720
572.8	4702
573.0	4684
573.2	4664
573.4	4642
573.6	4623
573.8	4605
574.0	4585
574.2	4565
574.4	4543
574.6	4519
574.8	4498
575.0	4475
575.2	4452
575.4	4432
575.6	4415
575.8	4396
576.0	4379
576.2	4360
576.4	4340
576.6	4321
576.8	4302
577.0	4283
577.2	4267
577.4	4252
577.6	4233
577.8	4214
578.0	4193
578.2	4175
578.4	4157
578.6	4141
578.8	4119
579.0	4096
579.2	4078
579.4	4061
579.6	4041
579.8	4023
580.0	3998
580.2	3977
580.4	3957
580.6	3937
580.8	3918
581.0	3898
581.2	3879
581.4	3864
581.6	3847
581.8	3831
582.0	3814
582.2	3799
582.4	3782
582.6	3766
582.8	3751
583.0	3733
583.2	3716
583.4	3699
583.6	3678
583.8	3659
584.0	3641
584.2	3621
584.4	3601
584.6	3581
584.8	3563
585.0	3546
585.2	3529
585.4	3514
585.6	3496
585.8	3478
586.0	3461
586.2	3444
586.4	3428
586.6	3412
586.8	3397
587.0	3379
587.2	3363
587.4	3346
587.6	3330
587.8	3316
588.0	3300
588.2	3285
588.4	3270
588.6	3253
588.8	3237
589.0	3224
589.2	3206
589.4	3187
589.6	3168
589.8	3149
590.0	3129
590.2	3114
590.4	3099
590.6	3083
590.8	3071
591.0	3056
591.2	3040
591.4	3024
591.6	3009
591.8	2994
592.0	2982
592.2	2968
592.4	2953
592.6	2936
592.8	2923
593.0	2908
593.2	2896
593.4	2878
593.6	2860
593.8	2844
594.0	2827
594.2	2812
594.4	2798
594.6	2781
594.8	2768
595.0	2754
595.2	2738
595.4	2726
595.6	2711
595.8	2696
596.0	2683
596.2	2671
596.4	2660
596.6	2649
596.8	2633
597.0	2617
597.2	2603
597.4	2588
597.6	2574
597.8	2562
598.0	2548
598.2	2535
598.4	2524
598.6	2508
598.8	2493
599.0	2478
599.2	2461
599.4	2446
599.6	2433
599.8	2421
600.0	2410
600.2	2399
600.4	2386
600.6	2372
600.8	2359
601.0	2348
601.2	2337
601.4	2325
601.6	2312
601.8	2298
602.0	2284
602.2	2274
602.4	2263
602.6	2249
602.8	2237
603.0	2224
603.2	2212
603.4	2201
603.6	2189
603.8	2177
604.0	2164
604.2	2150
604.4	2136
604.6	2124
604.8	2114
605.0	2102
605.2	2091
605.4	2078
605.6	2066
605.8	2055
606.0	2045
606.2	2033
606.4	2022
606.6	2010
606.8	1998
607.0	1986
607.2	1976
607.4	1964
607.6	1955
607.8	1943
608.0	1929
608.2	1917
608.4	1905
608.6	1892
608.8	1881
609.0	1869
609.2	1859
609.4	1849
609.6	1839
609.8	1830
610.0	1819
610.2	1809
610.4	1801
610.6	1792
610.8	1780
611.0	1766
611.2	1754
611.4	1743
611.6	1736
611.8	1727
612.0	1713
612.2	1700
612.4	1691
612.6	1682
612.8	1675
613.0	1663
613.2	1651
613.4	1638
613.6	1627
613.8	1619
614.0	1608
614.2	1597
614.4	1589
614.6	1580
614.8	1571
615.0	1565
615.2	1556
615.4	1549
615.6	1540
615.8	1530
616.0	1519
616.2	1509
616.4	1500
616.6	1492
616.8	1482
617.0	1475
617.2	1466
617.4	1457
617.6	1446
617.8	1435
618.0	1422
618.2	1413
618.4	1403
618.6	1394
618.8	1385
619.0	1376
619.2	1369
619.4	1363
619.6	1354
619.8	1346
620.0	1337
620.2	1329
620.4	1322
620.6	1314
620.8	1305
621.0	1297
621.2	1288
621.4	1281
621.6	1274
621.8	1264
622.0	1255
622.2	1246
622.4	1238
622.6	1231
622.8	1222
623.0	1213
623.2	1206
623.4	1200
623.6	1192
623.8	1183
624.0	1174
624.2	1166
624.4	1159
624.6	1155
624.8	1150
625.0	1143
625.2	1135
625.4	1128
625.6	1120
625.8	1112
626.0	1105
626.2	1096
626.4	1088
626.6	1080
626.8	1073
627.0	1067
627.2	1060
627.4	1051
627.6	1041
627.8	1033
628.0	1026
628.2	1021
628.4	1015
628.6	1008
628.8	1002
629.0	995.5
629.2	990.3
629.4	985.7
629.6	978.7
629.8	971.2
630.0	964.5
630.2	956.9
630.4	951.7
630.6	947.8
630.8	940.9
631.0	933.2
631.2	927.1
631.4	919.7
631.6	912.0
631.8	905.6
632.0	898.5
632.2	891.5
632.4	886.2
632.6	881.2
632.8	875.4
633.0	869.1
633.2	864.3
633.4	859.3
633.6	853.7
633.8	848.6
634.0	842.0
634.2	834.1
634.4	828.6
634.6	822.9
634.8	816.7
635.0	810.4
635.2	805.0
635.4	800.4
635.6	796.4
635.8	792.0
636.0	785.6
636.2	778.9
636.4	773.4
636.6	768.2
636.8	763.6
637.0	759.3
637.2	754.1
637.4	749.1
637.6	742.9
637.8	736.7
638.0	731.3
638.2	726.5
638.4	722.2
638.6	717.6
638.8	711.6
639.0	706.5
639.2	702.4
639.4	698.3
639.6	693.1
639.8	688.9
640.0	683.5
640.2	677.9
640.4	673.2
640.6	668.0
640.8	663.2
641.0	659.8
641.2	655.1
641.4	650.5
641.6	646.0
641.8	641.4
642.0	637.8
642.2	633.3
642.4	628.1
642.6	622.7
642.8	617.9
643.0	613.5
643.2	610.3
643.4	606.8
643.6	602.8
643.8	598.1
644.0	593.8
644.2	589.7
644.4	586.2
644.6	582.2
644.8	578.6
645.0	574.2
645.2	570.2
645.4	566.5
645.6	560.5
645.8	555.6
646.0	551.6
646.2	547.8
646.4	545.1
646.6	542.4
646.8	538.1
647.0	534.2
647.2	529.9
647.4	524.7
647.6	520.5
647.8	516.9
648.0	514.8
648.2	512.3
648.4	508.8
648.6	504.1
648.8	500.5
649.0	497.3
649.2	493.5
649.4	489.3
649.6	484.4
649.8	479.8
650.0	476.9
650.2	474.3
650.4	471.6
650.6	468.4
650.8	465.4
651.0	461.9
651.2	458.8
651.4	455.1
651.6	452.2
651.8	448.4
652.0	445.6
652.2	442.6
652.4	439.6
652.6	436.7
652.8	433.5
653.0	429.7
653.2	426.1
653.4	422.9
653.6	419.5
653.8	417.4
654.0	415.0
654.2	411.5
654.4	408.1
654.6	404.7
654.8	401.5
655.0	398.6
655.2	395.5
655.4	392.1
655.6	389.3
655.8	386.6
656.0	384.3
656.2	381.4
656.4	378.5
656.6	375.6
656.8	372.9
657.0	370.5
657.2	367.5
657.4	365.5
657.6	362.5
657.8	359.9
658.0	357.9
658.2	355.1
658.4	351.9
658.6	350.7
658.8	347.9
659.0	345.7
659.2	342.9
659.4	339.4
659.6	336.8
659.8	334.7
660.0	332.0
660.2	328.2
660.4	325.0
660.6	322.1
660.8	320.4
661.0	318.6
661.2	316.4
661.4	313.1
661.6	311.0
661.8	308.8
662.0	307.2
662.2	305.1
662.4	302.7
662.6	300.6
662.8	298.4
663.0	296.2
663.2	294.5
663.4	292.3
663.6	289.9
663.8	287.6
664.0	285.1
664.2	282.0
664.4	280.0
664.6	278.1
664.8	276.4
665.0	274.7
665.2	272.6
665.4	270.0
665.6	268.2
665.8	266.5
666.0	264.5
666.2	262.3
666.4	259.9
666.6	257.8
666.8	256.0
667.0	254.6
667.2	252.8
667.4	250.8
667.6	249.4
667.8	248.0
668.0	246.3
668.2	244.1
668.4	242.0
668.6	239.5
668.8	237.5
669.0	235.2
669.2	233.2
669.4	231.1
669.6	229.3
669.8	227.8
670.0	226.9
670.2	225.7
670.4	224.7
670.6	222.8
670.8	220.2
671.0	217.7
671.2	215.6
671.4	213.7
671.6	212.4
671.8	211.0
672.0	209.9
672.2	208.2
672.4	206.9
672.6	205.1
672.8	203.9
673.0	201.8
673.2	200.6
673.4	198.7
673.6	197.6
673.8	196.4
674.0	195.1
674.2	193.0
674.4	191.8
674.6	190.4
674.8	188.9
675.0	187.8
675.2	186.1
675.4	184.4
675.6	182.9
675.8	181.4
676.0	180.1
676.2	179.3
676.4	178.2
676.6	176.6
676.8	175.1
677.0	173.2
677.2	172.1
677.4	170.5
677.6	169.0
677.8	167.7
678.0	166.8
678.2	165.2
678.4	163.9
678.6	162.5
678.8	161.4
679.0	160.0
679.2	159.0
679.4	157.6
679.6	156.6
679.8	155.9
680.0	155.1
680.2	153.5
680.4	152.2
680.6	150.9
680.8	150.2
681.0	149.1
681.2	147.9
681.4	146.5
681.6	144.8
681.8	143.7
682.0	143.1
682.2	141.7
682.4	140.5
682.6	139.5
682.8	138.2
683.0	137.0
683.2	136.3
683.4	135.2
683.6	134.5
683.8	133.6
684.0	132.4
684.2	131.0
684.4	130.1
684.6	129.4
684.8	128.6
685.0	127.4
685.2	126.4
685.4	125.3
685.6	124.5
685.8	123.9
686.0	123.0
686.2	121.9
686.4	121.2
686.6	119.9
686.8	118.5
687.0	117.5
687.2	116.7
687.4	115.9
687.6	115.4
687.8	114.4
688.0	113.1
688.2	111.8
688.4	110.7
688.6	109.9
688.8	109.3
689.0	108.6
689.2	107.8
689.4	107.2
689.6	106.8
689.8	106.2
690.0	105.3
690.2	104.0
690.4	102.9
690.6	102.0
690.8	101.5
691.0	100.6
691.2	99.72
691.4	98.85
691.6	97.92
691.8	97.05
692.0	96.80
692.2	96.06
692.4	95.48
692.6	94.86
692.8	94.15
693.0	93.69
693.2	93.48
693.4	92.57
693.6	91.62
693.8	90.71
694.0	90.13
694.2	89.56
694.4	88.97
694.6	87.73
694.8	87.05
695.0	86.54
695.2	86.42
695.4	85.94
695.6	85.21
695.8	84.25
696.0	83.58
696.2	83.20
696.4	82.65
696.6	81.90
696.8	81.20
697.0	80.74
697.2	80.15
697.4	79.96
697.6	79.32
697.8	78.77
698.0	77.99
698.2	77.39
698.4	76.87
698.6	76.66
698.8	76.35
699.0	75.62
699.2	74.62
699.4	73.73
699.6	73.06
699.8	72.67
700.0	72.61
700.2	71.98
700.4	71.57
700.6	71.23
700.8	70.83
701.0	70.35
701.2	70.26
701.4	69.86
701.6	69.38
701.8	68.57
702.0	67.77
702.2	66.90
702.4	66.62
702.6	66.68
702.8	66.40
703.0	65.95
703.2	65.54
703.4	64.81
703.6	64.48
703.8	64.36
704.0	63.76
704.2	63.34
704.4	62.87
704.6	62.31
704.8	61.82
705.0	61.56
705.2	60.91
705.4	60.24
705.6	60.10
705.8	60.01
706.0	59.56
706.2	59.34
706.4	58.68
706.6	58.00
706.8	57.61
707.0	57.36
707.2	57.25
707.4	57.10
707.6	56.63
707.8	56.24
708.0	55.55
708.2	55.04
708.4	54.93
708.6	54.27
708.8	53.59
709.0	53.19
709.2	52.67
709.4	52.29
709.6	52.25
709.8	51.79
710.0	51.53
710.2	51.46
710.4	51.17
710.6	50.86
710.8	50.54
711.0	50.21
711.2	49.91
711.4	49.69
711.6	49.19
711.8	48.60
712.0	47.97
712.2	47.71
712.4	47.35
712.6	47.11
712.8	46.89
713.0	46.48
713.2	46.12
713.4	45.87
713.6	45.38
713.8	44.97
714.0	44.79
714.2	44.28
714.4	44.10
714.6	43.73
714.8	43.13
715.0	42.79
715.2	42.65
715.4	42.24
715.6	42.19
715.8	41.94
716.0	41.54
716.2	41.21
716.4	41.19
716.6	40.70
716.8	40.49
717.0	40.05
717.2	39.73
717.4	39.31
717.6	39.42
717.8	39.14
718.0	38.88
718.2	38.43
718.4	38.01
718.6	37.56
718.8	37.35
719.0	37.09
719.2	36.84
719.4	36.54
719.6	36.21
719.8	35.88
720.0	35.58
720.2	35.36
720.4	35.18
720.6	34.91
720.8	34.69
721.0	34.38
721.2	34.12
721.4	33.58
721.6	33.28
721.8	33.09
722.0	32.96
722.2	32.97
722.4	32.82
722.6	32.23
722.8	31.76
723.0	31.23
723.2	30.95
723.4	30.81
723.6	30.81
723.8	30.60
724.0	30.32
724.2	30.19
724.4	30.12
724.6	29.75
724.8	29.55
725.0	29.43
725.2	29.20
725.4	29.02
725.6	28.89
725.8	28.50
726.0	28.28
726.2	28.09
726.4	27.73
726.6	27.20
726.8	26.98
727.0	26.80
727.2	26.68
727.4	26.68
727.6	26.44
727.8	26.19
728.0	25.93
728.2	25.88
728.4	25.58
728.6	25.66
728.8	25.39
729.0	25.25
729.2	24.90
729.4	24.78
729.6	24.39
729.8	24.07
730.0	23.75
730.2	23.68
730.4	23.69
730.6	23.71
730.8	23.77
731.0	23.37
731.2	23.02
731.4	22.54
731.6	22.29
731.8	21.90
732.0	21.88
732.2	21.70
732.4	21.75
732.6	21.48
732.8	21.36
733.0	21.03
733.2	20.93
733.4	20.93
733.6	20.91
733.8	20.67
734.0	20.25
734.2	20.00
734.4	19.88
734.6	19.78
734.8	19.56
735.0	19.49
735.2	19.32
735.4	19.27
