Sample:	'20211010A(EM)
File name:	g-ni-cds 1;15 500v.FDS
Run date:	'09:47:40, 03/22/2023
Operator:	Administrator
Comment:	'

Instrument
Model:	F-4700 FL Spectrophotometer
Serial number:	2019-001
ROM Version:	5J24010 00

Instrument parameters
Measurement type:	Wavelength scan
Scan mode:	Emission
Data mode:	Fluorescence
EX WL:	400.0 nm
EM  Start WL:	420.0 nm
EM  End WL:	850.0 nm
Scan speed:	1200 nm/min
Delay:	0.0 s
EX Slit:	10.0 nm
EM Slit:	10.0 nm
PMT Voltage:	500 V
Response:	0.002 s
Corrected spectra:	Off
Shutter control:	On

Processing performed
Savitsky-Golay smoothed
Smoothing order:	3
Number of points:	7
Number of times:	1

Peak integration
Integration method:	Rectangular
Sensitivity:	1
Threshold:	1.000

Peaks
No.	Start(nm)	Apex(nm)	End(nm)	Height(Data)	Valley(nm)	Valley(Data)
1	420.0	534.8	850.0	8407	850.0	2.442

Data points
nm	Data
420.0	3.371
420.2	3.126
420.4	3.059
420.6	3.103
420.8	3.192
421.0	3.239
421.2	3.219
421.4	3.164
421.6	3.122
421.8	3.218
422.0	3.346
422.2	3.319
422.4	3.294
422.6	3.219
422.8	3.176
423.0	3.158
423.2	3.203
423.4	3.190
423.6	3.327
423.8	3.245
424.0	3.254
424.2	3.188
424.4	3.240
424.6	3.307
424.8	3.331
425.0	3.236
425.2	3.276
425.4	3.334
425.6	3.450
425.8	3.498
426.0	3.517
426.2	3.469
426.4	3.530
426.6	3.611
426.8	3.512
427.0	3.500
427.2	3.398
427.4	3.268
427.6	3.347
427.8	3.592
428.0	3.567
428.2	3.603
428.4	3.586
428.6	3.473
428.8	3.574
429.0	3.831
429.2	3.789
429.4	3.801
429.6	3.659
429.8	3.587
430.0	3.583
430.2	3.514
430.4	3.570
430.6	3.676
430.8	3.488
431.0	3.586
431.2	3.560
431.4	3.520
431.6	3.579
431.8	3.636
432.0	3.561
432.2	3.500
432.4	3.446
432.6	3.581
432.8	3.608
433.0	3.734
433.2	3.953
433.4	3.908
433.6	3.833
433.8	3.788
434.0	3.712
434.2	3.565
434.4	3.639
434.6	3.614
434.8	3.791
435.0	3.960
435.2	4.081
435.4	3.975
435.6	3.845
435.8	3.704
436.0	3.693
436.2	3.835
436.4	4.004
436.6	4.109
436.8	4.286
437.0	4.349
437.2	4.229
437.4	4.244
437.6	4.190
437.8	4.063
438.0	4.093
438.2	4.184
438.4	4.256
438.6	4.385
438.8	4.558
439.0	4.425
439.2	4.419
439.4	4.474
439.6	4.399
439.8	4.258
440.0	4.349
440.2	4.257
440.4	4.421
440.6	4.576
440.8	4.674
441.0	4.530
441.2	4.727
441.4	4.793
441.6	5.012
441.8	5.126
442.0	5.073
442.2	4.767
442.4	4.730
442.6	4.676
442.8	4.832
443.0	4.919
443.2	4.936
443.4	4.889
443.6	4.959
443.8	5.014
444.0	4.969
444.2	5.075
444.4	5.158
444.6	5.225
444.8	5.364
445.0	5.387
445.2	5.284
445.4	5.390
445.6	5.572
445.8	5.804
446.0	5.938
446.2	6.013
446.4	6.064
446.6	6.047
446.8	5.966
447.0	5.975
447.2	5.984
447.4	5.998
447.6	6.188
447.8	6.315
448.0	6.326
448.2	6.256
448.4	6.331
448.6	6.338
448.8	6.341
449.0	6.332
449.2	6.312
449.4	6.311
449.6	6.487
449.8	6.596
450.0	6.647
450.2	6.756
450.4	6.819
450.6	6.888
450.8	7.087
451.0	7.271
451.2	7.541
451.4	7.573
451.6	7.502
451.8	7.203
452.0	7.209
452.2	7.404
452.4	7.843
452.6	8.034
452.8	8.161
453.0	8.001
453.2	8.073
453.4	8.077
453.6	8.136
453.8	8.121
454.0	8.207
454.2	8.223
454.4	8.393
454.6	8.555
454.8	8.653
455.0	8.668
455.2	8.742
455.4	8.941
455.6	9.237
455.8	9.568
456.0	9.556
456.2	9.756
456.4	9.722
456.6	9.938
456.8	10.33
457.0	10.65
457.2	10.71
457.4	10.89
457.6	10.52
457.8	10.64
458.0	10.95
458.2	11.35
458.4	11.62
458.6	12.01
458.8	11.84
459.0	12.05
459.2	12.49
459.4	12.70
459.6	12.79
459.8	13.39
460.0	13.74
460.2	14.00
460.4	14.47
460.6	14.63
460.8	14.89
461.0	15.41
461.2	15.91
461.4	16.30
461.6	16.75
461.8	16.98
462.0	17.10
462.2	17.34
462.4	17.75
462.6	18.30
462.8	18.87
463.0	19.41
463.2	19.98
463.4	20.61
463.6	21.09
463.8	21.68
464.0	22.05
464.2	22.72
464.4	23.48
464.6	24.29
464.8	25.22
465.0	25.78
465.2	26.31
465.4	27.11
465.6	27.75
465.8	28.64
466.0	29.70
466.2	30.31
466.4	31.30
466.6	32.38
466.8	33.66
467.0	34.87
467.2	35.84
467.4	36.87
467.6	37.86
467.8	38.92
468.0	39.74
468.2	40.57
468.4	41.70
468.6	43.02
468.8	44.48
469.0	45.80
469.2	46.94
469.4	48.37
469.6	50.87
469.8	53.35
470.0	55.64
470.2	57.28
470.4	58.40
470.6	59.01
470.8	60.53
471.0	62.18
471.2	64.72
471.4	67.34
471.6	69.30
471.8	70.88
472.0	72.76
472.2	74.74
472.4	77.35
472.6	79.82
472.8	82.13
473.0	84.03
473.2	86.31
473.4	88.98
473.6	91.78
473.8	94.79
474.0	97.67
474.2	100.3
474.4	103.4
474.6	106.1
474.8	109.1
475.0	112.8
475.2	116.1
475.4	119.9
475.6	124.4
475.8	128.0
476.0	131.8
476.2	135.8
476.4	139.2
476.6	143.5
476.8	147.5
477.0	151.7
477.2	156.1
477.4	160.5
477.6	164.6
477.8	169.8
478.0	174.2
478.2	179.1
478.4	184.2
478.6	189.0
478.8	194.4
479.0	201.9
479.2	207.9
479.4	213.6
479.6	219.1
479.8	224.8
480.0	231.5
480.2	240.6
480.4	248.2
480.6	254.8
480.8	260.6
481.0	266.7
481.2	274.5
481.4	282.5
481.6	290.4
481.8	298.5
482.0	306.1
482.2	312.9
482.4	322.3
482.6	330.2
482.8	339.2
483.0	348.2
483.2	357.3
483.4	365.7
483.6	376.3
483.8	386.4
484.0	397.3
484.2	409.3
484.4	421.6
484.6	434.7
484.8	447.8
485.0	460.7
485.2	472.6
485.4	484.9
485.6	497.9
485.8	512.1
486.0	525.1
486.2	539.5
486.4	552.2
486.6	564.0
486.8	578.3
487.0	592.5
487.2	606.6
487.4	623.0
487.6	638.5
487.8	654.1
488.0	670.0
488.2	685.9
488.4	702.4
488.6	722.6
488.8	742.1
489.0	761.3
489.2	779.4
489.4	796.6
489.6	814.5
489.8	835.2
490.0	857.9
490.2	882.8
490.4	905.3
490.6	926.3
490.8	947.1
491.0	968.5
491.2	990.2
491.4	1017
491.6	1041
491.8	1064
492.0	1088
492.2	1113
492.4	1137
492.6	1166
492.8	1192
493.0	1212
493.2	1235
493.4	1263
493.6	1296
493.8	1330
494.0	1360
494.2	1388
494.4	1417
494.6	1451
494.8	1484
495.0	1517
495.2	1544
495.4	1577
495.6	1609
495.8	1646
496.0	1680
496.2	1713
496.4	1743
496.6	1775
496.8	1806
497.0	1839
497.2	1875
497.4	1914
497.6	1954
497.8	1997
498.0	2033
498.2	2068
498.4	2106
498.6	2145
498.8	2185
499.0	2226
499.2	2269
499.4	2312
499.6	2355
499.8	2396
500.0	2441
500.2	2487
500.4	2534
500.6	2576
500.8	2616
501.0	2658
501.2	2704
501.4	2748
501.6	2794
501.8	2838
502.0	2879
502.2	2923
502.4	2969
502.6	3017
502.8	3064
503.0	3116
503.2	3165
503.4	3214
503.6	3258
503.8	3304
504.0	3340
504.2	3390
504.4	3447
504.6	3510
504.8	3566
505.0	3618
505.2	3658
505.4	3707
505.6	3751
505.8	3801
506.0	3851
506.2	3901
506.4	3953
506.6	4008
506.8	4056
507.0	4107
507.2	4158
507.4	4211
507.6	4263
507.8	4311
508.0	4360
508.2	4409
508.4	4459
508.6	4514
508.8	4570
509.0	4620
509.2	4669
509.4	4720
509.6	4769
509.8	4815
510.0	4861
510.2	4912
510.4	4963
510.6	5022
510.8	5078
511.0	5124
511.2	5171
511.4	5228
511.6	5284
511.8	5336
512.0	5380
512.2	5420
512.4	5469
512.6	5517
512.8	5568
513.0	5619
513.2	5664
513.4	5722
513.6	5774
513.8	5824
514.0	5867
514.2	5909
514.4	5954
514.6	5999
514.8	6036
515.0	6083
515.2	6123
515.4	6167
515.6	6218
515.8	6263
516.0	6307
516.2	6354
516.4	6397
516.6	6443
516.8	6490
517.0	6537
517.2	6576
517.4	6622
517.6	6668
517.8	6718
518.0	6756
518.2	6790
518.4	6817
518.6	6848
518.8	6883
519.0	6925
519.2	6958
519.4	6994
519.6	7039
519.8	7078
520.0	7111
520.2	7147
520.4	7172
520.6	7204
520.8	7246
521.0	7285
521.2	7320
521.4	7357
521.6	7384
521.8	7421
522.0	7452
522.2	7486
522.4	7520
522.6	7550
522.8	7575
523.0	7607
523.2	7624
523.4	7649
523.6	7675
523.8	7696
524.0	7720
524.2	7746
524.4	7775
524.6	7803
524.8	7825
525.0	7850
525.2	7869
525.4	7892
525.6	7918
525.8	7932
526.0	7955
526.2	7984
526.4	8007
526.6	8039
526.8	8069
527.0	8075
527.2	8086
527.4	8101
527.6	8112
527.8	8129
528.0	8155
528.2	8157
528.4	8168
528.6	8192
528.8	8196
529.0	8198
529.2	8208
529.4	8213
529.6	8225
529.8	8243
530.0	8256
530.2	8264
530.4	8281
530.6	8298
530.8	8313
531.0	8327
531.2	8339
531.4	8347
531.6	8346
531.8	8347
532.0	8351
532.2	8356
532.4	8360
532.6	8365
532.8	8365
533.0	8371
533.2	8378
533.4	8380
533.6	8384
533.8	8378
534.0	8384
534.2	8389
534.4	8392
534.6	8400
534.8	8407
535.0	8405
535.2	8403
535.4	8394
535.6	8393
535.8	8395
536.0	8399
536.2	8398
536.4	8401
536.6	8398
536.8	8399
537.0	8391
537.2	8378
537.4	8363
537.6	8362
537.8	8356
538.0	8355
538.2	8348
538.4	8337
538.6	8328
538.8	8324
539.0	8328
539.2	8327
539.4	8322
539.6	8319
539.8	8310
540.0	8305
540.2	8301
540.4	8292
540.6	8283
540.8	8277
541.0	8267
541.2	8259
541.4	8250
541.6	8233
541.8	8209
542.0	8193
542.2	8180
542.4	8178
542.6	8177
542.8	8167
543.0	8151
543.2	8138
543.4	8124
543.6	8114
543.8	8099
544.0	8086
544.2	8071
544.4	8063
544.6	8053
544.8	8043
545.0	8030
545.2	8011
545.4	7996
545.6	7984
545.8	7969
546.0	7955
546.2	7935
546.4	7915
546.6	7900
546.8	7887
547.0	7875
547.2	7867
547.4	7855
547.6	7839
547.8	7812
548.0	7787
548.2	7761
548.4	7749
548.6	7747
548.8	7729
549.0	7713
549.2	7698
549.4	7678
549.6	7658
549.8	7641
550.0	7608
550.2	7588
550.4	7574
550.6	7557
550.8	7537
551.0	7525
551.2	7510
551.4	7495
551.6	7482
551.8	7455
552.0	7432
552.2	7413
552.4	7398
552.6	7376
552.8	7356
553.0	7328
553.2	7314
553.4	7299
553.6	7284
553.8	7262
554.0	7235
554.2	7210
554.4	7193
554.6	7180
554.8	7160
555.0	7135
555.2	7107
555.4	7089
555.6	7072
555.8	7059
556.0	7039
556.2	7016
556.4	7001
556.6	6982
556.8	6960
557.0	6936
557.2	6911
557.4	6888
557.6	6870
557.8	6849
558.0	6831
558.2	6806
558.4	6783
558.6	6757
558.8	6733
559.0	6711
559.2	6695
559.4	6671
559.6	6647
559.8	6624
560.0	6606
560.2	6586
560.4	6571
560.6	6547
560.8	6520
561.0	6500
561.2	6479
561.4	6455
561.6	6437
561.8	6411
562.0	6391
562.2	6374
562.4	6354
562.6	6328
562.8	6306
563.0	6279
563.2	6257
563.4	6233
563.6	6216
563.8	6186
564.0	6165
564.2	6143
564.4	6123
564.6	6099
564.8	6078
565.0	6042
565.2	6011
565.4	5982
565.6	5965
565.8	5956
566.0	5950
566.2	5935
566.4	5914
566.6	5884
566.8	5855
567.0	5831
567.2	5809
567.4	5784
567.6	5763
567.8	5737
568.0	5720
568.2	5697
568.4	5676
568.6	5654
568.8	5635
569.0	5612
569.2	5602
569.4	5574
569.6	5542
569.8	5515
570.0	5486
570.2	5459
570.4	5443
570.6	5424
570.8	5408
571.0	5398
571.2	5382
571.4	5360
571.6	5328
571.8	5299
572.0	5273
572.2	5254
572.4	5230
572.6	5208
572.8	5188
573.0	5171
573.2	5149
573.4	5129
573.6	5103
573.8	5082
574.0	5069
574.2	5050
574.4	5029
574.6	5007
574.8	4978
575.0	4951
575.2	4929
575.4	4913
575.6	4896
575.8	4869
576.0	4839
576.2	4811
576.4	4789
576.6	4778
576.8	4758
577.0	4734
577.2	4716
577.4	4694
577.6	4678
577.8	4658
578.0	4637
578.2	4613
578.4	4594
578.6	4575
578.8	4560
579.0	4539
579.2	4524
579.4	4497
579.6	4473
579.8	4453
580.0	4438
580.2	4419
580.4	4400
580.6	4380
580.8	4360
581.0	4337
581.2	4316
581.4	4287
581.6	4258
581.8	4236
582.0	4218
582.2	4201
582.4	4189
582.6	4171
582.8	4149
583.0	4124
583.2	4106
583.4	4090
583.6	4080
583.8	4060
584.0	4042
584.2	4020
584.4	4000
584.6	3981
584.8	3966
585.0	3940
585.2	3923
585.4	3906
585.6	3888
585.8	3872
586.0	3854
586.2	3826
586.4	3805
586.6	3784
586.8	3767
587.0	3748
587.2	3733
587.4	3715
587.6	3695
587.8	3677
588.0	3661
588.2	3640
588.4	3625
588.6	3607
588.8	3587
589.0	3572
589.2	3558
589.4	3540
589.6	3523
589.8	3501
590.0	3479
590.2	3462
590.4	3443
590.6	3428
590.8	3413
591.0	3397
591.2	3379
591.4	3366
591.6	3345
591.8	3328
592.0	3308
592.2	3291
592.4	3272
592.6	3257
592.8	3239
593.0	3230
593.2	3218
593.4	3206
593.6	3186
593.8	3162
594.0	3141
594.2	3127
594.4	3115
594.6	3102
594.8	3086
595.0	3069
595.2	3052
595.4	3034
595.6	3018
595.8	3000
596.0	2987
596.2	2979
596.4	2970
596.6	2957
596.8	2940
597.0	2917
597.2	2902
597.4	2888
597.6	2880
597.8	2866
598.0	2850
598.2	2831
598.4	2814
598.6	2798
598.8	2786
599.0	2769
599.2	2754
599.4	2741
599.6	2727
599.8	2714
600.0	2701
600.2	2687
600.4	2672
600.6	2662
600.8	2647
601.0	2632
601.2	2619
601.4	2609
601.6	2595
601.8	2584
602.0	2567
602.2	2551
602.4	2534
602.6	2517
602.8	2500
603.0	2487
603.2	2476
603.4	2469
603.6	2457
603.8	2441
604.0	2427
604.2	2408
604.4	2392
604.6	2382
604.8	2367
605.0	2358
605.2	2350
605.4	2339
605.6	2328
605.8	2319
606.0	2304
606.2	2291
606.4	2275
606.6	2258
606.8	2241
607.0	2230
607.2	2219
607.4	2213
607.6	2204
607.8	2194
608.0	2178
608.2	2162
608.4	2146
608.6	2132
608.8	2123
609.0	2111
609.2	2099
609.4	2088
609.6	2076
609.8	2063
610.0	2053
610.2	2042
610.4	2034
610.6	2022
610.8	2009
611.0	1996
611.2	1985
611.4	1977
611.6	1966
611.8	1957
612.0	1945
612.2	1933
612.4	1917
612.6	1902
612.8	1886
613.0	1879
613.2	1871
613.4	1861
613.6	1848
613.8	1838
614.0	1825
614.2	1816
614.4	1805
614.6	1794
614.8	1783
615.0	1774
615.2	1760
615.4	1749
615.6	1741
615.8	1736
616.0	1727
616.2	1716
616.4	1702
616.6	1693
616.8	1685
617.0	1676
617.2	1667
617.4	1657
617.6	1647
617.8	1635
618.0	1623
618.2	1610
618.4	1601
618.6	1595
618.8	1586
619.0	1577
619.2	1567
619.4	1559
619.6	1551
619.8	1543
620.0	1529
620.2	1517
620.4	1506
620.6	1497
620.8	1491
621.0	1482
621.2	1472
621.4	1462
621.6	1455
621.8	1447
622.0	1441
622.2	1430
622.4	1421
622.6	1409
622.8	1400
623.0	1389
623.2	1382
623.4	1372
623.6	1365
623.8	1355
624.0	1349
624.2	1345
624.4	1336
624.6	1326
624.8	1316
625.0	1306
625.2	1296
625.4	1290
625.6	1283
625.8	1278
626.0	1272
626.2	1263
626.4	1249
626.6	1239
626.8	1231
627.0	1225
627.2	1218
627.4	1210
627.6	1200
627.8	1193
628.0	1184
628.2	1176
628.4	1170
628.6	1164
628.8	1158
629.0	1154
629.2	1145
629.4	1136
629.6	1127
629.8	1119
630.0	1112
630.2	1108
630.4	1102
630.6	1096
630.8	1087
631.0	1077
631.2	1069
631.4	1063
631.6	1056
631.8	1049
632.0	1044
632.2	1035
632.4	1028
632.6	1020
632.8	1013
633.0	1008
633.2	1002
633.4	996.0
633.6	990.2
633.8	981.9
634.0	974.0
634.2	969.0
634.4	961.8
634.6	955.9
634.8	953.3
635.0	945.9
635.2	936.6
635.4	931.6
635.6	925.7
635.8	919.9
636.0	914.7
636.2	906.9
636.4	898.8
636.6	894.2
636.8	891.4
637.0	885.3
637.2	877.7
637.4	869.7
637.6	863.3
637.8	857.1
638.0	854.0
638.2	849.8
638.4	844.9
638.6	837.5
638.8	831.3
639.0	823.6
639.2	818.4
639.4	816.3
639.6	810.8
639.8	803.9
640.0	798.8
640.2	792.2
640.4	787.6
640.6	786.1
640.8	778.9
641.0	772.5
641.2	766.9
641.4	759.8
641.6	753.6
641.8	750.5
642.0	744.6
642.2	741.6
642.4	737.5
642.6	731.3
642.8	725.2
643.0	719.6
643.2	713.9
643.4	710.1
643.6	704.1
643.8	698.2
644.0	694.7
644.2	690.9
644.4	688.7
644.6	684.6
644.8	679.6
645.0	672.9
645.2	665.7
645.4	659.2
645.6	655.5
645.8	651.7
646.0	648.9
646.2	644.4
646.4	640.6
646.6	635.3
646.8	630.7
647.0	628.1
647.2	624.0
647.4	620.8
647.6	616.0
647.8	612.4
648.0	606.9
648.2	603.7
648.4	598.2
648.6	593.5
648.8	589.2
649.0	587.5
649.2	583.3
649.4	579.6
649.6	573.5
649.8	567.0
650.0	563.0
650.2	558.5
650.4	555.9
650.6	552.3
650.8	547.8
651.0	544.2
651.2	540.5
651.4	537.1
651.6	533.9
651.8	530.6
652.0	527.1
652.2	524.4
652.4	519.9
652.6	517.0
652.8	512.9
653.0	511.4
653.2	507.8
653.4	503.9
653.6	498.1
653.8	495.1
654.0	491.2
654.2	489.2
654.4	485.9
654.6	482.5
654.8	478.2
655.0	475.6
655.2	471.9
655.4	468.5
655.6	465.6
655.8	462.7
656.0	461.0
656.2	456.8
656.4	451.8
656.6	447.9
656.8	444.3
657.0	442.3
657.2	442.3
657.4	439.7
657.6	435.1
657.8	430.2
658.0	425.1
658.2	421.0
658.4	419.5
658.6	419.6
658.8	417.5
659.0	415.1
659.2	412.4
659.4	408.7
659.6	406.2
659.8	404.3
660.0	400.3
660.2	397.4
660.4	394.3
660.6	391.1
660.8	390.3
661.0	386.8
661.2	382.9
661.4	381.1
661.6	377.8
661.8	375.0
662.0	373.6
662.2	370.7
662.4	367.4
662.6	363.6
662.8	358.8
663.0	354.7
663.2	352.7
663.4	352.8
663.6	351.5
663.8	349.5
664.0	347.3
664.2	344.8
664.4	342.2
664.6	339.8
664.8	336.5
665.0	333.5
665.2	331.2
665.4	329.8
665.6	327.9
665.8	326.5
666.0	324.1
666.2	321.7
666.4	318.9
666.6	315.8
666.8	313.5
667.0	311.6
667.2	310.3
667.4	308.2
667.6	305.4
667.8	301.4
668.0	299.3
668.2	297.3
668.4	296.7
668.6	294.7
668.8	291.3
669.0	287.7
669.2	285.9
669.4	284.9
669.6	283.8
669.8	281.7
670.0	278.7
670.2	276.7
670.4	275.6
670.6	273.6
670.8	272.2
671.0	271.0
671.2	269.3
671.4	267.5
671.6	265.9
671.8	262.6
672.0	261.0
672.2	259.1
672.4	257.3
672.6	255.6
672.8	253.4
673.0	251.7
673.2	250.9
673.4	249.5
673.6	248.2
673.8	245.6
674.0	242.5
674.2	240.5
674.4	239.2
674.6	237.5
674.8	235.5
675.0	233.5
675.2	232.5
675.4	231.3
675.6	229.9
675.8	227.7
676.0	226.4
676.2	224.3
676.4	223.4
676.6	221.3
676.8	219.6
677.0	218.0
677.2	216.3
677.4	214.7
677.6	213.1
677.8	211.0
678.0	209.5
678.2	207.2
678.4	205.4
678.6	203.5
678.8	202.0
679.0	200.9
679.2	199.4
679.4	198.1
679.6	197.1
679.8	195.7
680.0	195.4
680.2	193.9
680.4	193.3
680.6	191.8
680.8	189.6
681.0	188.8
681.2	186.4
681.4	185.3
681.6	183.8
681.8	182.4
682.0	180.5
682.2	179.3
682.4	177.8
682.6	177.2
682.8	175.3
683.0	174.5
683.2	172.9
683.4	171.8
683.6	170.4
683.8	168.6
684.0	168.2
684.2	167.0
684.4	166.1
684.6	165.6
684.8	163.5
685.0	161.9
685.2	161.3
685.4	159.2
685.6	157.5
685.8	157.1
686.0	156.1
686.2	156.4
686.4	156.2
686.6	154.5
686.8	151.6
687.0	149.3
687.2	147.1
687.4	147.0
687.6	146.8
687.8	146.6
688.0	145.9
688.2	145.1
688.4	143.9
688.6	142.7
688.8	140.1
689.0	138.4
689.2	137.4
689.4	137.1
689.6	137.4
689.8	137.7
690.0	136.7
690.2	135.9
690.4	134.1
690.6	131.9
690.8	130.4
691.0	129.9
691.2	130.0
691.4	129.7
691.6	129.2
691.8	127.6
692.0	126.3
692.2	125.5
692.4	124.8
692.6	123.9
692.8	123.0
693.0	122.1
693.2	121.2
693.4	121.5
693.6	120.9
693.8	120.8
694.0	119.8
694.2	118.8
694.4	117.2
694.6	116.7
694.8	115.7
695.0	115.2
695.2	113.8
695.4	113.1
695.6	111.6
695.8	110.1
696.0	109.4
696.2	109.1
696.4	109.0
696.6	108.9
696.8	108.0
697.0	106.9
697.2	106.6
697.4	105.7
697.6	104.8
697.8	103.4
698.0	102.6
698.2	102.6
698.4	103.6
698.6	103.0
698.8	101.9
699.0	101.2
699.2	99.93
699.4	98.87
699.6	98.72
699.8	97.39
700.0	97.27
700.2	97.01
700.4	95.91
700.6	95.69
700.8	95.08
701.0	94.07
701.2	94.53
701.4	93.87
701.6	93.28
701.8	93.07
702.0	91.97
702.2	90.66
702.4	89.85
702.6	89.18
702.8	88.16
703.0	87.73
703.2	87.38
703.4	86.78
703.6	86.49
703.8	86.68
704.0	86.22
704.2	85.53
704.4	84.20
704.6	82.65
704.8	81.64
705.0	81.28
705.2	81.44
705.4	81.60
705.6	81.86
705.8	81.87
706.0	82.11
706.2	80.87
706.4	79.51
706.6	78.72
706.8	78.16
707.0	77.92
707.2	78.46
707.4	77.74
707.6	76.89
707.8	76.25
708.0	75.83
708.2	75.66
708.4	75.51
708.6	74.62
708.8	74.08
709.0	72.94
709.2	72.67
709.4	72.69
709.6	72.40
709.8	71.63
710.0	71.06
710.2	69.87
710.4	68.91
710.6	68.76
710.8	68.29
711.0	67.20
711.2	66.71
711.4	66.54
711.6	66.57
711.8	66.80
712.0	66.52
712.2	65.30
712.4	64.53
712.6	63.33
712.8	63.24
713.0	62.95
713.2	63.35
713.4	63.46
713.6	62.97
713.8	61.96
714.0	61.60
714.2	60.89
714.4	60.85
714.6	60.65
714.8	60.63
715.0	60.31
715.2	59.93
715.4	58.94
715.6	58.07
715.8	57.30
716.0	57.43
716.2	57.18
716.4	57.78
716.6	57.63
716.8	57.07
717.0	56.30
717.2	55.66
717.4	54.75
717.6	54.53
717.8	54.14
718.0	53.79
718.2	53.43
718.4	53.43
718.6	53.16
718.8	52.41
719.0	51.76
719.2	50.92
719.4	50.44
719.6	50.78
719.8	50.91
720.0	50.50
720.2	49.73
720.4	49.05
720.6	48.46
720.8	48.55
721.0	48.53
721.2	48.09
721.4	47.24
721.6	46.84
721.8	46.71
722.0	46.92
722.2	46.98
722.4	46.40
722.6	45.56
722.8	44.90
723.0	44.00
723.2	43.40
723.4	43.60
723.6	43.68
723.8	43.41
724.0	43.11
724.2	42.38
724.4	41.51
724.6	41.15
