Sample:	'20211010A(EM)
File name:	g-ni-cds-cho 1;15 400v.FDS
Run date:	'10:56:19, 03/22/2023
Operator:	Administrator
Comment:	'

Instrument
Model:	F-4700 FL Spectrophotometer
Serial number:	2019-001
ROM Version:	5J24010 00

Instrument parameters
Measurement type:	Wavelength scan
Scan mode:	Emission
Data mode:	Fluorescence
EX WL:	410.0 nm
EM  Start WL:	430.0 nm
EM  End WL:	850.0 nm
Scan speed:	1200 nm/min
Delay:	0.0 s
EX Slit:	10.0 nm
EM Slit:	10.0 nm
PMT Voltage:	400 V
Response:	0.002 s
Corrected spectra:	Off
Shutter control:	On

Processing performed
Savitsky-Golay smoothed
Smoothing order:	3
Number of points:	7
Number of times:	1

Peak integration
Integration method:	Rectangular
Sensitivity:	1
Threshold:	1.000

Peaks
No.	Start(nm)	Apex(nm)	End(nm)	Height(Data)	Valley(nm)	Valley(Data)
1	430.0	527.6	799.0	7022	799.0	2.890
2	799.0	823.8	850.0	21.77	850.0	1.656

Data points
nm	Data
430.0	11.00
430.2	11.23
430.4	11.47
430.6	11.71
430.8	11.88
431.0	12.08
431.2	12.26
431.4	12.47
431.6	12.63
431.8	12.87
432.0	13.07
432.2	13.29
432.4	13.50
432.6	13.63
432.8	13.78
433.0	14.06
433.2	14.31
433.4	14.55
433.6	14.76
433.8	15.11
434.0	15.30
434.2	15.61
434.4	15.94
434.6	16.20
434.8	16.55
435.0	17.07
435.2	17.28
435.4	17.66
435.6	17.94
435.8	18.24
436.0	18.62
436.2	19.10
436.4	19.37
436.6	19.71
436.8	20.13
437.0	20.74
437.2	21.29
437.4	21.82
437.6	22.26
437.8	22.58
438.0	23.02
438.2	23.45
438.4	23.93
438.6	24.43
438.8	25.02
439.0	25.68
439.2	26.31
439.4	26.65
439.6	27.23
439.8	27.78
440.0	28.30
440.2	29.22
440.4	30.15
440.6	30.72
440.8	31.49
441.0	32.05
441.2	32.49
441.4	33.19
441.6	33.91
441.8	34.77
442.0	35.80
442.2	36.66
442.4	37.50
442.6	38.09
442.8	38.79
443.0	39.65
443.2	40.59
443.4	41.49
443.6	42.53
443.8	43.41
444.0	44.35
444.2	45.40
444.4	46.43
444.6	47.29
444.8	48.52
445.0	49.87
445.2	51.27
445.4	52.73
445.6	53.83
445.8	54.82
446.0	55.85
446.2	57.05
446.4	58.45
446.6	59.88
446.8	61.20
447.0	62.60
447.2	63.68
447.4	64.89
447.6	66.17
447.8	67.61
448.0	69.11
448.2	70.72
448.4	72.32
448.6	74.22
448.8	76.31
449.0	78.40
449.2	80.10
449.4	81.90
449.6	83.62
449.8	85.57
450.0	88.18
450.2	90.67
450.4	92.75
450.6	94.93
450.8	97.24
451.0	99.61
451.2	101.9
451.4	104.5
451.6	106.8
451.8	109.3
452.0	112.4
452.2	115.8
452.4	118.6
452.6	121.9
452.8	124.4
453.0	127.5
453.2	130.9
453.4	134.8
453.6	138.4
453.8	142.1
454.0	145.6
454.2	149.7
454.4	154.0
454.6	158.6
454.8	162.7
455.0	167.4
455.2	172.2
455.4	177.0
455.6	182.1
455.8	187.4
456.0	192.4
456.2	198.6
456.4	205.0
456.6	211.1
456.8	217.1
457.0	223.0
457.2	228.6
457.4	235.1
457.6	241.7
457.8	248.7
458.0	255.8
458.2	263.1
458.4	271.0
458.6	279.5
458.8	288.0
459.0	296.4
459.2	304.8
459.4	314.2
459.6	323.7
459.8	333.5
460.0	343.1
460.2	352.6
460.4	363.1
460.6	373.8
460.8	385.1
461.0	397.2
461.2	409.2
461.4	421.8
461.6	434.4
461.8	446.1
462.0	457.5
462.2	469.7
462.4	481.7
462.6	495.4
462.8	509.2
463.0	524.1
463.2	538.5
463.4	552.5
463.6	566.1
463.8	581.5
464.0	596.8
464.2	613.4
464.4	629.8
464.6	646.3
464.8	663.2
465.0	680.3
465.2	697.0
465.4	713.7
465.6	730.9
465.8	749.2
466.0	768.1
466.2	787.7
466.4	806.9
466.6	826.5
466.8	844.4
467.0	862.9
467.2	881.6
467.4	902.0
467.6	922.5
467.8	944.1
468.0	964.4
468.2	985.5
468.4	1006
468.6	1026
468.8	1047
469.0	1069
469.2	1092
469.4	1116
469.6	1139
469.8	1161
470.0	1183
470.2	1206
470.4	1230
470.6	1255
470.8	1280
471.0	1306
471.2	1330
471.4	1353
471.6	1376
471.8	1399
472.0	1422
472.2	1447
472.4	1470
472.6	1493
472.8	1517
473.0	1542
473.2	1564
473.4	1588
473.6	1612
473.8	1638
474.0	1664
474.2	1690
474.4	1714
474.6	1739
474.8	1762
475.0	1787
475.2	1812
475.4	1838
475.6	1864
475.8	1890
476.0	1914
476.2	1940
476.4	1962
476.6	1988
476.8	2011
477.0	2034
477.2	2056
477.4	2081
477.6	2104
477.8	2129
478.0	2151
478.2	2175
478.4	2196
478.6	2219
478.8	2241
479.0	2263
479.2	2287
479.4	2310
479.6	2334
479.8	2360
480.0	2383
480.2	2407
480.4	2430
480.6	2452
480.8	2474
481.0	2498
481.2	2520
481.4	2544
481.6	2565
481.8	2588
482.0	2609
482.2	2630
482.4	2650
482.6	2672
482.8	2692
483.0	2713
483.2	2737
483.4	2758
483.6	2779
483.8	2802
484.0	2824
484.2	2845
484.4	2866
484.6	2888
484.8	2908
485.0	2932
485.2	2956
485.4	2977
485.6	2998
485.8	3019
486.0	3037
486.2	3060
486.4	3082
486.6	3105
486.8	3126
487.0	3147
487.2	3167
487.4	3189
487.6	3210
487.8	3233
488.0	3254
488.2	3276
488.4	3297
488.6	3317
488.8	3339
489.0	3362
489.2	3387
489.4	3411
489.6	3433
489.8	3457
490.0	3477
490.2	3500
490.4	3522
490.6	3547
490.8	3569
491.0	3592
491.2	3613
491.4	3634
491.6	3656
491.8	3680
492.0	3702
492.2	3729
492.4	3753
492.6	3780
492.8	3805
493.0	3830
493.2	3854
493.4	3877
493.6	3898
493.8	3925
494.0	3948
494.2	3972
494.4	3995
494.6	4019
494.8	4046
495.0	4075
495.2	4104
495.4	4127
495.6	4150
495.8	4172
496.0	4196
496.2	4220
496.4	4245
496.6	4274
496.8	4303
497.0	4329
497.2	4358
497.4	4386
497.6	4411
497.8	4439
498.0	4462
498.2	4487
498.4	4513
498.6	4544
498.8	4574
499.0	4601
499.2	4630
499.4	4659
499.6	4685
499.8	4714
500.0	4740
500.2	4771
500.4	4802
500.6	4825
500.8	4846
501.0	4869
501.2	4896
501.4	4929
501.6	4961
501.8	4990
502.0	5019
502.2	5047
502.4	5070
502.6	5095
502.8	5122
503.0	5149
503.2	5178
503.4	5204
503.6	5228
503.8	5256
504.0	5287
504.2	5315
504.4	5342
504.6	5368
504.8	5395
505.0	5421
505.2	5448
505.4	5474
505.6	5499
505.8	5526
506.0	5554
506.2	5579
506.4	5606
506.6	5632
506.8	5655
507.0	5681
507.2	5708
507.4	5733
507.6	5759
507.8	5785
508.0	5808
508.2	5835
508.4	5859
508.6	5885
508.8	5907
509.0	5931
509.2	5954
509.4	5980
509.6	6005
509.8	6030
510.0	6047
510.2	6069
510.4	6089
510.6	6117
510.8	6142
511.0	6166
511.2	6187
511.4	6206
511.6	6222
511.8	6245
512.0	6265
512.2	6290
512.4	6312
512.6	6331
512.8	6350
513.0	6368
513.2	6387
513.4	6403
513.6	6420
513.8	6439
514.0	6456
514.2	6477
514.4	6495
514.6	6510
514.8	6528
515.0	6545
515.2	6564
515.4	6586
515.6	6603
515.8	6621
516.0	6635
516.2	6648
516.4	6662
516.6	6678
516.8	6689
517.0	6699
517.2	6710
517.4	6720
517.6	6735
517.8	6748
518.0	6759
518.2	6766
518.4	6773
518.6	6782
518.8	6796
519.0	6810
519.2	6825
519.4	6840
519.6	6851
519.8	6865
520.0	6873
520.2	6883
520.4	6892
520.6	6903
520.8	6915
521.0	6924
521.2	6933
521.4	6940
521.6	6943
521.8	6950
522.0	6955
522.2	6960
522.4	6966
522.6	6965
522.8	6966
523.0	6970
523.2	6974
523.4	6979
523.6	6984
523.8	6990
524.0	6993
524.2	6997
524.4	6999
524.6	7001
524.8	7008
525.0	7013
525.2	7019
525.4	7021
525.6	7018
525.8	7019
526.0	7020
526.2	7020
526.4	7022
526.6	7021
526.8	7021
527.0	7020
527.2	7022
527.4	7021
527.6	7022
527.8	7019
528.0	7015
528.2	7011
528.4	7009
528.6	7009
528.8	7011
529.0	7009
529.2	7006
529.4	7009
529.6	7010
529.8	7011
530.0	7007
530.2	7003
530.4	6995
530.6	6990
530.8	6991
531.0	6988
531.2	6987
531.4	6985
531.6	6979
531.8	6967
532.0	6957
532.2	6945
532.4	6939
532.6	6934
532.8	6933
533.0	6930
533.2	6924
533.4	6920
533.6	6915
533.8	6908
534.0	6899
534.2	6889
534.4	6879
534.6	6869
534.8	6865
535.0	6857
535.2	6853
535.4	6851
535.6	6845
535.8	6835
536.0	6824
536.2	6810
536.4	6801
536.6	6793
536.8	6785
537.0	6776
537.2	6767
537.4	6760
537.6	6750
537.8	6744
538.0	6730
538.2	6722
538.4	6715
538.6	6703
538.8	6692
539.0	6682
539.2	6670
539.4	6663
539.6	6653
539.8	6638
540.0	6624
540.2	6612
540.4	6601
540.6	6589
540.8	6580
541.0	6565
541.2	6554
541.4	6542
541.6	6527
541.8	6521
542.0	6515
542.2	6506
542.4	6500
542.6	6488
542.8	6473
543.0	6460
543.2	6446
543.4	6436
543.6	6422
543.8	6408
544.0	6395
544.2	6381
544.4	6368
544.6	6352
544.8	6338
545.0	6317
545.2	6300
545.4	6288
545.6	6272
545.8	6256
546.0	6247
546.2	6231
546.4	6217
546.6	6207
546.8	6195
547.0	6182
547.2	6166
547.4	6151
547.6	6136
547.8	6123
548.0	6105
548.2	6091
548.4	6075
548.6	6060
548.8	6049
549.0	6034
549.2	6015
549.4	6002
549.6	5990
549.8	5976
550.0	5961
550.2	5945
550.4	5926
550.6	5906
550.8	5888
551.0	5867
551.2	5849
551.4	5838
551.6	5825
551.8	5814
552.0	5798
552.2	5778
552.4	5765
552.6	5750
552.8	5737
553.0	5724
553.2	5707
553.4	5689
553.6	5672
553.8	5654
554.0	5636
554.2	5617
554.4	5600
554.6	5583
554.8	5568
555.0	5555
555.2	5534
555.4	5515
555.6	5495
555.8	5481
556.0	5469
556.2	5454
556.4	5439
556.6	5422
556.8	5403
557.0	5385
557.2	5367
557.4	5348
557.6	5332
557.8	5315
558.0	5298
558.2	5280
558.4	5265
558.6	5246
558.8	5230
559.0	5215
559.2	5199
559.4	5182
559.6	5166
559.8	5146
560.0	5128
560.2	5112
560.4	5096
560.6	5077
560.8	5061
561.0	5044
561.2	5027
561.4	5011
561.6	4993
561.8	4975
562.0	4957
562.2	4939
562.4	4921
562.6	4899
562.8	4880
563.0	4860
563.2	4840
563.4	4822
563.6	4807
563.8	4789
564.0	4772
564.2	4753
564.4	4735
564.6	4714
564.8	4702
565.0	4688
565.2	4670
565.4	4653
565.6	4633
565.8	4613
566.0	4598
566.2	4583
566.4	4566
566.6	4547
566.8	4528
567.0	4510
567.2	4492
567.4	4479
567.6	4462
567.8	4439
568.0	4420
568.2	4400
568.4	4380
568.6	4367
568.8	4352
569.0	4335
569.2	4320
569.4	4303
569.6	4283
569.8	4265
570.0	4247
570.2	4227
570.4	4208
570.6	4189
570.8	4174
571.0	4161
571.2	4149
571.4	4130
571.6	4110
571.8	4089
572.0	4071
572.2	4053
572.4	4038
572.6	4019
572.8	4000
573.0	3981
573.2	3964
573.4	3945
573.6	3931
573.8	3915
574.0	3900
574.2	3883
574.4	3866
574.6	3848
574.8	3833
575.0	3817
575.2	3801
575.4	3784
575.6	3765
575.8	3746
576.0	3729
576.2	3709
576.4	3695
576.6	3682
576.8	3664
577.0	3646
577.2	3630
577.4	3609
577.6	3593
577.8	3580
578.0	3566
578.2	3549
578.4	3536
578.6	3520
578.8	3506
579.0	3494
579.2	3478
579.4	3459
579.6	3442
579.8	3425
580.0	3411
580.2	3394
580.4	3379
580.6	3364
580.8	3348
581.0	3333
581.2	3317
581.4	3298
581.6	3280
581.8	3262
582.0	3246
582.2	3234
582.4	3223
582.6	3209
582.8	3193
583.0	3174
583.2	3157
583.4	3140
583.6	3125
583.8	3110
584.0	3098
584.2	3083
584.4	3067
584.6	3050
584.8	3034
585.0	3019
585.2	3007
585.4	2996
585.6	2982
585.8	2966
586.0	2950
586.2	2933
586.4	2918
586.6	2906
586.8	2892
587.0	2882
587.2	2868
587.4	2854
587.6	2839
587.8	2824
588.0	2809
588.2	2797
588.4	2783
588.6	2770
588.8	2756
589.0	2740
589.2	2726
589.4	2712
589.6	2699
589.8	2684
590.0	2671
590.2	2654
590.4	2641
590.6	2628
590.8	2615
591.0	2600
591.2	2588
591.4	2575
591.6	2565
591.8	2552
592.0	2540
592.2	2528
592.4	2516
592.6	2502
592.8	2487
593.0	2474
593.2	2463
593.4	2453
593.6	2440
593.8	2428
594.0	2414
594.2	2401
594.4	2388
594.6	2373
594.8	2358
595.0	2346
595.2	2334
595.4	2322
595.6	2309
595.8	2295
596.0	2285
596.2	2274
596.4	2264
596.6	2252
596.8	2240
597.0	2230
597.2	2220
597.4	2210
597.6	2200
597.8	2186
598.0	2175
598.2	2163
598.4	2150
598.6	2138
598.8	2127
599.0	2115
599.2	2103
599.4	2092
599.6	2081
599.8	2067
600.0	2055
600.2	2044
600.4	2034
600.6	2023
600.8	2015
601.0	2004
601.2	1993
601.4	1983
601.6	1972
601.8	1960
602.0	1950
602.2	1939
602.4	1928
602.6	1919
602.8	1909
603.0	1899
603.2	1888
603.4	1875
603.6	1865
603.8	1852
604.0	1841
604.2	1831
604.4	1821
604.6	1810
604.8	1801
605.0	1791
605.2	1781
605.4	1772
605.6	1762
605.8	1751
606.0	1740
606.2	1730
606.4	1718
606.6	1710
606.8	1700
607.0	1690
607.2	1681
607.4	1671
607.6	1661
607.8	1651
608.0	1641
608.2	1631
608.4	1623
608.6	1614
608.8	1605
609.0	1597
609.2	1589
609.4	1579
609.6	1570
609.8	1560
610.0	1551
610.2	1542
610.4	1533
610.6	1524
610.8	1516
611.0	1506
611.2	1497
611.4	1486
611.6	1479
611.8	1470
612.0	1462
612.2	1453
612.4	1444
612.6	1436
612.8	1428
613.0	1418
613.2	1407
613.4	1399
613.6	1392
613.8	1384
614.0	1376
614.2	1367
614.4	1357
614.6	1350
614.8	1342
615.0	1334
615.2	1326
615.4	1318
615.6	1309
615.8	1301
616.0	1294
616.2	1285
616.4	1276
616.6	1267
616.8	1258
617.0	1252
617.2	1246
617.4	1238
617.6	1230
617.8	1221
618.0	1212
618.2	1206
618.4	1197
618.6	1190
618.8	1184
619.0	1178
619.2	1172
619.4	1164
619.6	1157
619.8	1148
620.0	1141
620.2	1133
620.4	1128
620.6	1122
620.8	1116
621.0	1107
621.2	1100
621.4	1091
621.6	1085
621.8	1079
622.0	1071
622.2	1064
622.4	1057
622.6	1049
622.8	1043
623.0	1036
623.2	1029
623.4	1024
623.6	1017
623.8	1011
624.0	1004
624.2	998.1
624.4	992.2
624.6	987.2
624.8	980.6
625.0	973.2
625.2	966.7
625.4	959.8
625.6	954.5
625.8	948.9
626.0	941.7
626.2	934.6
626.4	927.2
626.6	920.3
626.8	914.2
627.0	907.8
627.2	901.6
627.4	894.9
627.6	889.5
627.8	883.6
628.0	877.2
628.2	871.0
628.4	864.4
628.6	858.0
628.8	853.9
629.0	848.5
629.2	843.7
629.4	838.9
629.6	833.5
629.8	828.7
630.0	823.4
630.2	816.9
630.4	810.8
630.6	804.2
630.8	798.5
631.0	793.6
631.2	788.3
631.4	782.5
631.6	778.5
631.8	773.0
632.0	767.9
632.2	762.3
632.4	755.9
632.6	749.1
632.8	743.5
633.0	738.9
633.2	735.5
633.4	732.1
633.6	728.9
633.8	723.0
634.0	716.8
634.2	711.4
634.4	706.2
634.6	701.6
634.8	697.5
635.0	692.9
635.2	688.4
635.4	684.3
635.6	679.3
635.8	674.1
636.0	668.8
636.2	663.7
636.4	658.8
636.6	655.1
636.8	650.9
637.0	647.2
637.2	643.5
637.4	638.0
637.6	633.3
637.8	629.4
638.0	624.6
638.2	620.6
638.4	616.2
638.6	611.1
638.8	606.6
639.0	603.2
639.2	598.7
639.4	595.1
639.6	591.3
639.8	587.1
640.0	583.4
640.2	579.7
640.4	574.3
640.6	569.8
640.8	564.8
641.0	560.2
641.2	557.1
641.4	553.4
641.6	549.7
641.8	546.2
642.0	542.6
642.2	539.3
642.4	536.9
642.6	533.1
642.8	529.7
643.0	525.4
643.2	521.8
643.4	518.5
643.6	515.4
643.8	511.5
644.0	507.2
644.2	502.7
644.4	498.5
644.6	494.6
644.8	491.6
645.0	488.2
645.2	484.0
645.4	480.0
645.6	476.3
645.8	473.9
646.0	472.3
646.2	469.3
646.4	465.6
646.6	462.2
646.8	458.9
647.0	455.8
647.2	452.3
647.4	448.2
647.6	444.6
647.8	441.9
648.0	438.5
648.2	434.9
648.4	431.6
648.6	429.2
648.8	427.1
649.0	425.0
649.2	421.4
649.4	417.5
649.6	413.7
649.8	410.5
650.0	407.8
650.2	405.9
650.4	403.3
650.6	400.2
650.8	397.5
651.0	394.9
651.2	391.8
651.4	389.1
651.6	386.0
651.8	382.4
652.0	379.8
652.2	377.5
652.4	374.5
652.6	371.6
652.8	368.5
653.0	365.2
653.2	362.7
653.4	360.0
653.6	357.6
653.8	355.3
654.0	353.2
654.2	350.9
654.4	348.1
654.6	345.3
654.8	342.4
655.0	339.5
655.2	337.0
655.4	334.7
655.6	332.1
655.8	329.6
656.0	327.4
656.2	324.9
656.4	322.0
656.6	320.0
656.8	318.4
657.0	316.2
657.2	314.7
657.4	312.1
657.6	309.0
657.8	306.8
658.0	304.9
658.2	302.7
658.4	300.9
658.6	298.5
658.8	296.5
659.0	294.3
659.2	292.3
659.4	289.4
659.6	286.6
659.8	284.4
660.0	282.8
660.2	280.6
660.4	278.9
660.6	276.4
660.8	274.2
661.0	272.0
661.2	270.0
661.4	267.9
661.6	266.2
661.8	264.3
662.0	262.4
662.2	260.0
662.4	257.9
662.6	256.1
662.8	254.5
663.0	252.9
663.2	251.2
663.4	249.1
663.6	247.6
663.8	246.0
664.0	244.5
664.2	243.0
664.4	241.0
664.6	238.7
664.8	236.8
665.0	234.3
665.2	232.5
665.4	230.3
665.6	228.5
665.8	227.4
666.0	226.3
666.2	224.6
666.4	223.1
666.6	221.0
666.8	218.4
667.0	216.4
667.2	214.8
667.4	213.1
667.6	212.1
667.8	210.7
668.0	208.6
668.2	207.3
668.4	205.9
668.6	204.4
668.8	203.2
669.0	201.9
669.2	200.1
669.4	198.8
669.6	197.1
669.8	195.7
670.0	194.3
670.2	193.4
670.4	191.6
670.6	189.4
670.8	187.9
671.0	186.3
671.2	185.0
671.4	184.0
671.6	182.8
671.8	181.4
672.0	180.0
672.2	177.9
672.4	176.0
672.6	174.3
672.8	172.9
673.0	171.9
673.2	170.7
673.4	169.7
673.6	168.6
673.8	167.5
674.0	166.4
674.2	165.2
674.4	163.5
674.6	162.0
674.8	160.6
675.0	159.1
675.2	158.2
675.4	157.4
675.6	156.4
675.8	155.6
676.0	154.6
676.2	153.4
676.4	152.1
676.6	151.1
676.8	149.8
677.0	148.2
677.2	147.0
677.4	145.6
677.6	144.2
677.8	143.4
678.0	142.2
678.2	140.5
678.4	139.5
678.6	138.2
678.8	137.3
679.0	137.2
679.2	136.5
679.4	135.1
679.6	134.3
679.8	133.0
680.0	132.0
680.2	131.4
680.4	130.5
680.6	129.2
680.8	128.0
681.0	126.7
681.2	125.7
681.4	124.6
681.6	124.0
681.8	123.3
682.0	122.3
682.2	121.4
682.4	120.3
682.6	119.0
682.8	117.8
683.0	117.2
683.2	116.6
683.4	116.1
683.6	115.4
683.8	114.2
684.0	113.0
684.2	112.0
684.4	111.2
684.6	110.6
684.8	109.7
685.0	108.9
685.2	108.1
685.4	107.1
685.6	106.1
685.8	105.2
686.0	104.1
686.2	103.2
686.4	102.7
686.6	101.8
686.8	101.2
687.0	100.4
687.2	99.53
687.4	98.43
687.6	97.45
687.8	96.64
688.0	95.99
688.2	95.49
688.4	94.92
688.6	94.10
688.8	93.20
689.0	92.58
689.2	91.69
689.4	91.19
689.6	90.39
689.8	89.64
690.0	88.76
690.2	88.53
690.4	87.96
690.6	87.48
690.8	86.62
691.0	85.95
691.2	85.24
691.4	85.03
691.6	84.33
691.8	83.81
692.0	83.22
692.2	82.26
692.4	81.62
692.6	80.90
692.8	80.27
693.0	79.67
693.2	79.17
693.4	78.52
693.6	78.27
693.8	77.58
694.0	77.00
694.2	76.13
694.4	75.46
694.6	75.05
694.8	74.47
695.0	73.84
695.2	73.32
695.4	72.76
695.6	72.36
695.8	72.09
696.0	71.45
696.2	71.10
696.4	70.39
696.6	69.58
696.8	69.19
697.0	68.81
697.2	68.24
697.4	68.02
697.6	67.62
697.8	67.12
698.0	66.99
698.2	66.31
698.4	65.76
698.6	65.43
698.8	65.04
699.0	64.48
699.2	64.01
699.4	63.45
699.6	62.93
699.8	62.56
700.0	62.08
700.2	61.87
700.4	61.47
700.6	61.20
700.8	60.71
701.0	60.25
701.2	59.81
701.4	59.43
701.6	58.81
701.8	58.31
702.0	58.15
702.2	57.86
702.4	57.25
702.6	56.61
702.8	56.12
703.0	55.94
703.2	55.96
703.4	55.56
703.6	54.94
703.8	54.60
704.0	54.25
704.2	53.96
704.4	53.50
704.6	53.08
704.8	52.86
705.0	52.59
705.2	52.09
705.4	51.67
705.6	51.03
705.8	50.90
706.0	50.69
706.2	50.45
706.4	50.15
706.6	49.84
706.8	49.26
707.0	48.85
707.2	48.55
707.4	48.30
707.6	47.84
707.8	47.52
708.0	47.00
708.2	46.60
708.4	46.66
708.6	46.41
708.8	46.27
709.0	46.08
709.2	45.67
709.4	45.13
709.6	44.61
709.8	44.12
710.0	43.79
710.2	43.72
710.4	43.69
710.6	43.37
710.8	42.95
711.0	42.49
711.2	42.15
711.4	41.86
711.6	41.50
711.8	41.24
712.0	40.99
712.2	40.49
712.4	40.52
712.6	39.96
712.8	39.74
713.0	39.60
713.2	39.43
713.4	39.01
713.6	38.95
713.8	38.58
714.0	38.40
714.2	38.02
714.4	37.85
714.6	37.48
714.8	37.25
715.0	37.14
715.2	36.89
715.4	36.45
715.6	36.25
715.8	35.99
716.0	35.62
716.2	35.34
716.4	34.85
716.6	34.64
716.8	34.40
717.0	34.48
717.2	34.30
717.4	33.91
717.6	33.24
717.8	32.90
718.0	32.63
718.2	32.67
718.4	32.60
718.6	32.39
718.8	32.15
719.0	31.63
719.2	31.23
719.4	30.89
719.6	30.80
719.8	30.61
720.0	30.64
720.2	30.40
720.4	30.07
720.6	29.89
720.8	29.73
721.0	29.38
721.2	29.07
721.4	28.83
721.6	28.53
721.8	28.32
722.0	28.09
722.2	27.76
722.4	27.43
722.6	27.30
722.8	27.18
723.0	26.94
723.2	26.82
723.4	26.65
723.6	26.41
723.8	26.25
724.0	26.00
724.2	25.62
724.4	25.37
724.6	25.26
724.8	25.01
725.0	24.77
725.2	24.71
725.4	24.59
725.6	24.36
725.8	24.12
726.0	23.79
726.2	23.59
726.4	23.45
726.6	23.35
726.8	23.15
727.0	23.10
727.2	22.82
727.4	22.72
727.6	22.57
727.8	22.46
728.0	22.16
728.2	22.20
728.4	21.82
728.6	21.62
728.8	21.52
729.0	21.37
729.2	21.14
729.4	21.12
729.6	20.98
729.8	20.82
730.0	20.56
730.2	20.18
730.4	19.98
730.6	19.81
730.8	19.71
731.0	19.57
731.2	19.47
731.4	19.19
731.6	19.05
731.8	18.86
732.0	18.75
732.2	18.62
732.4	18.60
732.6	18.44
732.8	18.14
733.0	17.99
733.2	17.91
733.4	17.91
733.6	17.72
733.8	17.52
734.0	17.33
734.2	17.22
734.4	17.13
734.6	17.15
734.8	16.92
735.0	16.72
