Sample:	'20211010A(EM)
File name:	g-ni-cds 1;5 500v.FDS
Run date:	'15:14:43, 03/22/2023
Operator:	Administrator
Comment:	'

Instrument
Model:	F-4700 FL Spectrophotometer
Serial number:	2019-001
ROM Version:	5J24010 00

Instrument parameters
Measurement type:	Wavelength scan
Scan mode:	Emission
Data mode:	Fluorescence
EX WL:	350.0 nm
EM  Start WL:	370.0 nm
EM  End WL:	800.0 nm
Scan speed:	1200 nm/min
Delay:	0.0 s
EX Slit:	10.0 nm
EM Slit:	10.0 nm
PMT Voltage:	500 V
Response:	0.002 s
Corrected spectra:	Off
Shutter control:	On

Processing performed
Savitsky-Golay smoothed
Smoothing order:	3
Number of points:	7
Number of times:	1

Peak integration
Integration method:	Rectangular
Sensitivity:	1
Threshold:	1.000

Peaks
No.	Start(nm)	Apex(nm)	End(nm)	Height(Data)	Valley(nm)	Valley(Data)
1	373.0	373.6	399.0	26.94	399.0	15.72
2	399.0	400.0	410.8	16.84	410.8	14.49
3	410.8	415.2	416.0	16.81	416.0	15.69
4	416.0	533.6	536.0	2378	536.0	2351
5	536.0	536.6	685.8	2360	685.8	83.81
6	685.8	700.2	701.0	113.3	701.0	110.9
7	701.0	701.8	800.0	113.4	800.0	2.233

Data points
nm	Data
370.0	28.35
370.2	28.22
370.4	27.74
370.6	27.20
370.8	27.18
371.0	27.38
371.2	26.99
371.4	27.04
371.6	27.40
371.8	26.81
372.0	26.78
372.2	26.57
372.4	26.03
372.6	26.39
372.8	26.31
373.0	25.68
373.2	25.68
373.4	26.40
373.6	26.94
373.8	26.78
374.0	26.47
374.2	25.22
374.4	24.95
374.6	25.33
374.8	25.28
375.0	25.01
375.2	25.21
375.4	24.73
375.6	25.08
375.8	25.19
376.0	25.44
376.2	25.44
376.4	24.94
376.6	24.74
376.8	24.65
377.0	24.65
377.2	24.85
377.4	24.56
377.6	24.31
377.8	24.33
378.0	24.15
378.2	23.97
378.4	23.45
378.6	23.51
378.8	23.80
379.0	24.09
379.2	24.40
379.4	24.15
379.6	23.37
379.8	23.26
380.0	23.04
380.2	22.96
380.4	23.26
380.6	22.96
380.8	22.96
381.0	23.20
381.2	23.37
381.4	23.49
381.6	23.43
381.8	22.69
382.0	22.79
382.2	22.68
382.4	23.32
382.6	23.46
382.8	22.82
383.0	22.34
383.2	22.49
383.4	22.46
383.6	23.00
383.8	22.96
384.0	22.34
384.2	22.25
384.4	22.38
384.6	22.42
384.8	22.25
385.0	22.37
385.2	21.95
385.4	21.51
385.6	21.63
385.8	21.35
386.0	20.98
386.2	20.98
386.4	20.77
386.6	21.17
386.8	21.70
387.0	21.62
387.2	21.66
387.4	20.98
387.6	20.67
387.8	20.85
388.0	20.86
388.2	20.77
388.4	20.89
388.6	20.41
388.8	20.31
389.0	20.16
389.2	20.35
389.4	20.28
389.6	20.16
389.8	20.14
390.0	20.21
390.2	20.05
390.4	19.91
390.6	20.15
390.8	19.58
391.0	19.29
391.2	19.08
391.4	18.74
391.6	18.67
391.8	18.96
392.0	18.93
392.2	18.91
392.4	18.73
392.6	18.54
392.8	18.44
393.0	18.26
393.2	18.48
393.4	18.25
393.6	18.25
393.8	18.03
394.0	18.02
394.2	18.09
394.4	17.88
394.6	17.60
394.8	17.70
395.0	17.29
395.2	17.23
395.4	17.41
395.6	17.42
395.8	17.33
396.0	17.43
396.2	16.77
396.4	16.77
396.6	16.85
396.8	16.94
397.0	16.77
397.2	17.14
397.4	16.71
397.6	17.14
397.8	17.06
398.0	17.30
398.2	17.26
398.4	17.51
398.6	16.71
398.8	16.42
399.0	15.72
399.2	15.88
399.4	15.87
399.6	16.25
399.8	16.59
400.0	16.84
400.2	16.78
400.4	16.69
400.6	16.64
400.8	16.21
401.0	16.15
401.2	15.80
401.4	15.70
401.6	15.49
401.8	16.01
402.0	15.93
402.2	15.87
402.4	15.93
402.6	15.95
402.8	15.62
403.0	15.69
403.2	15.73
403.4	15.54
403.6	15.79
403.8	15.63
404.0	15.59
404.2	15.32
404.4	15.30
404.6	15.28
404.8	15.01
405.0	14.71
405.2	14.90
405.4	14.89
405.6	14.90
405.8	15.21
406.0	15.12
406.2	15.04
406.4	15.01
406.6	15.22
406.8	15.00
407.0	15.48
407.2	15.55
407.4	15.50
407.6	15.17
407.8	15.16
408.0	14.89
408.2	15.11
408.4	15.18
408.6	15.32
408.8	15.12
409.0	15.37
409.2	15.42
409.4	15.35
409.6	15.36
409.8	15.16
410.0	14.82
410.2	14.91
410.4	14.61
410.6	14.58
410.8	14.49
411.0	14.49
411.2	14.76
411.4	14.97
411.6	14.78
411.8	15.26
412.0	15.36
412.2	15.62
412.4	15.95
412.6	15.57
412.8	15.28
413.0	15.34
413.2	15.26
413.4	15.55
413.6	15.70
413.8	15.67
414.0	16.08
414.2	15.92
414.4	15.43
414.6	15.59
414.8	15.77
415.0	16.31
415.2	16.81
415.4	16.38
415.6	15.92
415.8	15.76
416.0	15.69
416.2	16.03
416.4	15.88
416.6	15.99
416.8	16.01
417.0	15.95
417.2	16.23
417.4	16.32
417.6	16.34
417.8	16.25
418.0	16.22
418.2	16.25
418.4	16.16
418.6	16.03
418.8	16.24
419.0	16.15
419.2	16.63
419.4	16.58
419.6	16.39
419.8	16.38
420.0	16.44
420.2	16.65
420.4	17.36
420.6	17.27
420.8	17.71
421.0	17.21
421.2	16.93
421.4	17.10
421.6	17.16
421.8	17.04
422.0	17.56
422.2	17.23
422.4	17.32
422.6	17.52
422.8	17.53
423.0	17.62
423.2	17.59
423.4	17.52
423.6	17.49
423.8	17.49
424.0	17.58
424.2	18.06
424.4	18.08
424.6	18.05
424.8	17.96
425.0	18.17
425.2	18.00
425.4	18.15
425.6	18.00
425.8	18.10
426.0	18.23
426.2	18.84
426.4	19.37
426.6	19.45
426.8	19.37
427.0	19.52
427.2	19.46
427.4	19.40
427.6	19.52
427.8	19.48
428.0	19.25
428.2	19.82
428.4	19.72
428.6	19.69
428.8	19.90
429.0	19.86
429.2	19.56
429.4	19.75
429.6	19.24
429.8	19.18
430.0	19.49
430.2	19.85
430.4	20.14
430.6	20.64
430.8	20.54
431.0	20.68
431.2	20.93
431.4	21.40
431.6	21.45
431.8	21.74
432.0	21.54
432.2	21.63
432.4	21.93
432.6	22.23
432.8	21.98
433.0	22.51
433.2	22.66
433.4	22.40
433.6	22.45
433.8	22.26
434.0	22.01
434.2	22.40
434.4	22.84
434.6	22.94
434.8	23.44
435.0	23.68
435.2	23.87
435.4	23.72
435.6	24.14
435.8	24.32
436.0	24.01
436.2	23.55
436.4	23.83
436.6	23.90
436.8	24.75
437.0	25.36
437.2	25.43
437.4	25.18
437.6	25.58
437.8	25.65
438.0	26.12
438.2	26.30
438.4	26.70
438.6	26.46
438.8	26.75
439.0	26.99
439.2	27.35
439.4	27.11
439.6	27.22
439.8	27.32
440.0	27.77
440.2	27.65
440.4	28.15
440.6	27.75
440.8	28.51
441.0	28.89
441.2	29.33
441.4	28.93
441.6	29.11
441.8	29.05
442.0	29.31
442.2	28.94
442.4	29.74
442.6	30.29
442.8	30.55
443.0	31.05
443.2	30.97
443.4	30.54
443.6	30.55
443.8	31.10
444.0	31.17
444.2	31.59
444.4	32.04
444.6	32.54
444.8	32.52
445.0	32.58
445.2	32.70
445.4	32.65
445.6	32.13
445.8	32.43
446.0	33.05
446.2	33.58
446.4	34.68
446.6	35.11
446.8	34.97
447.0	34.69
447.2	34.15
447.4	34.07
447.6	34.71
447.8	35.60
448.0	36.21
448.2	36.80
448.4	36.52
448.6	35.88
448.8	35.56
449.0	36.07
449.2	36.06
449.4	37.67
449.6	38.54
449.8	39.02
450.0	39.22
450.2	39.30
450.4	39.29
450.6	40.03
450.8	39.79
451.0	40.07
451.2	40.36
451.4	40.63
451.6	41.65
451.8	42.43
452.0	43.20
452.2	43.70
452.4	43.36
452.6	43.41
452.8	43.93
453.0	44.52
453.2	45.52
453.4	46.15
453.6	46.01
453.8	46.48
454.0	47.21
454.2	48.00
454.4	48.29
454.6	48.58
454.8	48.95
455.0	49.20
455.2	49.62
455.4	50.54
455.6	52.04
455.8	53.25
456.0	54.33
456.2	54.62
456.4	54.64
456.6	54.56
456.8	55.19
457.0	55.62
457.2	56.12
457.4	57.20
457.6	57.69
457.8	59.03
458.0	60.55
458.2	62.12
458.4	62.57
458.6	63.15
458.8	63.89
459.0	65.47
459.2	67.45
459.4	68.03
459.6	68.33
459.8	68.94
460.0	70.89
460.2	72.01
460.4	73.32
460.6	73.85
460.8	74.76
461.0	76.04
461.2	77.50
461.4	78.75
461.6	80.38
461.8	81.76
462.0	82.53
462.2	83.87
462.4	85.34
462.6	87.53
462.8	89.94
463.0	90.94
463.2	92.05
463.4	93.10
463.6	95.39
463.8	97.99
464.0	99.26
464.2	99.54
464.4	100.4
464.6	101.8
464.8	105.0
465.0	108.2
465.2	110.5
465.4	112.0
465.6	112.1
465.8	113.9
466.0	116.2
466.2	118.7
466.4	121.8
466.6	123.6
466.8	123.9
467.0	125.4
467.2	127.8
467.4	130.5
467.6	133.5
467.8	136.5
468.0	138.8
468.2	140.8
468.4	143.8
468.6	145.2
468.8	146.1
469.0	148.5
469.2	150.5
469.4	152.8
469.6	155.1
469.8	158.5
470.0	160.9
470.2	165.2
470.4	167.9
470.6	170.7
470.8	172.4
471.0	176.2
471.2	178.0
471.4	182.1
471.6	184.5
471.8	187.7
472.0	190.6
472.2	192.4
472.4	194.1
472.6	197.2
472.8	200.6
473.0	204.9
473.2	210.3
473.4	213.2
473.6	216.1
473.8	218.5
474.0	220.0
474.2	222.2
474.4	225.1
474.6	228.9
474.8	231.5
475.0	235.3
475.2	239.2
475.4	243.1
475.6	246.5
475.8	250.6
476.0	251.6
476.2	254.1
476.4	258.6
476.6	261.6
476.8	262.6
477.0	264.8
477.2	268.4
477.4	274.1
477.6	278.8
477.8	282.8
478.0	284.7
478.2	287.1
478.4	291.7
478.6	295.5
478.8	299.5
479.0	305.6
479.2	312.0
479.4	316.0
479.6	320.5
479.8	319.8
480.0	322.5
480.2	327.0
480.4	331.4
480.6	336.9
480.8	342.6
481.0	346.7
481.2	352.5
481.4	357.2
481.6	360.7
481.8	364.2
482.0	367.5
482.2	370.7
482.4	374.5
482.6	378.8
482.8	383.4
483.0	389.6
483.2	394.5
483.4	397.9
483.6	402.2
483.8	407.8
484.0	413.0
484.2	419.1
484.4	421.7
484.6	425.8
484.8	430.9
485.0	437.6
485.2	442.0
485.4	447.2
485.6	451.4
485.8	454.5
486.0	460.5
486.2	465.2
486.4	468.9
486.6	476.5
486.8	484.7
487.0	492.1
487.2	499.2
487.4	503.6
487.6	509.2
487.8	515.3
488.0	519.2
488.2	525.8
488.4	530.3
488.6	535.5
488.8	541.7
489.0	548.2
489.2	552.8
489.4	559.9
489.6	565.4
489.8	573.5
490.0	580.0
490.2	589.3
490.4	596.6
490.6	604.6
490.8	612.0
491.0	617.4
491.2	621.2
491.4	628.7
491.6	635.4
491.8	644.6
492.0	655.0
492.2	664.6
492.4	671.2
492.6	678.8
492.8	683.1
493.0	689.3
493.2	696.4
493.4	707.4
493.6	715.2
493.8	723.9
494.0	731.1
494.2	740.2
494.4	749.3
494.6	755.9
494.8	763.6
495.0	771.7
495.2	780.8
495.4	790.3
495.6	802.1
495.8	811.6
496.0	822.5
496.2	833.5
496.4	842.6
496.6	851.3
496.8	862.0
497.0	869.7
497.2	878.2
497.4	890.2
497.6	897.7
497.8	909.4
498.0	922.1
498.2	929.4
498.4	937.8
498.6	950.6
498.8	957.8
499.0	970.1
499.2	979.8
499.4	992.3
499.6	1000
499.8	1012
500.0	1024
500.2	1036
500.4	1046
500.6	1059
500.8	1068
501.0	1078
501.2	1090
501.4	1103
501.6	1114
501.8	1125
502.0	1136
502.2	1147
502.4	1159
502.6	1172
502.8	1183
503.0	1195
503.2	1208
503.4	1222
503.6	1235
503.8	1246
504.0	1257
504.2	1270
504.4	1282
504.6	1296
504.8	1306
505.0	1318
505.2	1329
505.4	1342
505.6	1352
505.8	1367
506.0	1379
506.2	1396
506.4	1409
506.6	1421
506.8	1434
507.0	1450
507.2	1463
507.4	1478
507.6	1487
507.8	1496
508.0	1509
508.2	1523
508.4	1532
508.6	1548
508.8	1559
509.0	1570
509.2	1583
509.4	1597
509.6	1608
509.8	1623
510.0	1631
510.2	1642
510.4	1652
510.6	1662
510.8	1675
511.0	1688
511.2	1697
511.4	1708
511.6	1721
511.8	1729
512.0	1740
512.2	1754
512.4	1764
512.6	1770
512.8	1782
513.0	1796
513.2	1810
513.4	1826
513.6	1837
513.8	1845
514.0	1854
514.2	1864
514.4	1878
514.6	1887
514.8	1897
515.0	1907
515.2	1914
515.4	1923
515.6	1936
515.8	1948
516.0	1953
516.2	1962
516.4	1971
516.6	1985
516.8	1998
517.0	2010
517.2	2016
517.4	2027
517.6	2038
517.8	2049
518.0	2054
518.2	2058
518.4	2061
518.6	2066
518.8	2074
519.0	2079
519.2	2086
519.4	2095
519.6	2110
519.8	2120
520.0	2131
520.2	2139
520.4	2141
520.6	2148
520.8	2157
521.0	2159
521.2	2168
521.4	2174
521.6	2176
521.8	2183
522.0	2186
522.2	2193
522.4	2207
522.6	2216
522.8	2222
523.0	2228
523.2	2231
523.4	2236
523.6	2241
523.8	2242
524.0	2244
524.2	2251
524.4	2264
524.6	2275
524.8	2277
525.0	2274
525.2	2271
525.4	2274
525.6	2278
525.8	2287
526.0	2290
526.2	2295
526.4	2299
526.6	2301
526.8	2302
527.0	2307
527.2	2308
527.4	2312
527.6	2315
527.8	2317
528.0	2322
528.2	2329
528.4	2330
528.6	2334
528.8	2336
529.0	2337
529.2	2336
529.4	2340
529.6	2342
529.8	2345
530.0	2345
530.2	2341
530.4	2341
530.6	2349
530.8	2356
531.0	2359
531.2	2354
531.4	2347
531.6	2348
531.8	2351
532.0	2348
532.2	2352
532.4	2356
532.6	2362
532.8	2365
533.0	2368
533.2	2368
533.4	2373
533.6	2378
533.8	2375
534.0	2372
534.2	2375
534.4	2373
534.6	2373
534.8	2372
535.0	2368
535.2	2369
535.4	2370
535.6	2363
535.8	2355
536.0	2351
536.2	2353
536.4	2356
536.6	2360
536.8	2359
537.0	2357
537.2	2357
537.4	2354
537.6	2351
537.8	2348
538.0	2347
538.2	2348
538.4	2350
538.6	2349
538.8	2350
539.0	2347
539.2	2346
539.4	2343
539.6	2343
539.8	2343
540.0	2341
540.2	2332
540.4	2330
540.6	2324
540.8	2324
541.0	2327
541.2	2327
541.4	2325
541.6	2326
541.8	2323
542.0	2317
542.2	2314
542.4	2310
542.6	2306
542.8	2301
543.0	2296
543.2	2288
543.4	2289
543.6	2292
543.8	2291
544.0	2290
544.2	2282
544.4	2276
544.6	2272
544.8	2269
545.0	2264
545.2	2261
545.4	2261
545.6	2266
545.8	2265
546.0	2256
546.2	2250
546.4	2248
546.6	2244
546.8	2244
547.0	2239
547.2	2232
547.4	2227
547.6	2224
547.8	2215
548.0	2212
548.2	2204
548.4	2202
548.6	2194
548.8	2192
549.0	2189
549.2	2191
549.4	2187
549.6	2185
549.8	2177
550.0	2172
550.2	2162
550.4	2160
550.6	2159
550.8	2156
551.0	2151
551.2	2147
551.4	2141
551.6	2135
551.8	2134
552.0	2127
552.2	2119
552.4	2118
552.6	2112
552.8	2105
553.0	2098
553.2	2092
553.4	2086
553.6	2080
553.8	2075
554.0	2076
554.2	2067
554.4	2060
554.6	2051
554.8	2041
555.0	2033
555.2	2033
555.4	2032
555.6	2029
555.8	2029
556.0	2026
556.2	2015
556.4	2012
556.6	2006
556.8	1998
557.0	1990
557.2	1979
557.4	1971
557.6	1970
557.8	1962
558.0	1955
558.2	1945
558.4	1938
558.6	1940
558.8	1943
559.0	1939
559.2	1937
559.4	1928
559.6	1918
559.8	1909
560.0	1901
560.2	1894
560.4	1888
560.6	1882
560.8	1873
561.0	1864
561.2	1860
561.4	1859
561.6	1857
561.8	1854
562.0	1848
562.2	1836
562.4	1831
562.6	1827
562.8	1822
563.0	1813
563.2	1805
563.4	1797
563.6	1789
563.8	1784
564.0	1781
564.2	1776
564.4	1770
564.6	1763
564.8	1756
565.0	1752
565.2	1749
565.4	1746
565.6	1739
565.8	1733
566.0	1731
566.2	1721
566.4	1717
566.6	1709
566.8	1699
567.0	1692
567.2	1693
567.4	1687
567.6	1683
567.8	1676
568.0	1668
568.2	1661
568.4	1662
568.6	1654
568.8	1641
569.0	1634
569.2	1631
569.4	1634
569.6	1637
569.8	1629
570.0	1619
570.2	1612
570.4	1607
570.6	1603
570.8	1600
571.0	1591
571.2	1582
571.4	1578
571.6	1572
571.8	1565
572.0	1560
572.2	1554
572.4	1548
572.6	1543
572.8	1538
573.0	1534
573.2	1529
573.4	1523
573.6	1516
573.8	1508
574.0	1504
574.2	1502
574.4	1497
574.6	1492
574.8	1484
575.0	1479
575.2	1471
575.4	1465
575.6	1457
575.8	1452
576.0	1448
576.2	1448
576.4	1445
576.6	1444
576.8	1445
577.0	1440
577.2	1432
577.4	1423
577.6	1413
577.8	1405
578.0	1404
578.2	1398
578.4	1392
578.6	1388
578.8	1387
579.0	1384
579.2	1384
579.4	1376
579.6	1368
579.8	1364
580.0	1363
580.2	1358
580.4	1355
580.6	1350
580.8	1342
581.0	1336
581.2	1334
581.4	1333
581.6	1331
581.8	1329
582.0	1322
582.2	1318
582.4	1314
582.6	1309
582.8	1301
583.0	1294
583.2	1287
583.4	1287
583.6	1285
583.8	1283
584.0	1279
584.2	1275
584.4	1264
584.6	1260
584.8	1254
585.0	1251
585.2	1250
585.4	1250
585.6	1246
585.8	1244
586.0	1238
586.2	1234
586.4	1231
586.6	1228
586.8	1226
587.0	1222
587.2	1215
587.4	1212
587.6	1206
587.8	1202
588.0	1195
588.2	1188
588.4	1185
588.6	1183
588.8	1179
589.0	1176
589.2	1171
589.4	1164
589.6	1161
589.8	1156
590.0	1151
590.2	1150
590.4	1150
590.6	1150
590.8	1149
591.0	1144
591.2	1139
591.4	1133
591.6	1128
591.8	1125
592.0	1124
592.2	1122
592.4	1117
592.6	1110
592.8	1105
593.0	1098
593.2	1098
593.4	1096
593.6	1092
593.8	1089
594.0	1084
594.2	1080
594.4	1076
594.6	1072
594.8	1065
595.0	1061
595.2	1055
595.4	1052
595.6	1048
595.8	1048
596.0	1042
596.2	1037
596.4	1035
596.6	1034
596.8	1032
597.0	1029
597.2	1023
597.4	1019
597.6	1017
597.8	1013
598.0	1005
598.2	1001
598.4	993.6
598.6	987.6
598.8	985.0
599.0	980.2
599.2	976.1
599.4	976.4
599.6	973.3
599.8	968.8
600.0	966.3
600.2	959.2
600.4	955.3
600.6	949.3
600.8	943.9
601.0	937.6
601.2	935.3
601.4	931.0
601.6	929.7
601.8	925.4
602.0	919.9
602.2	910.8
602.4	906.5
602.6	900.5
602.8	894.5
603.0	891.2
603.2	886.4
603.4	882.9
603.6	880.0
603.8	878.3
604.0	874.7
604.2	871.2
604.4	867.1
604.6	862.7
604.8	858.1
605.0	853.1
605.2	847.7
605.4	842.6
605.6	841.0
605.8	836.8
606.0	833.5
606.2	827.3
606.4	821.3
606.6	816.0
606.8	812.3
607.0	810.2
607.2	805.3
607.4	797.3
607.6	791.8
607.8	784.8
608.0	780.6
608.2	780.5
608.4	778.4
608.6	774.2
608.8	773.1
609.0	765.8
609.2	760.2
609.4	754.7
609.6	750.4
609.8	746.6
610.0	745.4
610.2	742.7
610.4	739.8
610.6	733.6
610.8	728.8
611.0	723.0
611.2	717.0
611.4	713.8
611.6	710.5
611.8	703.9
612.0	700.1
612.2	695.9
612.4	691.3
612.6	686.7
612.8	682.6
613.0	677.0
613.2	674.2
613.4	670.6
613.6	666.7
613.8	661.9
614.0	657.9
614.2	656.1
614.4	655.1
614.6	653.3
614.8	652.0
615.0	646.7
615.2	642.3
615.4	639.0
615.6	633.1
615.8	626.6
616.0	624.6
616.2	618.7
616.4	616.8
616.6	613.7
616.8	611.0
617.0	606.0
617.2	604.6
617.4	601.0
617.6	598.3
617.8	594.5
618.0	591.5
618.2	585.0
618.4	579.4
618.6	575.3
618.8	571.3
619.0	570.5
619.2	568.0
619.4	563.4
619.6	559.2
619.8	557.3
620.0	553.9
620.2	551.4
620.4	546.1
620.6	542.7
620.8	538.2
621.0	534.9
621.2	533.1
621.4	531.7
621.6	529.7
621.8	527.4
622.0	523.4
622.2	518.9
622.4	515.0
622.6	513.5
622.8	513.6
623.0	509.1
623.2	506.5
623.4	502.1
623.6	495.9
623.8	493.6
624.0	492.1
624.2	488.7
624.4	485.8
624.6	482.8
624.8	480.1
625.0	480.9
625.2	479.7
625.4	479.6
625.6	474.8
625.8	470.4
626.0	465.4
626.2	464.2
626.4	461.9
626.6	462.6
626.8	459.0
627.0	456.4
627.2	453.2
627.4	451.8
627.6	446.5
627.8	444.1
628.0	439.0
628.2	434.5
628.4	432.2
628.6	431.0
628.8	428.7
629.0	428.6
629.2	428.3
629.4	426.6
629.6	424.5
629.8	422.4
630.0	418.9
630.2	413.7
630.4	411.4
630.6	409.7
630.8	407.1
631.0	405.2
631.2	403.7
631.4	401.4
631.6	400.9
631.8	400.1
632.0	395.3
632.2	391.9
632.4	389.9
632.6	389.5
632.8	389.2
633.0	387.5
633.2	383.8
633.4	380.9
633.6	378.8
633.8	376.9
634.0	377.3
634.2	374.1
634.4	371.6
634.6	368.3
634.8	366.4
635.0	364.6
635.2	365.6
635.4	365.6
635.6	364.2
635.8	361.5
636.0	359.8
636.2	356.7
636.4	355.0
636.6	353.0
636.8	348.8
637.0	345.5
637.2	344.3
637.4	343.4
637.6	343.0
637.8	340.8
638.0	338.3
638.2	337.2
638.4	336.5
638.6	333.9
638.8	330.8
639.0	329.0
639.2	327.8
639.4	327.3
639.6	327.1
639.8	324.1
640.0	321.4
640.2	320.4
640.4	318.5
640.6	316.2
640.8	315.1
641.0	313.3
641.2	312.0
641.4	311.0
641.6	308.6
641.8	306.1
642.0	304.2
642.2	303.0
642.4	302.6
642.6	302.1
642.8	301.4
643.0	299.8
643.2	298.1
643.4	297.1
643.6	293.4
643.8	290.7
644.0	288.5
644.2	286.0
644.4	285.7
644.6	286.5
644.8	286.2
645.0	286.0
645.2	284.7
645.4	281.5
645.6	277.6
645.8	274.6
646.0	272.4
646.2	271.6
646.4	272.1
646.6	272.1
646.8	270.3
647.0	269.8
647.2	267.6
647.4	265.0
647.6	263.4
647.8	261.1
648.0	261.2
648.2	262.0
648.4	261.6
648.6	258.9
648.8	256.5
649.0	254.2
649.2	254.4
649.4	252.1
649.6	249.2
649.8	245.5
650.0	242.6
650.2	241.8
650.4	242.4
650.6	241.1
650.8	240.0
651.0	239.2
651.2	238.0
651.4	238.0
651.6	237.3
651.8	235.5
652.0	234.9
652.2	233.3
652.4	231.4
652.6	230.7
652.8	229.1
653.0	228.0
653.2	226.6
653.4	223.7
653.6	221.1
653.8	219.9
654.0	220.0
654.2	220.3
654.4	219.1
654.6	217.7
654.8	215.8
655.0	212.9
655.2	211.8
655.4	211.0
655.6	210.7
655.8	209.9
656.0	209.0
656.2	207.0
656.4	204.8
656.6	204.0
656.8	202.9
657.0	200.5
657.2	200.0
657.4	199.3
657.6	196.4
657.8	195.4
658.0	193.8
658.2	191.4
658.4	189.4
658.6	188.9
658.8	188.1
659.0	187.5
659.2	187.3
659.4	185.1
659.6	182.2
659.8	182.4
660.0	181.8
660.2	180.5
660.4	180.5
660.6	179.7
660.8	178.5
661.0	177.3
661.2	175.0
661.4	171.5
661.6	170.5
661.8	170.1
662.0	169.1
662.2	168.0
662.4	166.5
662.6	163.7
662.8	163.4
663.0	163.0
663.2	162.2
663.4	161.7
663.6	159.8
663.8	158.4
664.0	158.0
664.2	156.6
664.4	155.1
664.6	154.0
664.8	151.8
665.0	150.8
665.2	150.4
665.4	149.4
665.6	148.1
665.8	147.6
666.0	146.9
666.2	146.3
666.4	146.4
666.6	145.9
666.8	144.0
667.0	142.1
667.2	140.6
667.4	139.8
667.6	139.7
