Sample:	'20211010A(EM)
File name:	r-cds 1;15 2.FDS
Run date:	'08:09:17, 03/22/2023
Operator:	Administrator
Comment:	'

Instrument
Model:	F-4700 FL Spectrophotometer
Serial number:	2019-001
ROM Version:	5J24010 00

Instrument parameters
Measurement type:	Wavelength scan
Scan mode:	Emission
Data mode:	Fluorescence
EX WL:	530.0 nm
EM  Start WL:	550.0 nm
EM  End WL:	900.0 nm
Scan speed:	1200 nm/min
Delay:	0.0 s
EX Slit:	10.0 nm
EM Slit:	10.0 nm
PMT Voltage:	800 V
Response:	0.002 s
Corrected spectra:	Off
Shutter control:	On

Processing performed
Savitsky-Golay smoothed
Smoothing order:	3
Number of points:	7
Number of times:	1

Peak integration
Integration method:	Rectangular
Sensitivity:	1
Threshold:	1.000

Peaks
No.	Start(nm)	Apex(nm)	End(nm)	Height(Data)	Valley(nm)	Valley(Data)
1	550.0	550.2	552.2	28.99	552.2	16.41
2	552.2	553.2	553.8	23.60	553.8	19.81
3	553.8	558.6	560.2	25.78	560.2	22.86
4	560.2	572.2	572.6	47.34	572.6	43.68
5	572.6	575.8	576.6	54.10	576.6	49.01
6	576.6	581.8	582.4	66.82	582.4	56.36
7	582.4	584.0	585.0	66.76	585.0	64.18
8	585.0	585.8	586.2	68.66	586.2	63.75
9	586.2	589.4	590.2	77.45	590.2	66.75
10	590.2	591.2	592.0	73.65	592.0	69.44
11	592.0	593.6	596.6	79.46	596.6	69.52
12	596.6	597.8	598.4	81.45	598.4	73.95
13	598.4	600.0	602.0	79.56	602.0	72.38
14	602.0	602.8	603.6	81.03	603.6	75.76
15	603.6	605.8	606.6	81.37	606.6	78.76
16	606.6	607.6	608.2	85.73	608.2	81.12
17	608.2	609.0	611.0	86.51	611.0	78.84
18	611.0	615.2	616.8	94.94	616.8	82.99
19	616.8	617.4	618.2	93.83	618.2	83.98
20	618.2	620.0	621.0	99.56	621.0	93.49
21	621.0	624.2	624.8	110.4	624.8	103.9
22	624.8	635.6	636.4	162.2	636.4	149.1
23	636.4	643.6	644.6	214.8	644.6	195.0
24	644.6	646.0	646.8	225.3	646.8	202.7
25	646.8	652.6	653.6	253.8	653.6	237.4
26	653.6	656.0	656.8	255.2	656.8	237.2
27	656.8	657.4	658.2	257.9	658.2	235.4
28	658.2	659.0	659.8	259.4	659.8	243.5
29	659.8	661.0	661.6	261.9	661.6	246.9
30	661.6	663.8	666.4	260.4	666.4	236.1
31	666.4	667.4	668.8	255.5	668.8	239.5
32	668.8	669.8	672.8	254.0	672.8	225.4
33	672.8	673.6	680.6	245.8	680.6	195.2
34	680.6	681.2	683.6	206.5	683.6	187.3
35	683.6	684.8	686.8	194.6	686.8	167.6
36	686.8	688.4	689.8	185.3	689.8	163.1
37	689.8	691.4	697.4	175.1	697.4	145.4
38	697.4	698.4	699.4	160.2	699.4	147.9
39	699.4	701.8	703.6	161.5	703.6	128.9
40	703.6	706.0	706.6	139.5	706.6	131.7
41	706.6	707.2	710.4	142.6	710.4	126.6
42	710.4	711.0	714.0	137.4	714.0	110.4
43	714.0	714.8	718.0	118.6	718.0	104.0
44	718.0	719.0	723.6	115.3	723.6	91.13
45	723.6	725.0	726.8	97.44	726.8	82.60
46	726.8	727.6	729.0	92.12	729.0	80.45
47	729.0	729.8	731.6	90.78	731.6	77.63
48	731.6	732.2	734.8	82.73	734.8	70.87
49	734.8	735.2	738.6	77.85	738.6	60.47
50	738.6	739.4	742.8	69.89	742.8	58.91
51	742.8	743.6	745.4	64.15	745.4	55.01
52	745.4	746.0	747.4	59.10	747.4	52.12
53	747.4	748.2	749.2	59.55	749.2	49.96
54	749.2	751.0	753.2	54.55	753.2	42.64
55	753.2	754.2	755.0	49.95	755.0	40.89
56	755.0	755.6	757.4	45.51	757.4	39.60
57	757.4	758.4	761.2	44.78	761.2	35.95
58	761.2	762.2	764.6	41.47	764.6	34.61
59	764.6	765.0	766.4	37.53	766.4	29.27
60	766.4	767.0	768.6	35.79	768.6	29.77
61	768.6	769.6	770.6	34.58	770.6	28.80
62	770.6	772.6	775.0	33.45	775.0	25.46
63	775.0	776.8	782.0	29.04	782.0	22.00
64	782.0	783.0	784.0	27.12	784.0	23.52
65	784.0	785.0	786.0	27.96	786.0	20.02
66	786.0	788.8	790.6	24.78	790.6	22.07
67	790.6	791.2	793.6	23.70	793.6	20.71
68	793.6	794.8	795.8	24.75	795.8	19.78
69	795.8	797.0	798.4	22.39	798.4	16.13
70	798.4	800.4	801.8	24.65	801.8	19.13
71	801.8	802.8	805.2	22.04	805.2	18.16
72	805.2	805.8	806.4	20.75	806.4	17.03
73	806.4	809.0	810.4	20.30	810.4	15.45
74	810.4	812.2	814.2	18.62	814.2	14.83
75	814.2	815.6	816.4	17.23	816.4	14.86
76	816.4	817.0	817.8	18.68	817.8	14.21
77	817.8	820.0	821.6	21.30	821.6	17.59
78	821.6	823.2	824.2	22.08	824.2	18.34
79	824.2	826.0	827.0	23.92	827.0	18.07
80	827.0	829.0	832.6	21.02	832.6	10.41
81	832.6	833.4	840.6	14.18	840.6	5.516
82	840.6	841.6	843.2	6.623	843.2	5.291
83	843.2	843.8	845.8	6.299	845.8	3.322
84	845.8	846.6	847.4	6.483	847.4	2.939
85	847.4	850.8	852.6	4.554	852.6	1.753
86	852.6	855.4	855.8	3.468	855.8	1.178
87	855.8	857.8	861.6	3.429	861.6	1.213
88	861.6	862.2	863.8	2.394	863.8	0.816
89	863.8	865.2	867.6	2.795	867.6	1.718
90	867.6	868.2	869.4	2.845	869.4	1.552
91	869.4	870.0	871.6	3.849	871.6	1.998
92	871.6	873.0	875.6	3.040	875.6	1.505
93	875.6	877.2	878.4	3.024	878.4	1.296
94	878.4	879.2	881.2	2.946	881.2	1.067
95	881.2	882.0	882.8	2.802	882.8	0.756
96	882.8	885.2	886.2	2.877	886.2	1.247
97	886.2	887.8	889.8	3.476	889.8	0.866
98	889.8	894.0	895.6	2.922	895.6	1.346
99	895.6	896.4	897.2	3.227	897.2	1.288

Data points
nm	Data
550.0	28.76
550.2	28.99
550.4	27.34
550.6	24.78
550.8	22.40
551.0	21.15
551.2	21.11
551.4	22.16
551.6	21.05
551.8	20.37
552.0	19.07
552.2	16.41
552.4	18.27
552.6	20.88
552.8	22.19
553.0	23.57
553.2	23.60
553.4	21.81
553.6	21.24
553.8	19.81
554.0	21.42
554.2	22.23
554.4	22.78
554.6	23.67
554.8	22.86
555.0	21.74
555.2	21.71
555.4	22.69
555.6	22.55
555.8	23.69
556.0	23.19
556.2	22.36
556.4	23.20
556.6	24.86
556.8	24.16
557.0	23.62
557.2	23.33
557.4	24.17
557.6	24.73
557.8	25.10
558.0	24.62
558.2	25.51
558.4	25.62
558.6	25.78
558.8	24.61
559.0	24.27
559.2	24.32
559.4	26.27
559.6	24.94
559.8	25.20
560.0	23.92
560.2	22.86
560.4	23.78
560.6	26.44
560.8	28.38
561.0	29.90
561.2	30.31
561.4	28.88
561.6	27.65
561.8	29.10
562.0	30.56
562.2	30.29
562.4	30.93
562.6	30.61
562.8	29.63
563.0	31.35
563.2	33.28
563.4	32.10
563.6	30.61
563.8	30.88
564.0	30.60
564.2	29.79
564.4	33.09
564.6	34.74
564.8	34.65
565.0	33.53
565.2	33.89
565.4	33.56
565.6	35.09
565.8	37.22
566.0	37.46
566.2	35.02
566.4	35.51
566.6	35.91
566.8	35.86
567.0	36.82
567.2	38.49
567.4	38.47
567.6	37.97
567.8	38.66
568.0	38.38
568.2	37.82
568.4	38.07
568.6	39.38
568.8	37.91
569.0	39.93
569.2	40.04
569.4	40.53
569.6	39.50
569.8	42.05
570.0	42.54
570.2	44.33
570.4	43.91
570.6	43.94
570.8	43.30
571.0	45.39
571.2	45.35
571.4	45.47
571.6	44.97
571.8	44.77
572.0	45.34
572.2	47.34
572.4	46.16
572.6	43.68
572.8	44.70
573.0	44.68
573.2	46.29
573.4	46.81
573.6	46.81
573.8	45.42
574.0	46.53
574.2	49.32
574.4	50.78
574.6	49.51
574.8	49.46
575.0	47.29
575.2	47.54
575.4	50.40
575.6	52.08
575.8	54.10
576.0	52.83
576.2	50.05
576.4	49.16
576.6	49.01
576.8	49.91
577.0	52.86
577.2	51.20
577.4	51.52
577.6	51.02
577.8	50.94
578.0	51.33
578.2	54.45
578.4	53.42
578.6	54.54
578.8	56.64
579.0	56.84
579.2	58.94
579.4	59.43
579.6	56.73
579.8	55.58
580.0	57.08
580.2	58.11
580.4	62.03
580.6	63.63
580.8	61.92
581.0	59.90
581.2	58.27
581.4	60.97
581.6	65.24
581.8	66.82
582.0	65.49
582.2	60.48
582.4	56.36
582.6	56.67
582.8	59.84
583.0	61.76
583.2	63.91
583.4	64.51
583.6	65.66
583.8	65.45
584.0	66.76
584.2	66.65
584.4	64.92
584.6	66.03
584.8	64.52
585.0	64.18
585.2	66.37
585.4	66.00
585.6	67.04
585.8	68.66
586.0	65.01
586.2	63.75
586.4	65.39
586.6	64.58
586.8	68.16
587.0	68.46
587.2	66.01
587.4	65.87
587.6	67.46
587.8	69.31
588.0	73.69
588.2	72.20
588.4	69.06
588.6	66.60
588.8	65.46
589.0	68.28
589.2	74.23
589.4	77.45
589.6	75.49
589.8	72.76
590.0	68.86
590.2	66.75
590.4	68.21
590.6	67.94
590.8	68.35
591.0	71.63
591.2	73.65
591.4	73.50
591.6	73.39
591.8	71.13
592.0	69.44
592.2	70.19
592.4	71.39
592.6	70.73
592.8	72.05
593.0	74.16
593.2	75.44
593.4	79.23
593.6	79.46
593.8	76.81
594.0	75.57
594.2	72.90
594.4	74.29
594.6	77.85
594.8	78.99
595.0	75.26
595.2	75.91
595.4	72.46
595.6	72.88
595.8	75.78
596.0	77.19
596.2	74.41
596.4	73.49
596.6	69.52
596.8	70.45
597.0	71.31
597.2	75.27
597.4	78.83
597.6	80.34
597.8	81.45
598.0	78.66
598.2	73.98
598.4	73.95
598.6	75.40
598.8	79.55
599.0	80.92
599.2	77.98
599.4	76.27
599.6	75.10
599.8	77.10
600.0	79.56
600.2	78.23
600.4	78.27
600.6	79.27
600.8	77.73
601.0	79.11
601.2	79.43
601.4	77.45
601.6	76.20
601.8	75.23
602.0	72.38
602.2	74.89
602.4	77.12
602.6	78.78
602.8	81.03
603.0	79.82
603.2	78.75
603.4	79.17
603.6	75.76
603.8	77.53
604.0	78.99
604.2	80.32
604.4	80.85
604.6	80.83
604.8	77.92
605.0	78.71
605.2	80.09
605.4	81.01
605.6	80.37
605.8	81.37
606.0	81.22
606.2	79.38
606.4	80.24
606.6	78.76
606.8	79.03
607.0	80.93
607.2	84.50
607.4	85.11
607.6	85.73
607.8	85.29
608.0	82.57
608.2	81.12
608.4	81.98
608.6	82.91
608.8	84.83
609.0	86.51
609.2	86.14
609.4	86.08
609.6	84.98
609.8	80.87
610.0	83.91
610.2	81.64
610.4	83.62
610.6	84.43
610.8	83.22
611.0	78.84
611.2	83.34
611.4	81.65
611.6	85.41
611.8	82.65
612.0	82.56
612.2	81.79
612.4	83.91
612.6	85.41
612.8	85.14
613.0	82.97
613.2	85.39
613.4	85.44
613.6	85.15
613.8	85.59
614.0	84.99
614.2	86.97
614.4	89.07
614.6	91.50
614.8	92.53
615.0	94.44
615.2	94.94
615.4	93.17
615.6	89.72
615.8	89.76
616.0	88.84
616.2	87.58
616.4	84.25
616.6	83.60
616.8	82.99
617.0	84.61
617.2	91.87
617.4	93.83
617.6	92.65
617.8	90.62
618.0	87.63
618.2	83.98
618.4	90.29
618.6	92.27
618.8	93.64
619.0	93.17
619.2	94.09
619.4	94.71
619.6	97.84
619.8	99.40
620.0	99.56
620.2	98.90
620.4	98.46
620.6	96.12
620.8	94.37
621.0	93.49
621.2	93.77
621.4	98.65
621.6	103.2
621.8	104.4
622.0	104.2
622.2	102.6
622.4	100.3
622.6	102.7
622.8	103.0
623.0	103.7
623.2	104.6
623.4	106.0
623.6	105.8
623.8	108.9
624.0	109.4
624.2	110.4
624.4	109.1
624.6	106.1
624.8	103.9
625.0	104.3
625.2	106.3
625.4	109.5
625.6	109.1
625.8	110.5
626.0	110.2
626.2	113.0
626.4	113.3
626.6	114.1
626.8	110.2
627.0	114.0
627.2	115.0
627.4	113.9
627.6	114.2
627.8	118.2
628.0	115.9
628.2	118.6
628.4	120.6
628.6	117.7
628.8	119.2
629.0	119.9
629.2	120.1
629.4	120.5
629.6	124.6
629.8	128.2
630.0	129.5
630.2	128.4
630.4	127.3
630.6	124.8
630.8	126.9
631.0	128.3
631.2	129.4
631.4	130.1
631.6	128.6
631.8	126.2
632.0	126.0
632.2	126.8
632.4	134.7
632.6	142.5
632.8	148.1
633.0	148.1
633.2	145.5
633.4	139.7
633.6	143.5
633.8	146.9
634.0	150.2
634.2	152.8
634.4	155.7
634.6	155.1
634.8	155.2
635.0	154.2
635.2	154.3
635.4	158.6
635.6	162.2
635.8	160.5
636.0	156.5
636.2	153.4
636.4	149.1
636.6	155.8
636.8	160.6
637.0	158.5
637.2	157.4
637.4	159.3
637.6	158.4
637.8	160.9
638.0	162.9
638.2	160.2
638.4	158.9
638.6	159.7
638.8	162.2
639.0	168.9
639.2	173.4
639.4	178.8
639.6	182.4
639.8	172.1
640.0	167.0
640.2	169.8
640.4	174.3
640.6	185.1
640.8	191.8
641.0	189.5
641.2	189.4
641.4	192.0
641.6	190.4
641.8	193.3
642.0	189.5
642.2	192.2
642.4	192.6
642.6	191.6
642.8	189.9
643.0	196.9
643.2	200.3
643.4	207.4
643.6	214.8
643.8	208.3
644.0	204.3
644.2	200.8
644.4	196.4
644.6	195.0
644.8	202.8
645.0	201.7
645.2	204.1
645.4	207.9
645.6	210.1
645.8	218.9
646.0	225.3
646.2	214.8
646.4	209.4
646.6	203.1
646.8	202.7
647.0	208.8
647.2	215.9
647.4	214.1
647.6	210.6
647.8	209.1
648.0	212.6
648.2	215.9
648.4	223.8
648.6	224.6
648.8	221.0
649.0	214.7
649.2	218.2
649.4	222.3
649.6	228.2
649.8	229.1
650.0	228.5
650.2	224.7
650.4	225.7
650.6	224.2
650.8	227.3
651.0	236.2
651.2	241.9
651.4	244.2
651.6	239.8
651.8	236.2
652.0	236.8
652.2	245.6
652.4	251.2
652.6	253.8
652.8	249.5
653.0	249.7
653.2	242.5
653.4	241.3
653.6	237.4
653.8	243.9
654.0	242.9
654.2	247.5
654.4	243.2
654.6	246.8
654.8	246.2
655.0	250.3
655.2	246.6
655.4	248.5
655.6	247.9
655.8	253.6
656.0	255.2
656.2	254.8
656.4	247.3
656.6	243.7
656.8	237.2
657.0	242.8
657.2	247.9
657.4	257.9
657.6	255.6
657.8	250.6
658.0	239.3
658.2	235.4
658.4	236.8
658.6	248.4
658.8	253.8
659.0	259.4
659.2	253.2
659.4	252.3
659.6	244.6
659.8	243.5
660.0	246.2
660.2	249.1
660.4	251.2
660.6	260.7
660.8	258.1
661.0	261.9
661.2	256.1
661.4	252.4
661.6	246.9
661.8	246.9
662.0	248.1
662.2	249.2
662.4	250.2
662.6	254.3
662.8	250.9
663.0	251.3
663.2	254.8
663.4	252.6
663.6	258.3
663.8	260.4
664.0	258.3
664.2	254.4
664.4	258.4
664.6	256.1
664.8	250.5
665.0	245.3
665.2	246.0
665.4	248.0
665.6	255.8
665.8	254.5
666.0	248.4
666.2	240.9
666.4	236.1
666.6	241.1
666.8	246.5
667.0	246.8
667.2	252.2
667.4	255.5
667.6	246.7
667.8	249.4
668.0	245.4
668.2	244.6
668.4	243.0
668.6	242.9
668.8	239.5
669.0	241.9
669.2	243.3
669.4	252.6
669.6	253.2
669.8	254.0
670.0	251.2
670.2	243.3
670.4	229.6
670.6	232.9
670.8	236.8
671.0	240.7
671.2	241.6
671.4	244.2
671.6	232.9
671.8	232.6
672.0	232.5
672.2	228.9
672.4	226.6
672.6	227.8
672.8	225.4
673.0	226.4
673.2	236.7
673.4	244.1
673.6	245.8
673.8	241.6
674.0	237.8
674.2	229.0
674.4	225.5
674.6	222.6
674.8	219.4
675.0	221.6
675.2	224.0
675.4	223.3
675.6	222.4
675.8	221.0
676.0	216.0
676.2	215.1
676.4	212.5
676.6	213.1
676.8	216.4
677.0	217.7
677.2	213.7
677.4	214.9
677.6	216.9
677.8	213.5
678.0	209.8
678.2	201.8
678.4	198.7
678.6	203.0
678.8	207.3
679.0	206.5
679.2	205.5
679.4	201.5
679.6	205.1
679.8	203.9
680.0	203.6
680.2	202.4
680.4	198.3
680.6	195.2
680.8	199.8
681.0	200.9
681.2	206.5
681.4	206.2
681.6	201.9
681.8	199.0
682.0	200.7
682.2	195.8
682.4	195.2
682.6	197.9
682.8	200.8
683.0	199.2
683.2	196.5
683.4	190.1
683.6	187.3
683.8	188.5
684.0	188.2
684.2	189.7
684.4	194.2
684.6	194.1
684.8	194.6
685.0	192.3
685.2	188.3
685.4	193.2
685.6	190.8
685.8	186.2
686.0	188.4
686.2	184.3
686.4	180.3
686.6	178.1
686.8	167.6
687.0	171.6
687.2	181.3
687.4	181.3
687.6	183.1
687.8	180.0
688.0	178.7
688.2	181.4
688.4	185.3
688.6	184.2
688.8	181.5
689.0	177.4
689.2	172.8
689.4	168.8
689.6	165.1
689.8	163.1
690.0	163.4
690.2	168.3
690.4	169.4
690.6	171.8
690.8	169.0
691.0	170.5
691.2	170.5
691.4	175.1
691.6	174.0
691.8	171.3
692.0	172.6
692.2	174.4
692.4	170.0
692.6	167.2
692.8	164.1
693.0	164.8
693.2	165.8
693.4	171.0
693.6	164.2
693.8	159.7
694.0	158.7
694.2	158.7
694.4	157.6
694.6	166.0
694.8	160.2
695.0	155.9
695.2	150.5
695.4	149.2
695.6	156.1
695.8	165.1
696.0	161.5
696.2	156.8
696.4	149.3
696.6	145.7
696.8	151.4
697.0	153.9
697.2	148.7
697.4	145.4
697.6	146.5
697.8	152.6
698.0	160.0
698.2	159.8
698.4	160.2
698.6	153.6
698.8	150.4
699.0	150.8
699.2	149.8
699.4	147.9
699.6	149.3
699.8	150.7
700.0	150.2
700.2	153.6
700.4	154.5
700.6	158.0
700.8	154.6
701.0	152.3
701.2	150.0
701.4	152.7
701.6	158.6
701.8	161.5
702.0	154.0
702.2	146.2
702.4	140.7
702.6	141.7
702.8	148.0
703.0	146.1
703.2	141.2
703.4	135.9
703.6	128.9
703.8	129.6
704.0	132.4
704.2	132.6
704.4	133.9
704.6	137.0
704.8	135.3
705.0	136.3
705.2	134.6
705.4	133.9
705.6	133.1
705.8	138.3
706.0	139.5
706.2	138.3
706.4	132.9
706.6	131.7
706.8	132.9
707.0	138.4
707.2	142.6
707.4	142.6
707.6	137.6
707.8	132.0
708.0	127.7
708.2	126.6
708.4	132.0
708.6	133.6
708.8	132.0
709.0	129.1
709.2	127.5
709.4	128.2
709.6	129.7
709.8	131.7
710.0	129.5
710.2	127.2
710.4	126.6
710.6	130.1
710.8	131.9
711.0	137.4
711.2	135.2
711.4	127.6
711.6	121.1
711.8	123.2
712.0	125.8
712.2	127.3
712.4	123.5
712.6	116.0
712.8	109.8
713.0	113.0
713.2	117.2
713.4	119.5
713.6	117.5
713.8	114.4
714.0	110.4
714.2	112.7
714.4	114.0
714.6	118.3
714.8	118.6
715.0	118.4
715.2	117.5
715.4	116.4
715.6	113.5
715.8	114.1
716.0	113.5
716.2	111.9
716.4	110.2
716.6	106.0
716.8	108.6
717.0	112.6
717.2	115.0
717.4	113.0
717.6	109.5
717.8	104.2
718.0	104.0
718.2	106.4
718.4	110.1
718.6	109.4
718.8	112.2
719.0	115.3
719.2	112.6
719.4	110.9
719.6	109.5
719.8	105.8
720.0	104.4
720.2	103.9
720.4	102.1
720.6	102.9
720.8	103.9
721.0	105.6
721.2	102.3
721.4	100.7
721.6	101.8
721.8	101.5
722.0	102.6
722.2	102.6
722.4	98.78
722.6	100.0
722.8	98.35
723.0	96.18
723.2	95.42
723.4	93.05
723.6	91.13
723.8	95.13
724.0	92.37
724.2	91.51
724.4	91.43
724.6	93.07
724.8	93.17
725.0	97.44
725.2	93.60
725.4	90.66
725.6	91.11
725.8	90.70
726.0	91.23
726.2	90.91
726.4	86.69
726.6	84.51
726.8	82.60
727.0	83.58
727.2	88.14
727.4	90.46
727.6	92.12
727.8	90.26
728.0	86.42
728.2	86.83
728.4	85.45
728.6	82.72
728.8	80.53
729.0	80.45
729.2	82.63
729.4	85.64
729.6	87.85
729.8	90.78
730.0	87.98
730.2	85.72
730.4	82.30
730.6	81.90
730.8	83.19
731.0	86.72
731.2	81.60
731.4	79.17
731.6	77.63
731.8	80.43
732.0	81.43
732.2	82.73
732.4	81.61
732.6	79.50
732.8	78.90
733.0	79.70
733.2	78.92
733.4	79.47
733.6	81.48
733.8	81.18
734.0	82.28
734.2	78.89
734.4	75.08
734.6	72.07
734.8	70.87
735.0	74.24
735.2	77.85
735.4	77.59
735.6	74.95
735.8	73.99
736.0	73.49
736.2	75.79
736.4	72.78
736.6	74.00
736.8	69.47
737.0	69.60
737.2	69.71
737.4	69.34
737.6	67.30
737.8	68.38
738.0	67.60
738.2	68.31
738.4	64.61
738.6	60.47
738.8	61.77
739.0	64.10
739.2	69.36
739.4	69.89
739.6	67.76
739.8	66.02
740.0	65.52
740.2	64.56
740.4	63.36
740.6	64.40
740.8	65.05
741.0	65.61
741.2	66.43
741.4	63.77
741.6	58.68
741.8	61.80
742.0	60.36
742.2	59.78
742.4	61.84
742.6	60.90
742.8	58.91
743.0	60.11
743.2	60.76
743.4	63.39
743.6	64.15
743.8	63.74
744.0	61.64
744.2	58.57
744.4	58.43
744.6	57.21
744.8	57.63
745.0	57.98
745.2	57.26
745.4	55.01
745.6	56.37
745.8	57.25
746.0	59.10
746.2	58.12
746.4	58.00
746.6	53.58
746.8	53.84
747.0	56.04
747.2	52.52
747.4	52.12
747.6	54.00
747.8	55.79
748.0	58.88
748.2	59.55
748.4	54.35
748.6	51.99
748.8	50.22
749.0	50.26
749.2	49.96
749.4	51.05
749.6	52.89
749.8	53.05
750.0	53.10
750.2	51.61
750.4	50.22
750.6	52.76
750.8	54.30
751.0	54.55
751.2	52.18
751.4	50.43
751.6	49.10
751.8	49.98
752.0	49.36
752.2	51.11
752.4	48.54
752.6	47.69
752.8	44.32
753.0	43.67
753.2	42.64
753.4	45.63
753.6	45.77
753.8	47.86
754.0	48.23
754.2	49.95
754.4	47.86
754.6	45.76
754.8	41.18
755.0	40.89
755.2	41.86
755.4	43.92
755.6	45.51
755.8	44.05
756.0	42.59
756.2	41.75
756.4	42.61
756.6	42.71
756.8	44.40
757.0	42.74
757.2	42.03
757.4	39.60
757.6	39.73
757.8	41.71
758.0	43.70
758.2	44.28
758.4	44.78
758.6	44.78
758.8	43.95
759.0	44.54
759.2	43.68
759.4	41.30
759.6	43.00
759.8	43.32
760.0	40.54
760.2	39.50
760.4	39.65
760.6	37.38
760.8	39.32
761.0	38.93
761.2	35.95
761.4	37.37
761.6	38.53
761.8	38.11
762.0	40.38
762.2	41.47
762.4	39.55
762.6	39.26
762.8	38.61
763.0	37.70
763.2	38.48
763.4	36.63
763.6	35.47
763.8	35.91
764.0	36.48
764.2	35.53
764.4	36.15
764.6	34.61
764.8	34.61
765.0	37.53
765.2	36.68
765.4	36.30
765.6	35.94
765.8	34.76
766.0	31.85
766.2	31.90
766.4	29.27
766.6	30.85
766.8	33.84
767.0	35.79
767.2	35.59
767.4	34.58
767.6	33.79
767.8	33.03
768.0	33.43
768.2	31.16
768.4	30.02
768.6	29.77
768.8	31.34
769.0	32.81
769.2	34.18
769.4	33.89
769.6	34.58
769.8	33.65
770.0	31.61
770.2	31.23
770.4	30.50
770.6	28.80
770.8	30.26
771.0	31.06
771.2	31.74
771.4	32.30
771.6	31.05
771.8	29.53
772.0	29.34
772.2	29.96
772.4	31.97
772.6	33.45
772.8	33.12
773.0	31.76
773.2	28.21
773.4	27.01
773.6	28.09
773.8	28.96
774.0	29.63
774.2	29.26
774.4	27.17
774.6	26.75
774.8	25.59
775.0	25.46
775.2	26.55
775.4	27.42
775.6	28.17
775.8	27.94
776.0	26.86
776.2	27.38
776.4	28.75
776.6	28.80
776.8	29.04
777.0	28.39
777.2	28.77
777.4	28.24
777.6	26.96
777.8	25.05
778.0	25.27
778.2	25.46
778.4	26.83
778.6	27.65
778.8	26.85
779.0	24.77
779.2	24.32
779.4	24.72
779.6	24.13
779.8	25.50
780.0	25.58
780.2	24.40
780.4	23.37
780.6	23.45
780.8	22.91
781.0	24.16
781.2	23.94
781.4	24.39
781.6	23.30
781.8	22.00
782.0	22.00
782.2	23.80
782.4	25.04
782.6	26.80
782.8	26.99
783.0	27.12
783.2	26.11
783.4	25.55
783.6	25.19
