Sample:	'20211010A(EM)
File name:	r-NI-cds 1;15 600V 480 500.FDS
Run date:	'08:32:20, 03/22/2023
Operator:	Administrator
Comment:	'

Instrument
Model:	F-4700 FL Spectrophotometer
Serial number:	2019-001
ROM Version:	5J24010 00

Instrument parameters
Measurement type:	Wavelength scan
Scan mode:	Emission
Data mode:	Fluorescence
EX WL:	480.0 nm
EM  Start WL:	500.0 nm
EM  End WL:	900.0 nm
Scan speed:	1200 nm/min
Delay:	0.0 s
EX Slit:	10.0 nm
EM Slit:	10.0 nm
PMT Voltage:	600 V
Response:	0.002 s
Corrected spectra:	Off
Shutter control:	On

Processing performed
Savitsky-Golay smoothed
Smoothing order:	3
Number of points:	7
Number of times:	1

Peak integration
Integration method:	Rectangular
Sensitivity:	1
Threshold:	1.000

Peaks
No.	Start(nm)	Apex(nm)	End(nm)	Height(Data)	Valley(nm)	Valley(Data)
1	500.0	609.8	611.6	9209	611.6	9174
2	611.6	612.4	804.2	9196	804.2	55.63
3	804.2	804.8	900.0	57.89	900.0	3.214

Data points
nm	Data
500.0	514.9
500.2	524.4
500.4	532.7
500.6	540.8
500.8	550.2
501.0	559.6
501.2	569.7
501.4	581.2
501.6	589.4
501.8	595.5
502.0	601.6
502.2	607.3
502.4	617.0
502.6	626.7
502.8	638.1
503.0	648.4
503.2	657.1
503.4	664.5
503.6	675.1
503.8	680.1
504.0	691.4
504.2	702.7
504.4	711.6
504.6	723.1
504.8	732.2
505.0	740.3
505.2	748.5
505.4	758.7
505.6	765.8
505.8	780.0
506.0	790.1
506.2	799.0
506.4	804.7
506.6	813.5
506.8	819.4
507.0	833.6
507.2	846.8
507.4	857.6
507.6	868.6
507.8	878.1
508.0	888.2
508.2	899.6
508.4	907.5
508.6	919.8
508.8	929.8
509.0	939.4
509.2	953.5
509.4	964.2
509.6	970.7
509.8	983.5
510.0	992.0
510.2	1004
510.4	1022
510.6	1033
510.8	1044
511.0	1052
511.2	1058
511.4	1066
511.6	1074
511.8	1084
512.0	1097
512.2	1109
512.4	1121
512.6	1135
512.8	1140
513.0	1151
513.2	1159
513.4	1169
513.6	1183
513.8	1195
514.0	1207
514.2	1221
514.4	1229
514.6	1236
514.8	1252
515.0	1259
515.2	1274
515.4	1289
515.6	1299
515.8	1310
516.0	1323
516.2	1330
516.4	1343
516.6	1352
516.8	1363
517.0	1379
517.2	1392
517.4	1401
517.6	1411
517.8	1416
518.0	1423
518.2	1435
518.4	1449
518.6	1455
518.8	1466
519.0	1476
519.2	1482
519.4	1497
519.6	1514
519.8	1529
520.0	1544
520.2	1554
520.4	1562
520.6	1572
520.8	1581
521.0	1592
521.2	1606
521.4	1619
521.6	1628
521.8	1639
522.0	1645
522.2	1653
522.4	1666
522.6	1680
522.8	1694
523.0	1705
523.2	1714
523.4	1720
523.6	1727
523.8	1740
524.0	1755
524.2	1765
524.4	1776
524.6	1780
524.8	1789
525.0	1803
525.2	1815
525.4	1823
525.6	1832
525.8	1834
526.0	1847
526.2	1861
526.4	1873
526.6	1882
526.8	1895
527.0	1902
527.2	1910
527.4	1921
527.6	1928
527.8	1934
528.0	1941
528.2	1948
528.4	1956
528.6	1970
528.8	1982
529.0	1994
529.2	2010
529.4	2023
529.6	2033
529.8	2039
530.0	2042
530.2	2047
530.4	2060
530.6	2076
530.8	2090
531.0	2101
531.2	2109
531.4	2120
531.6	2121
531.8	2131
532.0	2135
532.2	2143
532.4	2154
532.6	2166
532.8	2174
533.0	2180
533.2	2187
533.4	2200
533.6	2215
533.8	2225
534.0	2237
534.2	2243
534.4	2256
534.6	2272
534.8	2285
535.0	2291
535.2	2296
535.4	2300
535.6	2309
535.8	2320
536.0	2328
536.2	2339
536.4	2346
536.6	2357
536.8	2370
537.0	2381
537.2	2394
537.4	2407
537.6	2414
537.8	2420
538.0	2424
538.2	2428
538.4	2441
538.6	2455
538.8	2468
539.0	2476
539.2	2488
539.4	2497
539.6	2510
539.8	2518
540.0	2522
540.2	2529
540.4	2540
540.6	2553
540.8	2569
541.0	2576
541.2	2584
541.4	2588
541.6	2595
541.8	2608
542.0	2620
542.2	2627
542.4	2635
542.6	2639
542.8	2651
543.0	2669
543.2	2685
543.4	2698
543.6	2711
543.8	2719
544.0	2729
544.2	2740
544.4	2742
544.6	2755
544.8	2768
545.0	2778
545.2	2791
545.4	2803
545.6	2811
545.8	2824
546.0	2832
546.2	2843
546.4	2849
546.6	2860
546.8	2873
547.0	2886
547.2	2900
547.4	2916
547.6	2926
547.8	2942
548.0	2955
548.2	2968
548.4	2978
548.6	2990
548.8	2998
549.0	3017
549.2	3035
549.4	3041
549.6	3055
549.8	3068
550.0	3069
550.2	3083
550.4	3100
550.6	3106
550.8	3126
551.0	3145
551.2	3154
551.4	3174
551.6	3185
551.8	3200
552.0	3204
552.2	3214
552.4	3222
552.6	3245
552.8	3262
553.0	3284
553.2	3300
553.4	3314
553.6	3323
553.8	3339
554.0	3349
554.2	3359
554.4	3383
554.6	3404
554.8	3419
555.0	3433
555.2	3447
555.4	3462
555.6	3478
555.8	3505
556.0	3515
556.2	3532
556.4	3550
556.6	3564
556.8	3575
557.0	3595
557.2	3602
557.4	3616
557.6	3635
557.8	3656
558.0	3673
558.2	3699
558.4	3713
558.6	3715
558.8	3735
559.0	3758
559.2	3775
559.4	3797
559.6	3809
559.8	3815
560.0	3834
560.2	3861
560.4	3893
560.6	3923
560.8	3946
561.0	3964
561.2	3978
561.4	3987
561.6	4013
561.8	4027
562.0	4049
562.2	4072
562.4	4091
562.6	4103
562.8	4129
563.0	4147
563.2	4165
563.4	4190
563.6	4212
563.8	4233
564.0	4258
564.2	4287
564.4	4303
564.6	4321
564.8	4336
565.0	4354
565.2	4373
565.4	4412
565.6	4450
565.8	4481
566.0	4498
566.2	4508
566.4	4519
566.6	4544
566.8	4569
567.0	4596
567.2	4611
567.4	4635
567.6	4658
567.8	4686
568.0	4719
568.2	4744
568.4	4764
568.6	4792
568.8	4805
569.0	4828
569.2	4859
569.4	4892
569.6	4923
569.8	4946
570.0	4963
570.2	4987
570.4	5025
570.6	5059
570.8	5082
571.0	5096
571.2	5113
571.4	5136
571.6	5172
571.8	5195
572.0	5226
572.2	5257
572.4	5287
572.6	5311
572.8	5339
573.0	5358
573.2	5392
573.4	5425
573.6	5462
573.8	5493
574.0	5530
574.2	5554
574.4	5572
574.6	5584
574.8	5605
575.0	5624
575.2	5660
575.4	5690
575.6	5723
575.8	5752
576.0	5782
576.2	5807
576.4	5834
576.6	5865
576.8	5899
577.0	5937
577.2	5971
577.4	6001
577.6	6025
577.8	6048
578.0	6071
578.2	6095
578.4	6123
578.6	6155
578.8	6186
579.0	6206
579.2	6233
579.4	6257
579.6	6284
579.8	6319
580.0	6346
580.2	6375
580.4	6399
580.6	6439
580.8	6471
581.0	6501
581.2	6529
581.4	6547
581.6	6574
581.8	6612
582.0	6653
582.2	6683
582.4	6712
582.6	6734
582.8	6776
583.0	6801
583.2	6834
583.4	6852
583.6	6875
583.8	6902
584.0	6941
584.2	6969
584.4	7000
584.6	7018
584.8	7042
585.0	7063
585.2	7088
585.4	7117
585.6	7152
585.8	7178
586.0	7213
586.2	7258
586.4	7287
586.6	7323
586.8	7348
587.0	7363
587.2	7384
587.4	7420
587.6	7442
587.8	7468
588.0	7488
588.2	7516
588.4	7548
588.6	7585
588.8	7618
589.0	7647
589.2	7669
589.4	7691
589.6	7723
589.8	7748
590.0	7777
590.2	7807
590.4	7821
590.6	7838
590.8	7862
591.0	7884
591.2	7915
591.4	7942
591.6	7960
591.8	8001
592.0	8024
592.2	8050
592.4	8080
592.6	8101
592.8	8128
593.0	8162
593.2	8180
593.4	8198
593.6	8221
593.8	8247
594.0	8272
594.2	8294
594.4	8313
594.6	8329
594.8	8343
595.0	8366
595.2	8390
595.4	8431
595.6	8461
595.8	8489
596.0	8500
596.2	8509
596.4	8529
596.6	8552
596.8	8570
597.0	8586
597.2	8602
597.4	8612
597.6	8627
597.8	8640
598.0	8651
598.2	8678
598.4	8696
598.6	8704
598.8	8725
599.0	8748
599.2	8768
599.4	8801
599.6	8811
599.8	8813
600.0	8827
600.2	8852
600.4	8866
600.6	8881
600.8	8901
601.0	8909
601.2	8920
601.4	8931
601.6	8943
601.8	8952
602.0	8953
602.2	8967
602.4	8971
602.6	8977
602.8	8997
603.0	9008
603.2	9015
603.4	9040
603.6	9048
603.8	9061
604.0	9075
604.2	9088
604.4	9094
604.6	9105
604.8	9103
605.0	9103
605.2	9103
605.4	9104
605.6	9112
605.8	9123
606.0	9124
606.2	9132
606.4	9143
606.6	9158
606.8	9180
607.0	9172
607.2	9160
607.4	9157
607.6	9161
607.8	9171
608.0	9175
608.2	9177
608.4	9184
608.6	9199
608.8	9198
609.0	9195
609.2	9185
609.4	9190
609.6	9198
609.8	9209
610.0	9195
610.2	9197
610.4	9187
610.6	9188
610.8	9181
611.0	9180
611.2	9175
611.4	9181
611.6	9174
611.8	9174
612.0	9174
612.2	9182
612.4	9196
612.6	9188
612.8	9156
613.0	9133
613.2	9123
613.4	9115
613.6	9125
613.8	9129
614.0	9119
614.2	9122
614.4	9111
614.6	9094
614.8	9086
615.0	9066
615.2	9045
615.4	9042
615.6	9030
615.8	9020
616.0	9014
616.2	8997
616.4	8997
616.6	8995
616.8	8990
617.0	8996
617.2	8995
617.4	8987
617.6	8980
617.8	8960
618.0	8943
618.2	8932
618.4	8909
618.6	8884
618.8	8868
619.0	8851
619.2	8846
619.4	8828
619.6	8802
619.8	8786
620.0	8774
620.2	8760
620.4	8756
620.6	8743
620.8	8725
621.0	8712
621.2	8691
621.4	8677
621.6	8666
621.8	8642
622.0	8623
622.2	8615
622.4	8615
622.6	8604
622.8	8594
623.0	8561
623.2	8535
623.4	8515
623.6	8498
623.8	8477
624.0	8470
624.2	8439
624.4	8428
624.6	8406
624.8	8389
625.0	8371
625.2	8347
625.4	8322
625.6	8299
625.8	8268
626.0	8261
626.2	8238
626.4	8217
626.6	8212
626.8	8188
627.0	8167
627.2	8143
627.4	8107
627.6	8077
627.8	8051
628.0	8038
628.2	8020
628.4	8001
628.6	7976
628.8	7961
629.0	7943
629.2	7924
629.4	7897
629.6	7872
629.8	7829
630.0	7809
630.2	7770
630.4	7743
630.6	7725
630.8	7706
631.0	7689
631.2	7681
631.4	7666
631.6	7648
631.8	7625
632.0	7599
632.2	7564
632.4	7533
632.6	7510
632.8	7487
633.0	7468
633.2	7454
633.4	7422
633.6	7395
633.8	7364
634.0	7355
634.2	7326
634.4	7306
634.6	7278
634.8	7258
635.0	7227
635.2	7208
635.4	7176
635.6	7157
635.8	7130
636.0	7112
636.2	7073
636.4	7033
636.6	7020
636.8	6992
637.0	6962
637.2	6933
637.4	6904
637.6	6880
637.8	6870
638.0	6850
638.2	6821
638.4	6793
638.6	6764
638.8	6748
639.0	6725
639.2	6693
639.4	6663
639.6	6649
639.8	6613
640.0	6602
640.2	6583
640.4	6551
640.6	6526
640.8	6504
641.0	6462
641.2	6438
641.4	6416
641.6	6401
641.8	6374
642.0	6355
642.2	6319
642.4	6283
642.6	6251
642.8	6228
643.0	6200
643.2	6182
643.4	6162
643.6	6139
643.8	6110
644.0	6084
644.2	6046
644.4	6027
644.6	6010
644.8	5985
645.0	5961
645.2	5936
645.4	5898
645.6	5891
645.8	5867
646.0	5844
646.2	5816
646.4	5783
646.6	5745
646.8	5727
647.0	5698
647.2	5681
647.4	5656
647.6	5642
647.8	5623
648.0	5608
648.2	5579
648.4	5542
648.6	5512
648.8	5490
649.0	5465
649.2	5449
649.4	5427
649.6	5403
649.8	5380
650.0	5356
650.2	5324
650.4	5299
650.6	5276
650.8	5255
651.0	5234
651.2	5212
651.4	5178
651.6	5142
651.8	5112
652.0	5083
652.2	5062
652.4	5046
652.6	5022
652.8	4996
653.0	4970
653.2	4944
653.4	4915
653.6	4899
653.8	4872
654.0	4847
654.2	4823
654.4	4809
654.6	4788
654.8	4778
655.0	4749
655.2	4721
655.4	4693
655.6	4676
655.8	4649
656.0	4625
656.2	4597
656.4	4578
656.6	4555
656.8	4536
657.0	4515
657.2	4493
657.4	4467
657.6	4451
657.8	4427
658.0	4406
658.2	4394
658.4	4371
658.6	4344
658.8	4318
659.0	4291
659.2	4272
659.4	4257
659.6	4246
659.8	4223
660.0	4203
660.2	4179
660.4	4149
660.6	4124
660.8	4105
661.0	4077
661.2	4064
661.4	4039
661.6	4017
661.8	4003
662.0	3993
662.2	3971
662.4	3950
662.6	3921
662.8	3905
663.0	3882
663.2	3869
663.4	3843
663.6	3826
663.8	3808
664.0	3790
664.2	3754
664.4	3722
664.6	3693
664.8	3683
665.0	3671
665.2	3660
665.4	3640
665.6	3622
665.8	3595
666.0	3578
666.2	3558
666.4	3548
666.6	3537
666.8	3527
667.0	3503
667.2	3484
667.4	3452
667.6	3431
667.8	3406
668.0	3393
668.2	3380
668.4	3365
668.6	3347
668.8	3326
669.0	3299
669.2	3281
669.4	3262
669.6	3239
669.8	3225
670.0	3206
670.2	3191
670.4	3179
670.6	3169
670.8	3151
671.0	3124
671.2	3103
671.4	3084
671.6	3072
671.8	3065
672.0	3055
672.2	3036
672.4	3021
672.6	3001
672.8	2984
673.0	2972
673.2	2958
673.4	2942
673.6	2922
673.8	2896
674.0	2878
674.2	2868
674.4	2851
674.6	2835
674.8	2816
675.0	2786
675.2	2773
675.4	2762
675.6	2748
675.8	2735
676.0	2719
676.2	2702
676.4	2689
676.6	2675
676.8	2664
677.0	2646
677.2	2632
677.4	2615
677.6	2600
677.8	2583
678.0	2569
678.2	2546
678.4	2532
678.6	2515
678.8	2502
679.0	2485
679.2	2471
679.4	2453
679.6	2441
679.8	2431
680.0	2427
680.2	2412
680.4	2399
680.6	2385
680.8	2366
681.0	2352
681.2	2343
681.4	2325
681.6	2311
681.8	2299
682.0	2280
682.2	2270
682.4	2255
682.6	2243
682.8	2225
683.0	2209
683.2	2198
683.4	2189
683.6	2180
683.8	2169
684.0	2150
684.2	2136
684.4	2122
684.6	2109
684.8	2104
685.0	2093
685.2	2081
685.4	2071
685.6	2052
685.8	2033
686.0	2020
686.2	2002
686.4	1993
686.6	1988
686.8	1975
687.0	1962
687.2	1946
687.4	1930
687.6	1924
687.8	1915
688.0	1904
688.2	1894
688.4	1878
688.6	1864
688.8	1851
689.0	1840
689.2	1829
689.4	1819
689.6	1809
689.8	1797
690.0	1788
690.2	1781
690.4	1774
690.6	1768
690.8	1760
691.0	1748
691.2	1734
691.4	1721
691.6	1710
691.8	1704
692.0	1699
692.2	1691
692.4	1682
692.6	1670
692.8	1657
693.0	1650
693.2	1645
693.4	1637
693.6	1629
693.8	1614
694.0	1601
694.2	1590
694.4	1582
694.6	1574
694.8	1568
695.0	1558
695.2	1553
695.4	1544
695.6	1533
695.8	1522
696.0	1514
696.2	1502
696.4	1495
696.6	1487
696.8	1478
697.0	1475
697.2	1469
697.4	1464
697.6	1452
697.8	1445
698.0	1436
698.2	1428
698.4	1423
698.6	1416
698.8	1406
699.0	1400
699.2	1391
699.4	1384
699.6	1383
699.8	1377
700.0	1366
700.2	1359
700.4	1350
700.6	1341
700.8	1334
701.0	1328
701.2	1314
701.4	1308
701.6	1305
701.8	1296
702.0	1285
702.2	1278
702.4	1271
702.6	1268
702.8	1265
703.0	1260
703.2	1255
703.4	1249
703.6	1241
703.8	1231
704.0	1223
704.2	1217
704.4	1212
704.6	1203
704.8	1194
705.0	1187
705.2	1182
705.4	1173
705.6	1168
705.8	1158
706.0	1152
706.2	1145
706.4	1139
706.6	1132
706.8	1131
707.0	1127
707.2	1125
707.4	1115
707.6	1108
707.8	1099
708.0	1088
708.2	1079
708.4	1070
708.6	1063
708.8	1061
709.0	1059
709.2	1054
709.4	1045
709.6	1034
709.8	1027
710.0	1023
710.2	1018
710.4	1014
710.6	1006
710.8	1000
711.0	995.7
711.2	992.0
711.4	985.7
711.6	980.6
711.8	971.0
712.0	964.4
712.2	960.1
712.4	957.5
712.6	951.8
712.8	947.4
713.0	938.9
713.2	931.9
713.4	923.5
713.6	917.7
713.8	916.1
714.0	911.2
714.2	908.6
714.4	901.7
714.6	893.8
714.8	888.3
715.0	883.8
715.2	876.0
715.4	871.6
715.6	863.2
715.8	856.9
716.0	851.9
716.2	845.6
716.4	843.3
716.6	838.3
716.8	831.6
717.0	822.3
717.2	814.5
717.4	809.0
717.6	808.9
717.8	804.7
718.0	798.4
718.2	791.1
718.4	784.5
718.6	780.3
718.8	776.9
719.0	770.8
719.2	764.7
719.4	758.8
719.6	754.4
719.8	751.4
720.0	746.9
720.2	741.1
720.4	734.1
720.6	726.2
720.8	718.8
721.0	714.2
721.2	711.5
721.4	711.3
721.6	710.0
721.8	707.0
722.0	701.0
722.2	693.6
722.4	686.5
722.6	682.4
722.8	678.2
723.0	670.6
723.2	669.5
723.4	665.5
723.6	658.8
723.8	651.7
724.0	647.9
724.2	641.2
724.4	642.4
724.6	637.3
724.8	634.0
725.0	627.5
725.2	622.6
725.4	616.2
725.6	612.3
725.8	606.6
726.0	607.4
726.2	603.6
726.4	600.9
726.6	595.6
726.8	589.0
727.0	581.5
727.2	576.0
727.4	567.5
727.6	565.1
727.8	561.5
728.0	557.3
728.2	554.5
728.4	554.1
728.6	549.2
728.8	548.1
729.0	544.4
729.2	541.2
729.4	536.6
729.6	534.7
729.8	526.6
730.0	522.0
730.2	516.3
730.4	514.0
730.6	509.9
730.8	510.6
731.0	507.6
731.2	504.0
731.4	497.8
731.6	493.1
731.8	487.6
732.0	484.6
732.2	482.3
732.4	478.8
732.6	474.3
732.8	472.3
733.0	470.3
733.2	466.3
733.4	463.9
733.6	459.4
733.8	456.3
734.0	454.7
734.2	452.4
734.4	447.7
734.6	443.0
734.8	437.0
735.0	434.0
735.2	432.2
735.4	430.5
735.6	429.4
735.8	425.9
736.0	423.2
736.2	420.6
736.4	417.7
736.6	413.1
736.8	408.9
737.0	402.0
737.2	397.6
737.4	396.4
737.6	393.0
737.8	390.1
738.0	387.3
738.2	385.3
738.4	385.0
738.6	384.9
738.8	381.5
739.0	378.8
739.2	375.3
739.4	372.2
739.6	368.9
739.8	364.6
740.0	363.6
740.2	362.6
740.4	362.2
740.6	361.9
740.8	358.0
741.0	354.2
741.2	351.7
741.4	348.6
741.6	345.0
741.8	341.7
742.0	337.4
742.2	334.5
742.4	332.5
742.6	332.0
742.8	330.5
743.0	330.2
743.2	327.6
743.4	325.2
743.6	321.8
743.8	318.2
744.0	316.2
744.2	316.2
744.4	314.8
744.6	314.0
744.8	312.9
745.0	308.3
745.2	306.2
745.4	303.0
745.6	299.8
745.8	295.9
746.0	295.5
746.2	291.9
746.4	291.7
746.6	291.0
746.8	288.5
747.0	287.3
747.2	285.6
747.4	283.2
747.6	281.2
747.8	278.3
748.0	274.1
748.2	272.5
748.4	270.1
748.6	270.8
748.8	269.9
749.0	269.3
749.2	266.3
749.4	263.2
749.6	259.1
749.8	256.7
750.0	253.2
750.2	255.2
750.4	257.1
750.6	258.8
750.8	256.0
751.0	250.3
751.2	246.2
751.4	245.5
751.6	247.0
751.8	249.1
752.0	246.0
752.2	241.4
752.4	239.3
752.6	237.8
752.8	237.1
753.0	236.6
753.2	233.1
753.4	230.2
753.6	228.5
753.8	228.9
754.0	226.5
754.2	224.0
754.4	222.8
754.6	220.9
754.8	219.1
755.0	218.7
755.2	216.0
755.4	213.7
755.6	213.6
755.8	212.8
756.0	211.9
756.2	212.0
756.4	210.0
756.6	207.4
756.8	203.6
757.0	202.5
757.2	201.8
757.4	202.3
757.6	201.8
757.8	201.4
758.0	199.6
758.2	199.3
758.4	196.8
758.6	193.8
758.8	191.8
759.0	190.2
759.2	187.5
759.4	185.8
759.6	184.3
759.8	182.0
760.0	181.5
760.2	181.0
760.4	179.9
760.6	179.8
760.8	179.3
761.0	176.6
761.2	175.7
761.4	174.0
761.6	172.0
761.8	170.7
762.0	169.2
762.2	168.2
762.4	168.0
762.6	167.3
762.8	166.4
763.0	163.7
763.2	162.3
763.4	163.0
763.6	162.3
763.8	161.0
764.0	160.4
764.2	157.4
764.4	156.8
764.6	156.4
764.8	155.0
765.0	153.6
765.2	152.6
765.4	151.5
765.6	151.2
765.8	151.3
766.0	150.5
766.2	150.1
766.4	148.4
766.6	146.0
766.8	142.5
767.0	141.2
767.2	140.1
767.4	140.8
767.6	140.0
767.8	139.8
768.0	139.1
768.2	138.0
768.4	136.8
768.6	136.2
768.8	133.6
769.0	132.3
769.2	132.2
769.4	129.8
769.6	128.6
769.8	127.7
770.0	126.4
770.2	125.6
770.4	126.1
770.6	125.4
770.8	125.4
771.0	125.1
771.2	123.5
771.4	122.2
771.6	120.6
771.8	118.7
772.0	118.6
772.2	117.6
772.4	117.2
772.6	117.6
772.8	117.3
773.0	116.0
773.2	114.6
773.4	111.6
773.6	111.1
773.8	112.0
774.0	113.5
774.2	115.0
774.4	113.2
774.6	110.0
774.8	108.4
775.0	107.0
775.2	106.7
775.4	107.1
775.6	106.0
775.8	104.9
776.0	104.3
776.2	103.6
776.4	103.8
776.6	104.2
776.8	105.2
777.0	104.3
777.2	102.1
777.4	100.4
777.6	99.83
777.8	99.13
778.0	100.7
778.2	99.78
778.4	99.35
778.6	99.03
778.8	98.64
779.0	96.79
779.2	96.87
779.4	95.41
779.6	95.03
779.8	93.64
780.0	92.76
780.2	91.74
780.4	92.68
780.6	93.21
780.8	93.02
781.0	91.21
781.2	90.15
781.4	89.57
781.6	90.00
781.8	89.83
782.0	89.24
782.2	88.36
782.4	88.10
782.6	88.17
782.8	87.39
783.0	86.36
783.2	86.21
783.4	86.00
783.6	86.08
783.8	85.22
784.0	84.79
784.2	84.29
784.4	84.90
784.6	84.85
784.8	83.94
785.0	82.78
785.2	82.35
785.4	81.88
785.6	82.49
785.8	81.60
786.0	80.93
786.2	81.21
786.4	80.57
786.6	80.46
786.8	80.84
787.0	80.09
787.2	79.43
787.4	78.80
787.6	78.32
787.8	77.38
788.0	77.71
788.2	77.33
788.4	77.50
788.6	76.65
788.8	77.29
789.0	77.12
789.2	77.93
789.4	76.72
789.6	76.24
789.8	74.32
790.0	73.56
790.2	73.65
790.4	73.86
790.6	73.52
790.8	74.23
791.0	73.03
791.2	73.61
791.4	72.75
791.6	71.09
791.8	70.94
792.0	70.80
792.2	70.69
792.4	72.30
792.6	71.66
792.8	71.44
793.0	71.23
793.2	69.98
793.4	69.49
793.6	68.57
793.8	68.54
794.0	69.37
794.2	68.40
794.4	68.99
794.6	68.13
794.8	68.17
795.0	67.91
795.2	67.87
795.4	65.98
795.6	67.44
795.8	67.33
796.0	67.80
796.2	67.33
796.4	66.93
796.6	65.35
796.8	65.50
797.0	64.96
797.2	63.92
797.4	64.99
797.6	66.43
797.8	66.29
798.0	65.79
798.2	64.73
798.4	63.15
798.6	63.75
798.8	64.83
799.0	64.51
799.2	63.40
799.4	62.33
799.6	61.36
799.8	61.19
800.0	61.18
800.2	60.96
800.4	60.93
800.6	61.07
800.8	61.19
801.0	60.78
801.2	60.68
801.4	61.05
801.6	61.33
801.8	60.58
802.0	60.11
802.2	58.98
802.4	58.80
802.6	59.06
802.8	59.32
803.0	58.27
803.2	58.76
803.4	57.68
803.6	57.19
803.8	55.92
804.0	55.78
804.2	55.63
804.4	56.41
804.6	56.59
804.8	57.89
805.0	56.99
805.2	56.65
805.4	55.69
805.6	54.02
805.8	53.48
806.0	53.62
806.2	54.31
806.4	54.91
806.6	54.69
806.8	53.46
807.0	53.27
807.2	53.06
807.4	54.26
807.6	54.65
807.8	54.21
