Sample:	'20211010A(EM)
File name:	r-NI-cds 1;5.FDS
Run date:	'08:21:35, 03/22/2023
Operator:	Administrator
Comment:	'

Instrument
Model:	F-4700 FL Spectrophotometer
Serial number:	2019-001
ROM Version:	5J24010 00

Instrument parameters
Measurement type:	Wavelength scan
Scan mode:	Emission
Data mode:	Fluorescence
EX WL:	530.0 nm
EM  Start WL:	550.0 nm
EM  End WL:	900.0 nm
Scan speed:	1200 nm/min
Delay:	0.0 s
EX Slit:	10.0 nm
EM Slit:	10.0 nm
PMT Voltage:	660 V
Response:	0.002 s
Corrected spectra:	Off
Shutter control:	On

Processing performed
Savitsky-Golay smoothed
Smoothing order:	3
Number of points:	7
Number of times:	1

Peak integration
Integration method:	Rectangular
Sensitivity:	1
Threshold:	1.000

Peaks
No.	Start(nm)	Apex(nm)	End(nm)	Height(Data)	Valley(nm)	Valley(Data)
1	550.0	618.8	619.4	1921	619.4	1892
2	619.4	621.2	623.0	1933	623.0	1908
3	623.0	623.8	625.4	1935	625.4	1911
4	625.4	626.6	627.6	1930	627.6	1896
5	627.6	628.2	630.2	1911	630.2	1888
6	630.2	631.2	739.4	1903	739.4	146.4
7	739.4	740.4	765.2	150.2	765.2	66.37
8	765.2	766.0	779.6	68.99	779.6	44.61
9	779.6	780.6	782.8	47.74	782.8	41.41
10	782.8	783.8	786.0	44.70	786.0	38.44
11	786.0	787.6	788.4	40.97	788.4	38.69
12	788.4	789.2	795.8	40.18	795.8	34.13
13	795.8	796.4	797.6	35.56	797.6	33.76
14	797.6	798.4	801.2	35.27	801.2	31.59
15	801.2	802.6	804.0	33.52	804.0	29.93
16	804.0	804.4	805.8	31.97	805.8	28.05
17	805.8	806.8	807.6	32.44	807.6	27.84
18	807.6	808.6	810.6	31.17	810.6	26.07
19	810.6	811.6	813.6	29.08	813.6	23.79
20	813.6	814.4	816.4	26.33	816.4	22.20
21	816.4	817.2	818.2	24.66	818.2	21.42
22	818.2	819.0	819.8	23.51	819.8	19.93
23	819.8	821.4	834.2	22.06	834.2	9.592
24	834.2	834.6	836.0	10.84	836.0	7.717
25	836.0	837.0	900.0	9.113	900.0	0.915

Data points
nm	Data
550.0	95.94
550.2	94.33
550.4	95.94
550.6	99.37
550.8	102.7
551.0	105.2
551.2	107.6
551.4	109.8
551.6	108.9
551.8	109.5
552.0	109.9
552.2	113.0
552.4	115.0
552.6	118.3
552.8	119.6
553.0	119.8
553.2	121.3
553.4	124.0
553.6	126.4
553.8	129.8
554.0	134.8
554.2	135.8
554.4	140.4
554.6	143.8
554.8	146.9
555.0	146.6
555.2	148.4
555.4	147.9
555.6	150.6
555.8	153.6
556.0	157.0
556.2	159.8
556.4	166.4
556.6	170.2
556.8	171.1
557.0	173.3
557.2	175.3
557.4	177.0
557.6	183.9
557.8	184.9
558.0	186.6
558.2	190.6
558.4	195.4
558.6	200.0
558.8	205.8
559.0	205.0
559.2	208.0
559.4	210.1
559.6	213.7
559.8	219.0
560.0	220.9
560.2	223.5
560.4	229.6
560.6	232.7
560.8	234.4
561.0	238.6
561.2	241.7
561.4	248.8
561.6	253.0
561.8	256.1
562.0	260.7
562.2	263.9
562.4	268.8
562.6	272.1
562.8	273.8
563.0	277.3
563.2	282.6
563.4	284.6
563.6	288.3
563.8	291.2
564.0	296.2
564.2	301.9
564.4	307.7
564.6	312.0
564.8	317.2
565.0	320.8
565.2	323.9
565.4	328.5
565.6	336.5
565.8	340.0
566.0	345.2
566.2	351.6
566.4	354.1
566.6	357.0
566.8	362.5
567.0	364.5
567.2	370.0
567.4	379.4
567.6	385.2
567.8	390.6
568.0	394.5
568.2	396.7
568.4	400.5
568.6	405.8
568.8	414.2
569.0	421.4
569.2	429.6
569.4	432.8
569.6	437.8
569.8	440.4
570.0	444.9
570.2	446.6
570.4	450.1
570.6	452.6
570.8	459.5
571.0	469.3
571.2	479.6
571.4	485.9
571.6	491.6
571.8	495.9
572.0	501.3
572.2	511.7
572.4	517.0
572.6	520.0
572.8	525.7
573.0	530.9
573.2	536.7
573.4	544.3
573.6	553.1
573.8	560.0
574.0	569.7
574.2	572.9
574.4	577.3
574.6	580.7
574.8	589.8
575.0	595.0
575.2	601.9
575.4	605.6
575.6	613.6
575.8	617.6
576.0	629.5
576.2	636.0
576.4	643.9
576.6	652.7
576.8	658.2
577.0	659.5
577.2	668.7
577.4	671.5
577.6	675.4
577.8	686.5
578.0	692.6
578.2	699.5
578.4	708.2
578.6	718.0
578.8	726.9
579.0	732.7
579.2	737.3
579.4	745.3
579.6	753.7
579.8	765.4
580.0	769.4
580.2	770.3
580.4	776.4
580.6	781.6
580.8	788.4
581.0	797.6
581.2	804.0
581.4	819.1
581.6	831.7
581.8	836.3
582.0	843.8
582.2	850.7
582.4	857.3
582.6	869.8
582.8	874.1
583.0	873.5
583.2	879.3
583.4	885.0
583.6	887.6
583.8	898.1
584.0	903.8
584.2	908.1
584.4	914.2
584.6	927.8
584.8	935.3
585.0	947.1
585.2	955.7
585.4	963.9
585.6	972.4
585.8	984.6
586.0	992.8
586.2	1002
586.4	1005
586.6	1013
586.8	1022
587.0	1024
587.2	1033
587.4	1049
587.6	1045
587.8	1049
588.0	1059
588.2	1070
588.4	1087
588.6	1105
588.8	1108
589.0	1113
589.2	1120
589.4	1130
589.6	1137
589.8	1144
590.0	1152
590.2	1157
590.4	1167
590.6	1177
590.8	1186
591.0	1187
591.2	1185
591.4	1195
591.6	1208
591.8	1222
592.0	1232
592.2	1233
592.4	1233
592.6	1243
592.8	1248
593.0	1253
593.2	1260
593.4	1271
593.6	1280
593.8	1292
594.0	1300
594.2	1307
594.4	1313
594.6	1323
594.8	1327
595.0	1332
595.2	1337
595.4	1348
595.6	1358
595.8	1366
596.0	1370
596.2	1375
596.4	1380
596.6	1383
596.8	1390
597.0	1396
597.2	1407
597.4	1424
597.6	1431
597.8	1434
598.0	1438
598.2	1444
598.4	1452
598.6	1458
598.8	1458
599.0	1470
599.2	1481
599.4	1496
599.6	1504
599.8	1503
600.0	1504
600.2	1512
600.4	1518
600.6	1530
600.8	1538
601.0	1543
601.2	1547
601.4	1555
601.6	1568
601.8	1585
602.0	1604
602.2	1611
602.4	1601
602.6	1597
602.8	1589
603.0	1594
603.2	1605
603.4	1614
603.6	1618
603.8	1633
604.0	1639
604.2	1655
604.4	1656
604.6	1653
604.8	1647
605.0	1653
605.2	1656
605.4	1666
605.6	1675
605.8	1681
606.0	1687
606.2	1694
606.4	1701
606.6	1705
606.8	1712
607.0	1720
607.2	1721
607.4	1721
607.6	1728
607.8	1726
608.0	1730
608.2	1739
608.4	1746
608.6	1755
608.8	1763
609.0	1771
609.2	1771
609.4	1777
609.6	1778
609.8	1779
610.0	1787
610.2	1794
610.4	1790
610.6	1792
610.8	1795
611.0	1796
611.2	1803
611.4	1802
611.6	1806
611.8	1813
612.0	1816
612.2	1816
612.4	1818
612.6	1818
612.8	1833
613.0	1842
613.2	1842
613.4	1839
613.6	1846
613.8	1846
614.0	1856
614.2	1857
614.4	1865
614.6	1857
614.8	1861
615.0	1864
615.2	1871
615.4	1878
615.6	1889
615.8	1882
616.0	1870
616.2	1873
616.4	1874
616.6	1878
616.8	1896
617.0	1900
617.2	1896
617.4	1899
617.6	1892
617.8	1889
618.0	1892
618.2	1894
618.4	1905
618.6	1921
618.8	1921
619.0	1918
619.2	1902
619.4	1892
619.6	1894
619.8	1904
620.0	1915
620.2	1920
620.4	1922
620.6	1917
620.8	1921
621.0	1929
621.2	1933
621.4	1929
621.6	1920
621.8	1909
622.0	1917
622.2	1932
622.4	1933
622.6	1932
622.8	1921
623.0	1908
623.2	1910
623.4	1920
623.6	1927
623.8	1935
624.0	1933
624.2	1924
624.4	1920
624.6	1917
624.8	1919
625.0	1924
625.2	1915
625.4	1911
625.6	1913
625.8	1913
626.0	1920
626.2	1926
626.4	1924
626.6	1930
626.8	1922
627.0	1918
627.2	1908
627.4	1899
627.6	1896
627.8	1898
628.0	1898
628.2	1911
628.4	1909
628.6	1910
628.8	1904
629.0	1900
629.2	1897
629.4	1898
629.6	1892
629.8	1892
630.0	1891
630.2	1888
630.4	1891
630.6	1896
630.8	1897
631.0	1903
631.2	1903
631.4	1902
631.6	1899
631.8	1890
632.0	1880
632.2	1879
632.4	1878
632.6	1876
632.8	1870
633.0	1862
633.2	1852
633.4	1853
633.6	1853
633.8	1850
634.0	1849
634.2	1842
634.4	1827
634.6	1822
634.8	1821
635.0	1824
635.2	1832
635.4	1829
635.6	1823
635.8	1813
636.0	1809
636.2	1811
636.4	1815
636.6	1813
636.8	1813
637.0	1797
637.2	1790
637.4	1785
637.6	1781
637.8	1774
638.0	1775
638.2	1774
638.4	1773
638.6	1775
638.8	1774
639.0	1765
639.2	1758
639.4	1753
639.6	1747
639.8	1742
640.0	1738
640.2	1738
640.4	1737
640.6	1734
640.8	1727
641.0	1714
641.2	1707
641.4	1707
641.6	1708
641.8	1702
642.0	1697
642.2	1691
642.4	1681
642.6	1678
642.8	1680
643.0	1677
643.2	1679
643.4	1676
643.6	1670
643.8	1667
644.0	1662
644.2	1657
644.4	1659
644.6	1654
644.8	1653
645.0	1644
645.2	1634
645.4	1625
645.6	1626
645.8	1620
646.0	1618
646.2	1606
646.4	1603
646.6	1597
646.8	1594
647.0	1588
647.2	1590
647.4	1586
647.6	1588
647.8	1584
648.0	1571
648.2	1562
648.4	1563
648.6	1560
648.8	1554
649.0	1543
649.2	1526
649.4	1517
649.6	1517
649.8	1516
650.0	1512
650.2	1511
650.4	1511
650.6	1513
650.8	1506
651.0	1497
651.2	1487
651.4	1478
651.6	1475
651.8	1480
652.0	1468
652.2	1464
652.4	1460
652.6	1455
652.8	1454
653.0	1455
653.2	1443
653.4	1425
653.6	1413
653.8	1406
654.0	1402
654.2	1402
654.4	1400
654.6	1390
654.8	1386
655.0	1385
655.2	1380
655.4	1375
655.6	1377
655.8	1377
656.0	1367
656.2	1361
656.4	1352
656.6	1340
656.8	1336
657.0	1337
657.2	1327
657.4	1326
657.6	1331
657.8	1327
658.0	1315
658.2	1310
658.4	1295
658.6	1286
658.8	1290
659.0	1287
659.2	1283
659.4	1278
659.6	1266
659.8	1260
660.0	1263
660.2	1264
660.4	1260
660.6	1251
660.8	1238
661.0	1228
661.2	1230
661.4	1231
661.6	1230
661.8	1225
662.0	1214
662.2	1207
662.4	1202
662.6	1196
662.8	1194
663.0	1189
663.2	1185
663.4	1177
663.6	1171
663.8	1167
664.0	1158
664.2	1150
664.4	1140
664.6	1134
664.8	1137
665.0	1142
665.2	1136
665.4	1124
665.6	1117
665.8	1114
666.0	1108
666.2	1105
666.4	1098
666.6	1090
666.8	1091
667.0	1089
667.2	1078
667.4	1067
667.6	1062
667.8	1059
668.0	1064
668.2	1063
668.4	1062
668.6	1050
668.8	1041
669.0	1035
669.2	1031
669.4	1024
669.6	1019
669.8	1020
670.0	1020
670.2	1020
670.4	1017
670.6	1009
670.8	996.8
671.0	993.2
671.2	989.5
671.4	985.3
671.6	981.2
671.8	975.3
672.0	970.8
672.2	962.9
672.4	955.1
672.6	940.2
672.8	931.6
673.0	925.4
673.2	928.9
673.4	930.3
673.6	930.5
673.8	926.9
674.0	924.3
674.2	919.8
674.4	918.6
674.6	914.2
674.8	911.9
675.0	905.5
675.2	900.3
675.4	891.5
675.6	884.2
675.8	877.8
676.0	879.8
676.2	877.8
676.4	879.3
676.6	871.8
676.8	865.8
677.0	855.5
677.2	850.3
677.4	844.7
677.6	843.1
677.8	840.1
678.0	840.3
678.2	838.1
678.4	834.3
678.6	826.9
678.8	819.6
679.0	815.5
679.2	814.9
679.4	812.5
679.6	810.2
679.8	803.0
680.0	798.9
680.2	794.3
680.4	789.5
680.6	785.7
680.8	787.8
681.0	781.0
681.2	775.7
681.4	773.2
681.6	767.0
681.8	763.3
682.0	761.1
682.2	752.4
682.4	745.1
682.6	742.1
682.8	741.9
683.0	738.2
683.2	736.9
683.4	736.6
683.6	730.9
683.8	721.9
684.0	717.4
684.2	711.2
684.4	712.2
684.6	712.2
684.8	706.0
685.0	701.6
685.2	697.2
685.4	695.7
685.6	698.4
685.8	697.4
686.0	685.2
686.2	680.2
686.4	677.0
686.6	676.3
686.8	676.2
687.0	668.1
687.2	653.0
687.4	647.6
687.6	645.8
687.8	648.6
688.0	645.6
688.2	640.3
688.4	634.8
688.6	633.3
688.8	633.7
689.0	634.3
689.2	629.8
689.4	627.0
689.6	623.4
689.8	622.2
690.0	619.4
690.2	615.5
690.4	611.8
690.6	608.6
690.8	602.4
691.0	599.5
691.2	597.3
691.4	596.7
691.6	594.2
691.8	591.8
692.0	583.1
692.2	576.0
692.4	575.9
692.6	572.3
692.8	573.1
693.0	569.5
693.2	566.5
693.4	559.1
693.6	557.0
693.8	554.1
694.0	553.8
694.2	551.1
694.4	552.3
694.6	547.3
694.8	542.3
695.0	541.2
695.2	537.2
695.4	535.5
695.6	537.8
695.8	535.4
696.0	529.9
696.2	525.3
696.4	520.4
696.6	518.3
696.8	518.3
697.0	516.7
697.2	512.9
697.4	510.1
697.6	509.3
697.8	507.3
698.0	502.0
698.2	501.5
698.4	495.6
698.6	496.6
698.8	494.5
699.0	493.0
699.2	491.5
699.4	492.5
699.6	487.6
699.8	485.5
700.0	482.5
700.2	480.9
700.4	479.6
700.6	479.3
700.8	475.4
701.0	464.8
701.2	461.0
701.4	457.6
701.6	457.5
701.8	459.6
702.0	458.1
702.2	452.5
702.4	453.5
702.6	453.1
702.8	452.4
703.0	453.0
703.2	450.3
703.4	446.8
703.6	443.8
703.8	440.3
704.0	436.6
704.2	433.5
704.4	432.1
704.6	429.4
704.8	426.9
705.0	425.7
705.2	424.9
705.4	421.9
705.6	421.9
705.8	419.7
706.0	417.0
706.2	413.0
706.4	410.9
706.6	406.3
706.8	409.0
707.0	409.6
707.2	407.1
707.4	406.0
707.6	401.9
707.8	395.3
708.0	393.6
708.2	394.8
708.4	396.0
708.6	395.9
708.8	395.3
709.0	392.6
709.2	388.3
709.4	384.3
709.6	381.0
709.8	375.0
710.0	370.8
710.2	370.7
710.4	370.3
710.6	365.6
710.8	365.9
711.0	367.6
711.2	366.5
711.4	367.9
711.6	366.3
711.8	363.1
712.0	359.4
712.2	357.0
712.4	353.7
712.6	351.2
712.8	346.8
713.0	346.8
713.2	346.2
713.4	347.5
713.6	345.3
713.8	339.9
714.0	332.4
714.2	327.6
714.4	329.3
714.6	332.2
714.8	333.2
715.0	332.2
715.2	328.3
715.4	323.1
715.6	321.5
715.8	317.2
716.0	318.2
716.2	319.5
716.4	320.5
716.6	317.5
716.8	315.1
717.0	309.0
717.2	306.4
717.4	302.9
717.6	301.6
717.8	302.0
718.0	302.3
718.2	301.7
718.4	299.2
718.6	295.6
718.8	293.2
719.0	294.0
719.2	291.5
719.4	290.0
719.6	288.2
719.8	287.9
720.0	287.1
720.2	282.3
720.4	278.4
720.6	276.5
720.8	274.7
721.0	272.9
721.2	271.5
721.4	271.2
721.6	271.1
721.8	270.5
722.0	269.1
722.2	264.6
722.4	260.4
722.6	260.3
722.8	258.9
723.0	253.9
723.2	252.1
723.4	250.2
723.6	249.3
723.8	249.2
724.0	250.5
724.2	247.1
724.4	247.3
724.6	248.1
724.8	247.1
725.0	246.1
725.2	245.3
725.4	239.0
725.6	237.8
725.8	234.8
726.0	233.7
726.2	234.8
726.4	234.4
726.6	230.0
726.8	227.6
727.0	221.7
727.2	220.7
727.4	219.1
727.6	221.9
727.8	223.9
728.0	222.4
728.2	218.6
728.4	217.0
728.6	212.9
728.8	212.9
729.0	211.2
729.2	208.8
729.4	206.5
729.6	207.4
729.8	207.9
730.0	209.5
730.2	208.7
730.4	205.7
730.6	202.5
730.8	198.7
731.0	195.4
731.2	196.2
731.4	195.8
731.6	198.6
731.8	198.1
732.0	196.5
732.2	193.4
732.4	190.5
732.6	185.5
732.8	186.2
733.0	184.0
733.2	188.7
733.4	189.0
733.6	188.7
733.8	186.1
734.0	182.2
734.2	176.7
734.4	176.7
734.6	174.1
734.8	172.3
735.0	169.4
735.2	167.8
735.4	167.5
735.6	168.9
735.8	170.0
736.0	167.3
736.2	162.7
736.4	162.2
736.6	163.3
736.8	165.2
737.0	167.6
737.2	166.1
737.4	165.1
737.6	163.1
737.8	158.7
738.0	158.1
738.2	158.6
738.4	157.8
738.6	157.0
738.8	153.1
739.0	150.1
739.2	147.5
739.4	146.4
739.6	146.6
739.8	147.6
740.0	147.7
740.2	150.2
740.4	150.2
740.6	146.8
740.8	143.7
741.0	141.7
741.2	138.9
741.4	139.7
741.6	141.1
741.8	139.9
742.0	139.2
742.2	137.2
742.4	136.6
742.6	137.0
742.8	136.6
743.0	135.3
743.2	133.7
743.4	130.4
743.6	129.1
743.8	128.6
744.0	130.0
744.2	131.1
744.4	131.7
744.6	130.2
744.8	128.4
745.0	124.8
745.2	124.2
745.4	123.6
745.6	122.7
745.8	123.5
746.0	122.3
746.2	120.2
746.4	119.9
746.6	118.2
746.8	117.6
747.0	118.2
747.2	116.6
747.4	118.1
747.6	117.9
747.8	115.8
748.0	115.0
748.2	114.4
748.4	112.8
748.6	112.4
748.8	111.2
749.0	110.6
749.2	110.0
749.4	110.6
749.6	110.6
749.8	109.9
750.0	109.7
750.2	109.4
750.4	107.7
750.6	106.5
750.8	105.5
751.0	105.4
751.2	106.1
751.4	105.2
751.6	104.5
751.8	104.3
752.0	103.5
752.2	103.3
752.4	102.7
752.6	102.4
752.8	102.0
753.0	101.3
753.2	99.86
753.4	98.21
753.6	97.95
753.8	97.15
754.0	96.06
754.2	96.10
754.4	95.19
754.6	94.00
754.8	93.93
755.0	93.85
755.2	94.86
755.4	95.67
755.6	94.83
755.8	93.94
756.0	91.93
756.2	92.36
756.4	90.33
756.6	87.60
756.8	85.88
757.0	86.21
757.2	88.14
757.4	89.43
757.6	88.23
757.8	86.46
758.0	85.29
758.2	85.07
758.4	85.45
758.6	83.91
758.8	83.62
759.0	82.27
759.2	82.91
759.4	83.10
759.6	83.73
759.8	83.27
760.0	83.35
760.2	82.79
760.4	82.22
760.6	81.16
760.8	82.62
761.0	83.33
761.2	82.66
761.4	81.28
761.6	79.14
761.8	76.84
762.0	74.86
762.2	76.41
762.4	74.91
762.6	74.65
762.8	75.00
763.0	74.87
763.2	73.60
763.4	74.43
763.6	73.49
763.8	73.10
764.0	71.70
764.2	70.72
764.4	69.87
764.6	67.95
764.8	67.38
765.0	66.99
765.2	66.37
765.4	66.76
765.6	67.23
765.8	68.32
766.0	68.99
766.2	68.59
766.4	67.08
766.6	64.47
766.8	63.10
767.0	64.26
767.2	64.84
767.4	64.83
767.6	65.90
767.8	65.57
768.0	64.93
768.2	63.88
768.4	61.40
768.6	59.96
768.8	61.29
769.0	62.96
769.2	62.85
769.4	61.28
769.6	59.31
769.8	59.14
770.0	59.98
770.2	60.88
770.4	60.35
770.6	59.21
770.8	57.97
771.0	58.94
771.2	59.55
771.4	60.63
771.6	60.19
771.8	58.79
772.0	55.94
772.2	55.85
772.4	55.63
772.6	56.13
772.8	56.42
773.0	55.98
773.2	55.25
773.4	55.90
773.6	55.53
773.8	54.83
774.0	54.02
774.2	53.51
774.4	53.99
774.6	54.63
774.8	54.23
775.0	53.68
775.2	52.30
775.4	52.33
775.6	52.17
775.8	51.49
776.0	51.48
776.2	51.80
776.4	51.45
776.6	51.93
776.8	50.89
777.0	50.10
777.2	50.05
777.4	49.71
777.6	48.40
777.8	48.36
778.0	48.38
778.2	49.08
778.4	50.01
778.6	50.53
778.8	48.94
779.0	47.99
779.2	46.28
779.4	45.39
779.6	44.61
779.8	45.24
780.0	46.25
780.2	47.01
780.4	46.24
780.6	47.74
780.8	46.15
781.0	46.17
781.2	46.67
781.4	45.89
781.6	44.59
781.8	44.71
782.0	42.45
782.2	41.91
782.4	41.72
782.6	41.56
782.8	41.41
783.0	41.76
783.2	41.73
783.4	42.74
783.6	43.70
783.8	44.70
784.0	43.63
784.2	42.85
784.4	42.46
784.6	42.57
784.8	42.80
785.0	43.83
785.2	42.43
785.4	41.14
785.6	40.52
785.8	39.35
786.0	38.44
786.2	38.71
786.4	39.35
786.6	39.30
786.8	40.47
787.0	40.16
787.2	40.07
787.4	40.38
787.6	40.97
787.8	39.72
788.0	40.13
788.2	39.03
788.4	38.69
788.6	38.94
788.8	39.69
789.0	39.55
789.2	40.18
789.4	39.50
789.6	39.58
789.8	39.15
790.0	39.21
790.2	39.63
790.4	39.40
790.6	38.54
790.8	38.94
791.0	38.20
791.2	38.65
791.4	39.20
791.6	38.50
791.8	37.76
792.0	36.93
792.2	36.51
792.4	37.21
792.6	37.36
792.8	36.80
793.0	36.17
793.2	35.09
793.4	35.26
793.6	35.77
793.8	36.26
794.0	35.86
794.2	35.51
794.4	35.86
794.6	35.30
794.8	35.25
795.0	35.49
795.2	35.34
795.4	34.50
795.6	35.00
795.8	34.13
796.0	34.79
796.2	35.30
796.4	35.56
796.6	35.16
796.8	35.29
797.0	35.11
797.2	35.24
797.4	34.19
797.6	33.76
797.8	34.23
798.0	34.45
798.2	34.98
798.4	35.27
798.6	35.11
798.8	35.12
799.0	34.88
799.2	34.41
799.4	34.41
799.6	33.38
799.8	32.87
800.0	32.46
800.2	32.49
800.4	32.21
800.6	32.91
800.8	32.70
801.0	31.67
801.2	31.59
801.4	32.65
801.6	33.19
801.8	32.64
802.0	33.38
802.2	32.56
802.4	32.99
802.6	33.52
802.8	33.07
803.0	32.21
803.2	31.61
803.4	30.67
803.6	30.85
803.8	30.01
804.0	29.93
804.2	31.76
804.4	31.97
804.6	31.68
804.8	31.57
805.0	30.00
805.2	29.74
805.4	29.29
805.6	28.86
805.8	28.05
806.0	29.15
806.2	29.60
806.4	30.53
806.6	31.47
806.8	32.44
807.0	31.45
807.2	30.65
807.4	28.83
807.6	27.84
807.8	28.42
808.0	29.43
808.2	29.88
808.4	30.39
808.6	31.17
808.8	30.80
809.0	30.17
809.2	29.09
809.4	28.04
809.6	27.30
809.8	27.85
810.0	27.17
810.2	27.37
810.4	27.38
810.6	26.07
810.8	26.24
811.0	26.79
811.2	27.24
811.4	28.53
811.6	29.08
811.8	28.75
812.0	27.92
812.2	27.08
812.4	26.35
812.6	27.10
812.8	26.78
813.0	26.76
813.2	25.90
813.4	24.74
813.6	23.79
813.8	24.54
814.0	24.36
814.2	25.22
814.4	26.33
814.6	25.19
814.8	23.85
815.0	23.27
815.2	23.08
815.4	24.02
815.6	24.27
815.8	23.11
816.0	22.89
816.2	22.35
816.4	22.20
816.6	23.59
816.8	23.92
817.0	23.92
817.2	24.66
817.4	24.03
817.6	23.16
817.8	22.95
818.0	21.94
818.2	21.42
818.4	21.70
818.6	21.58
818.8	22.56
819.0	23.51
819.2	23.51
819.4	23.05
819.6	21.74
819.8	19.93
820.0	20.12
820.2	20.48
820.4	20.87
820.6	21.47
820.8	21.36
821.0	21.30
821.2	21.80
821.4	22.06
821.6	21.79
821.8	20.74
822.0	20.00
822.2	19.12
822.4	18.74
822.6	19.10
822.8	19.11
823.0	18.86
823.2	18.51
823.4	18.00
823.6	18.08
823.8	17.95
824.0	17.59
824.2	17.75
824.4	17.24
824.6	17.07
824.8	17.54
825.0	17.46
825.2	17.06
825.4	17.46
825.6	17.64
825.8	17.84
826.0	18.06
826.2	17.59
826.4	16.65
826.6	16.25
826.8	15.18
827.0	14.92
827.2	15.56
827.4	16.34
827.6	16.07
827.8	15.67
828.0	14.55
828.2	14.42
828.4	14.96
828.6	14.87
828.8	13.85
829.0	13.72
829.2	13.78
829.4	14.30
829.6	14.52
829.8	13.76
830.0	12.90
830.2	12.73
830.4	12.72
830.6	12.65
830.8	12.56
831.0	12.19
831.2	12.29
831.4	12.17
831.6	12.41
831.8	12.41
832.0	12.24
832.2	12.21
832.4	11.73
832.6	10.89
832.8	10.69
833.0	10.37
833.2	10.54
833.4	11.16
833.6	10.43
833.8	9.801
834.0	9.899
834.2	9.592
834.4	9.943
834.6	10.84
834.8	10.20
835.0	10.60
835.2	10.67
835.4	9.960
835.6	9.130
835.8	8.752
