Sample:	'20211010A(EM)
File name:	r-NI-cds-CHO 1;15 660V.FDS
Run date:	'09:00:54, 03/22/2023
Operator:	Administrator
Comment:	'

Instrument
Model:	F-4700 FL Spectrophotometer
Serial number:	2019-001
ROM Version:	5J24010 00

Instrument parameters
Measurement type:	Wavelength scan
Scan mode:	Emission
Data mode:	Fluorescence
EX WL:	530.0 nm
EM  Start WL:	550.0 nm
EM  End WL:	900.0 nm
Scan speed:	1200 nm/min
Delay:	0.0 s
EX Slit:	10.0 nm
EM Slit:	10.0 nm
PMT Voltage:	660 V
Response:	0.002 s
Corrected spectra:	Off
Shutter control:	On

Processing performed
Savitsky-Golay smoothed
Smoothing order:	3
Number of points:	7
Number of times:	1

Peak integration
Integration method:	Rectangular
Sensitivity:	1
Threshold:	1.000

Peaks
No.	Start(nm)	Apex(nm)	End(nm)	Height(Data)	Valley(nm)	Valley(Data)
1	550.0	607.2	608.8	8991	608.8	8970
2	608.8	611.0	612.0	9006	612.0	8900
3	612.0	612.8	778.8	8954	778.8	78.61
4	778.8	779.6	781.4	82.55	781.4	75.60
5	781.4	782.0	785.0	77.99	785.0	66.22
6	785.0	786.2	787.0	69.52	787.0	64.33
7	787.0	787.4	789.6	66.95	789.6	59.27
8	789.6	790.6	792.0	63.91	792.0	57.44
9	792.0	793.0	796.4	59.78	796.4	51.51
10	796.4	797.2	799.6	54.34	799.6	49.34
11	799.6	799.8	806.0	50.99	806.0	41.78
12	806.0	806.4	808.4	44.62	808.4	40.55
13	808.4	809.6	814.8	42.39	814.8	35.06
14	814.8	815.4	817.8	37.20	817.8	30.52
15	817.8	818.4	819.2	33.78	819.2	30.69
16	819.2	819.8	824.6	32.97	824.6	25.18
17	824.6	825.4	841.2	27.36	841.2	11.47
18	841.2	842.0	846.0	13.05	846.0	8.712
19	846.0	846.8	850.0	9.721	850.0	7.394
20	850.0	851.4	853.6	8.550	853.6	5.931
21	853.6	854.8	857.0	7.122	857.0	5.261
22	857.0	857.6	859.2	6.610	859.2	5.122
23	859.2	859.6	861.2	6.601	861.2	5.021
24	861.2	863.4	873.0	6.378	873.0	4.152
25	873.0	877.0	879.4	5.535	879.4	4.285
26	879.4	880.6	883.0	6.052	883.0	4.304
27	883.0	884.4	885.4	5.667	885.4	4.520
28	885.4	888.0	892.2	5.819	892.2	4.286
29	892.2	893.0	900.0	5.428	900.0	5.624

Data points
nm	Data
550.0	1013
550.2	1024
550.4	1041
550.6	1061
550.8	1075
551.0	1089
551.2	1097
551.4	1117
551.6	1137
551.8	1154
552.0	1173
552.2	1193
552.4	1203
552.6	1221
552.8	1234
553.0	1251
553.2	1272
553.4	1293
553.6	1306
553.8	1324
554.0	1339
554.2	1354
554.4	1371
554.6	1393
554.8	1417
555.0	1433
555.2	1449
555.4	1466
555.6	1483
555.8	1505
556.0	1534
556.2	1557
556.4	1579
556.6	1605
556.8	1622
557.0	1642
557.2	1656
557.4	1683
557.6	1700
557.8	1727
558.0	1750
558.2	1776
558.4	1790
558.6	1816
558.8	1831
559.0	1863
559.2	1883
559.4	1913
559.6	1942
559.8	1967
560.0	1990
560.2	2014
560.4	2030
560.6	2052
560.8	2086
561.0	2114
561.2	2149
561.4	2173
561.6	2201
561.8	2223
562.0	2248
562.2	2275
562.4	2307
562.6	2330
562.8	2361
563.0	2392
563.2	2412
563.4	2443
563.6	2481
563.8	2507
564.0	2546
564.2	2578
564.4	2592
564.6	2625
564.8	2654
565.0	2679
565.2	2717
565.4	2747
565.6	2770
565.8	2812
566.0	2851
566.2	2883
566.4	2919
566.6	2948
566.8	2978
567.0	3010
567.2	3043
567.4	3075
567.6	3098
567.8	3131
568.0	3170
568.2	3201
568.4	3236
568.6	3276
568.8	3308
569.0	3351
569.2	3386
569.4	3410
569.6	3443
569.8	3471
570.0	3519
570.2	3572
570.4	3609
570.6	3635
570.8	3681
571.0	3705
571.2	3732
571.4	3763
571.6	3788
571.8	3819
572.0	3877
572.2	3921
572.4	3960
572.6	3994
572.8	4030
573.0	4064
573.2	4103
573.4	4144
573.6	4193
573.8	4228
574.0	4263
574.2	4292
574.4	4335
574.6	4384
574.8	4432
575.0	4470
575.2	4497
575.4	4511
575.6	4562
575.8	4599
576.0	4635
576.2	4673
576.4	4705
576.6	4739
576.8	4790
577.0	4827
577.2	4873
577.4	4909
577.6	4951
577.8	4997
578.0	5032
578.2	5066
578.4	5104
578.6	5133
578.8	5164
579.0	5207
579.2	5249
579.4	5292
579.6	5346
579.8	5387
580.0	5426
580.2	5468
580.4	5501
580.6	5530
580.8	5577
581.0	5624
581.2	5671
581.4	5702
581.6	5734
581.8	5769
582.0	5823
582.2	5888
582.4	5938
582.6	5969
582.8	5998
583.0	6013
583.2	6038
583.4	6076
583.6	6114
583.8	6170
584.0	6227
584.2	6267
584.4	6299
584.6	6336
584.8	6353
585.0	6393
585.2	6441
585.4	6472
585.6	6509
585.8	6562
586.0	6596
586.2	6644
586.4	6677
586.6	6709
586.8	6747
587.0	6785
587.2	6812
587.4	6832
587.6	6852
587.8	6888
588.0	6926
588.2	6966
588.4	7010
588.6	7054
588.8	7098
589.0	7145
589.2	7172
589.4	7193
589.6	7233
589.8	7249
590.0	7282
590.2	7312
590.4	7327
590.6	7357
590.8	7405
591.0	7445
591.2	7492
591.4	7525
591.6	7558
591.8	7586
592.0	7617
592.2	7650
592.4	7663
592.6	7700
592.8	7731
593.0	7760
593.2	7784
593.4	7807
593.6	7838
593.8	7885
594.0	7915
594.2	7935
594.4	7934
594.6	7958
594.8	8003
595.0	8033
595.2	8059
595.4	8077
595.6	8086
595.8	8117
596.0	8155
596.2	8176
596.4	8207
596.6	8238
596.8	8266
597.0	8286
597.2	8310
597.4	8328
597.6	8348
597.8	8376
598.0	8403
598.2	8427
598.4	8442
598.6	8454
598.8	8464
599.0	8481
599.2	8501
599.4	8529
599.6	8542
599.8	8567
600.0	8594
600.2	8607
600.4	8623
600.6	8641
600.8	8646
601.0	8670
601.2	8706
601.4	8711
601.6	8733
601.8	8745
602.0	8745
602.2	8760
602.4	8763
602.6	8771
602.8	8779
603.0	8790
603.2	8787
603.4	8792
603.6	8792
603.8	8828
604.0	8862
604.2	8903
604.4	8898
604.6	8898
604.8	8884
605.0	8892
605.2	8911
605.4	8927
605.6	8941
605.8	8940
606.0	8932
606.2	8937
606.4	8936
606.6	8960
606.8	8983
607.0	8989
607.2	8991
607.4	8988
607.6	8972
607.8	8989
608.0	8984
608.2	8989
608.4	8972
608.6	8973
608.8	8970
609.0	8974
609.2	8971
609.4	8986
609.6	8974
609.8	8982
610.0	8979
610.2	8974
610.4	8969
610.6	9000
610.8	9000
611.0	9006
611.2	8986
611.4	8958
611.6	8939
611.8	8918
612.0	8900
612.2	8913
612.4	8928
612.6	8942
612.8	8954
613.0	8937
613.2	8935
613.4	8927
613.6	8933
613.8	8926
614.0	8910
614.2	8900
614.4	8896
614.6	8884
614.8	8879
615.0	8873
615.2	8872
615.4	8874
615.6	8859
615.8	8842
616.0	8810
616.2	8784
616.4	8770
616.6	8757
616.8	8741
617.0	8731
617.2	8728
617.4	8744
617.6	8751
617.8	8719
618.0	8698
618.2	8670
618.4	8649
618.6	8659
618.8	8645
619.0	8631
619.2	8624
619.4	8609
619.6	8589
619.8	8578
620.0	8544
620.2	8542
620.4	8529
620.6	8519
620.8	8504
621.0	8501
621.2	8473
621.4	8449
621.6	8424
621.8	8401
622.0	8385
622.2	8377
622.4	8356
622.6	8328
622.8	8300
623.0	8289
623.2	8274
623.4	8253
623.6	8236
623.8	8213
624.0	8199
624.2	8212
624.4	8207
624.6	8204
624.8	8189
625.0	8152
625.2	8116
625.4	8070
625.6	8055
625.8	8040
626.0	8018
626.2	7990
626.4	7984
626.6	7961
626.8	7952
627.0	7919
627.2	7882
627.4	7840
627.6	7823
627.8	7808
628.0	7789
628.2	7775
628.4	7764
628.6	7733
628.8	7702
629.0	7689
629.2	7662
629.4	7624
629.6	7613
629.8	7582
630.0	7574
630.2	7575
630.4	7541
630.6	7500
630.8	7493
631.0	7462
631.2	7443
631.4	7417
631.6	7388
631.8	7351
632.0	7332
632.2	7312
632.4	7286
632.6	7256
632.8	7240
633.0	7203
633.2	7179
633.4	7158
633.6	7122
633.8	7095
634.0	7074
634.2	7046
634.4	7020
634.6	6996
634.8	6967
635.0	6948
635.2	6938
635.4	6921
635.6	6898
635.8	6866
636.0	6842
636.2	6815
636.4	6814
636.6	6800
636.8	6773
637.0	6727
637.2	6701
637.4	6664
637.6	6647
637.8	6617
638.0	6591
638.2	6571
638.4	6555
638.6	6525
638.8	6502
639.0	6472
639.2	6438
639.4	6401
639.6	6376
639.8	6356
640.0	6343
640.2	6332
640.4	6299
640.6	6253
640.8	6222
641.0	6198
641.2	6167
641.4	6150
641.6	6131
641.8	6108
642.0	6078
642.2	6043
642.4	6009
642.6	5980
642.8	5947
643.0	5918
643.2	5897
643.4	5880
643.6	5868
643.8	5839
644.0	5796
644.2	5770
644.4	5764
644.6	5745
644.8	5722
645.0	5689
645.2	5654
645.4	5641
645.6	5634
645.8	5608
646.0	5590
646.2	5553
646.4	5530
646.6	5505
646.8	5478
647.0	5450
647.2	5428
647.4	5403
647.6	5389
647.8	5354
648.0	5309
648.2	5272
648.4	5239
648.6	5230
648.8	5229
649.0	5214
649.2	5199
649.4	5169
649.6	5123
649.8	5091
650.0	5067
650.2	5039
650.4	5029
650.6	4994
650.8	4972
651.0	4966
651.2	4957
651.4	4933
651.6	4911
651.8	4879
652.0	4865
652.2	4856
652.4	4831
652.6	4788
652.8	4761
653.0	4723
653.2	4692
653.4	4679
653.6	4660
653.8	4638
654.0	4619
654.2	4600
654.4	4578
654.6	4563
654.8	4547
655.0	4511
655.2	4473
655.4	4458
655.6	4432
655.8	4407
656.0	4376
656.2	4348
656.4	4324
656.6	4307
656.8	4287
657.0	4265
657.2	4241
657.4	4228
657.6	4206
657.8	4189
658.0	4163
658.2	4137
658.4	4123
658.6	4106
658.8	4086
659.0	4079
659.2	4063
659.4	4034
659.6	4008
659.8	3984
660.0	3961
660.2	3937
660.4	3920
660.6	3892
660.8	3869
661.0	3858
661.2	3838
661.4	3808
661.6	3796
661.8	3773
662.0	3753
662.2	3731
662.4	3704
662.6	3687
662.8	3687
663.0	3668
663.2	3647
663.4	3619
663.6	3595
663.8	3577
664.0	3568
664.2	3543
664.4	3535
664.6	3524
664.8	3500
665.0	3480
665.2	3470
665.4	3441
665.6	3424
665.8	3409
666.0	3378
666.2	3357
666.4	3341
666.6	3319
666.8	3293
667.0	3276
667.2	3267
667.4	3250
667.6	3243
667.8	3230
668.0	3210
668.2	3189
668.4	3175
668.6	3142
668.8	3120
669.0	3090
669.2	3070
669.4	3062
669.6	3053
669.8	3032
670.0	3013
670.2	3000
670.4	2980
670.6	2973
670.8	2960
671.0	2944
671.2	2923
671.4	2893
671.6	2865
671.8	2850
672.0	2863
672.2	2860
672.4	2846
672.6	2820
672.8	2806
673.0	2791
673.2	2792
673.4	2767
673.6	2738
673.8	2717
674.0	2701
674.2	2681
674.4	2665
674.6	2646
674.8	2625
675.0	2605
675.2	2592
675.4	2573
675.6	2562
675.8	2544
676.0	2526
676.2	2503
676.4	2491
676.6	2477
676.8	2477
677.0	2468
677.2	2453
677.4	2445
677.6	2437
677.8	2423
678.0	2406
678.2	2384
678.4	2364
678.6	2351
678.8	2336
679.0	2328
679.2	2312
679.4	2292
679.6	2284
679.8	2271
680.0	2256
680.2	2248
680.4	2225
680.6	2211
680.8	2202
681.0	2189
681.2	2175
681.4	2164
681.6	2139
681.8	2125
682.0	2120
682.2	2100
682.4	2084
682.6	2077
682.8	2070
683.0	2061
683.2	2051
683.4	2031
683.6	2014
683.8	1996
684.0	1989
684.2	1980
684.4	1967
684.6	1957
684.8	1943
685.0	1924
685.2	1917
685.4	1905
685.6	1899
685.8	1889
686.0	1873
686.2	1858
686.4	1847
686.6	1829
686.8	1819
687.0	1812
687.2	1799
687.4	1791
687.6	1785
687.8	1767
688.0	1750
688.2	1745
688.4	1742
688.6	1732
688.8	1720
689.0	1703
689.2	1687
689.4	1676
689.6	1671
689.8	1659
690.0	1648
690.2	1643
690.4	1638
690.6	1623
690.8	1614
691.0	1609
691.2	1606
691.4	1595
691.6	1583
691.8	1571
692.0	1555
692.2	1551
692.4	1551
692.6	1537
692.8	1535
693.0	1527
693.2	1509
693.4	1501
693.6	1485
693.8	1472
694.0	1465
694.2	1457
694.4	1447
694.6	1438
694.8	1425
695.0	1424
695.2	1417
695.4	1410
695.6	1394
695.8	1381
696.0	1375
696.2	1367
696.4	1364
696.6	1355
696.8	1347
697.0	1345
697.2	1343
697.4	1334
697.6	1335
697.8	1328
698.0	1319
698.2	1312
698.4	1298
698.6	1286
698.8	1278
699.0	1278
699.2	1277
699.4	1277
699.6	1270
699.8	1256
700.0	1238
700.2	1232
700.4	1228
700.6	1221
700.8	1213
701.0	1203
701.2	1197
701.4	1187
701.6	1178
701.8	1162
702.0	1150
702.2	1141
702.4	1145
702.6	1138
702.8	1139
703.0	1134
703.2	1125
703.4	1117
703.6	1116
703.8	1109
704.0	1109
704.2	1107
704.4	1101
704.6	1093
704.8	1088
705.0	1074
705.2	1065
705.4	1060
705.6	1056
705.8	1046
706.0	1044
706.2	1035
706.4	1028
706.6	1020
706.8	1014
707.0	1006
707.2	1002
707.4	997.7
707.6	990.2
707.8	979.5
708.0	974.4
708.2	973.8
708.4	970.4
708.6	965.7
708.8	955.4
709.0	945.2
709.2	939.2
709.4	936.6
709.6	933.9
709.8	931.9
710.0	927.9
710.2	926.7
710.4	918.9
710.6	908.4
710.8	896.1
711.0	888.0
711.2	885.0
711.4	884.9
711.6	885.6
711.8	884.3
712.0	880.0
712.2	870.2
712.4	861.8
712.6	851.7
712.8	842.8
713.0	839.2
713.2	836.7
713.4	829.7
713.6	826.1
713.8	823.4
714.0	821.0
714.2	822.5
714.4	817.6
714.6	811.1
714.8	802.7
715.0	795.8
715.2	787.6
715.4	779.0
715.6	769.0
715.8	764.8
716.0	765.7
716.2	765.0
716.4	762.2
716.6	759.4
716.8	750.2
717.0	743.8
717.2	741.3
717.4	736.2
717.6	731.8
717.8	730.1
718.0	721.6
718.2	715.5
718.4	709.6
718.6	699.9
718.8	695.4
719.0	691.9
719.2	688.6
719.4	684.3
719.6	677.7
719.8	668.7
720.0	667.4
720.2	664.1
720.4	663.0
720.6	658.2
720.8	653.8
721.0	647.0
721.2	642.3
721.4	634.1
721.6	629.6
721.8	626.7
722.0	626.0
722.2	620.0
722.4	615.3
722.6	607.1
722.8	599.1
723.0	592.9
723.2	586.6
723.4	583.8
723.6	583.3
723.8	583.7
724.0	577.8
724.2	571.7
724.4	568.3
724.6	568.3
724.8	563.5
725.0	560.5
725.2	556.1
725.4	551.3
725.6	549.5
725.8	548.5
726.0	540.9
726.2	535.1
726.4	530.4
726.6	522.4
726.8	518.2
727.0	513.0
727.2	506.6
727.4	505.5
727.6	504.9
727.8	502.7
728.0	499.7
728.2	491.8
728.4	485.0
728.6	488.1
728.8	487.9
729.0	484.8
729.2	479.8
729.4	472.6
729.6	464.1
729.8	469.3
730.0	466.7
730.2	464.7
730.4	464.4
730.6	461.6
730.8	455.9
731.0	455.7
731.2	448.6
731.4	441.0
731.6	432.0
731.8	425.1
732.0	420.4
732.2	421.9
732.4	422.9
732.6	422.1
732.8	418.8
733.0	418.4
733.2	414.0
733.4	411.5
733.6	409.9
733.8	406.0
734.0	401.3
734.2	396.7
734.4	390.8
734.6	386.5
734.8	389.1
735.0	384.7
735.2	382.8
735.4	380.3
735.6	382.2
735.8	378.5
736.0	377.9
736.2	371.2
736.4	367.9
736.6	364.8
736.8	362.2
737.0	357.7
737.2	358.2
737.4	355.8
737.6	351.0
737.8	348.7
738.0	343.3
738.2	340.5
738.4	339.6
738.6	334.3
738.8	327.5
739.0	325.0
739.2	325.7
739.4	326.6
739.6	327.4
739.8	323.7
740.0	320.6
740.2	316.9
740.4	316.0
740.6	315.5
740.8	316.7
741.0	313.3
741.2	310.1
741.4	309.9
741.6	305.8
741.8	300.1
742.0	298.1
742.2	294.1
742.4	290.6
742.6	293.4
742.8	293.4
743.0	290.1
743.2	289.3
743.4	284.1
743.6	280.3
743.8	277.7
744.0	274.4
744.2	271.1
744.4	267.5
744.6	264.4
744.8	265.6
745.0	268.0
745.2	270.0
745.4	266.1
745.6	260.6
745.8	257.0
746.0	255.4
746.2	258.6
746.4	258.5
746.6	253.5
746.8	250.5
747.0	246.0
747.2	245.4
747.4	248.0
747.6	246.0
747.8	245.0
748.0	242.9
748.2	239.6
748.4	238.8
748.6	234.6
748.8	230.9
749.0	230.8
749.2	228.2
749.4	225.3
749.6	224.3
749.8	221.7
750.0	221.4
750.2	223.0
750.4	223.6
750.6	219.5
750.8	218.8
751.0	220.7
751.2	219.3
751.4	215.2
751.6	211.6
751.8	206.3
752.0	205.5
752.2	206.5
752.4	205.4
752.6	204.7
752.8	204.1
753.0	201.4
753.2	199.8
753.4	200.3
753.6	200.7
753.8	201.0
754.0	198.9
754.2	193.7
754.4	189.0
754.6	187.6
754.8	187.6
755.0	187.5
755.2	186.7
755.4	184.6
755.6	182.2
755.8	180.4
756.0	179.4
756.2	180.9
756.4	181.7
756.6	180.5
756.8	176.8
757.0	175.9
757.2	173.8
757.4	174.2
757.6	176.9
757.8	175.2
758.0	174.1
758.2	173.5
758.4	168.9
758.6	166.4
758.8	166.0
759.0	161.2
759.2	161.5
759.4	160.6
759.6	157.1
759.8	156.1
760.0	154.4
760.2	153.4
760.4	153.7
760.6	154.0
760.8	152.2
761.0	152.8
761.2	150.5
761.4	148.6
761.6	146.1
761.8	141.7
762.0	139.0
762.2	143.1
762.4	144.7
762.6	146.0
762.8	145.1
763.0	140.8
763.2	139.2
763.4	139.8
763.6	138.7
763.8	137.3
764.0	134.9
764.2	132.7
764.4	131.8
764.6	131.5
764.8	131.6
765.0	130.5
765.2	128.2
765.4	127.3
765.6	126.7
765.8	125.3
766.0	125.2
766.2	124.8
766.4	122.1
766.6	121.5
766.8	120.2
767.0	117.5
767.2	118.4
767.4	119.4
767.6	118.7
767.8	118.1
768.0	114.8
768.2	111.7
768.4	111.2
768.6	112.8
768.8	111.5
769.0	111.0
769.2	108.9
769.4	107.5
769.6	107.2
769.8	107.8
770.0	106.1
770.2	107.2
770.4	105.4
770.6	105.1
770.8	104.8
771.0	104.2
771.2	105.2
771.4	106.0
771.6	104.2
771.8	100.6
772.0	100.2
772.2	99.26
772.4	100.1
772.6	100.2
772.8	100.1
773.0	97.93
773.2	99.14
773.4	97.35
773.6	95.90
773.8	94.97
774.0	94.66
774.2	93.99
774.4	94.47
774.6	94.12
774.8	92.32
775.0	92.71
775.2	93.58
775.4	92.45
775.6	94.45
775.8	92.85
776.0	91.26
776.2	90.34
776.4	89.10
776.6	86.86
776.8	88.61
777.0	88.28
777.2	87.82
777.4	86.60
777.6	83.78
777.8	82.60
778.0	82.61
778.2	83.17
778.4	82.08
778.6	80.54
778.8	78.61
779.0	78.79
779.2	80.06
779.4	81.18
779.6	82.55
779.8	82.07
780.0	80.51
780.2	78.20
780.4	78.05
780.6	76.24
780.8	76.94
781.0	76.67
781.2	75.83
781.4	75.60
781.6	76.22
781.8	76.32
782.0	77.99
782.2	77.25
782.4	75.41
782.6	75.30
782.8	75.43
783.0	75.48
783.2	76.01
783.4	74.21
783.6	72.51
783.8	71.22
784.0	70.78
784.2	69.08
784.4	67.90
784.6	66.88
784.8	66.45
785.0	66.22
785.2	67.95
785.4	68.44
785.6	68.41
785.8	68.42
786.0	68.54
786.2	69.52
786.4	68.90
786.6	67.58
786.8	65.53
787.0	64.33
787.2	65.52
787.4	66.95
787.6	66.35
787.8	65.91
788.0	65.77
788.2	65.74
788.4	65.91
788.6	66.23
788.8	66.22
789.0	65.02
789.2	65.20
789.4	62.68
789.6	59.27
789.8	59.68
790.0	60.09
790.2	61.42
790.4	63.45
790.6	63.91
790.8	62.74
791.0	62.55
791.2	60.30
791.4	59.70
791.6	57.64
791.8	57.61
792.0	57.44
792.2	57.65
792.4	57.51
792.6	58.93
792.8	59.45
793.0	59.78
793.2	58.39
793.4	57.17
793.6	54.46
793.8	54.51
794.0	55.23
794.2	57.16
794.4	56.53
794.6	56.81
794.8	54.98
795.0	54.21
795.2	53.71
795.4	56.13
795.6	55.28
795.8	55.20
796.0	54.53
796.2	52.86
796.4	51.51
796.6	52.68
796.8	52.92
797.0	53.87
797.2	54.34
797.4	54.00
797.6	52.90
797.8	53.14
798.0	53.25
798.2	53.38
798.4	51.84
798.6	51.03
798.8	49.87
799.0	50.03
799.2	49.35
799.4	49.58
799.6	49.34
799.8	50.99
800.0	50.13
800.2	50.91
800.4	49.92
800.6	49.95
800.8	49.10
801.0	49.13
801.2	47.25
801.4	47.89
801.6	48.29
801.8	48.78
802.0	48.31
802.2	47.53
802.4	47.33
802.6	47.67
802.8	48.57
803.0	48.19
803.2	47.70
803.4	46.64
803.6	46.69
803.8	46.67
804.0	47.16
804.2	47.44
804.4	46.60
804.6	45.04
804.8	44.22
805.0	44.64
805.2	45.09
805.4	44.36
805.6	43.46
805.8	42.68
806.0	41.78
806.2	43.62
806.4	44.62
806.6	43.88
806.8	43.73
807.0	43.62
807.2	42.79
807.4	43.53
807.6	43.14
807.8	42.45
808.0	41.94
808.2	41.12
808.4	40.55
808.6	41.92
808.8	41.70
809.0	41.73
809.2	42.01
809.4	41.71
809.6	42.39
809.8	42.05
810.0	40.93
810.2	39.91
810.4	38.93
810.6	39.92
810.8	40.90
811.0	39.84
811.2	39.76
811.4	39.76
811.6	39.02
811.8	39.25
812.0	38.33
812.2	37.37
812.4	36.79
812.6	37.49
812.8	37.58
813.0	36.92
813.2	37.12
813.4	36.50
813.6	35.63
813.8	36.22
814.0	35.66
814.2	35.68
814.4	35.61
814.6	35.88
814.8	35.06
815.0	35.80
815.2	36.14
815.4	37.20
815.6	35.75
815.8	36.29
816.0	36.43
816.2	36.31
816.4	36.31
816.6	36.56
816.8	34.71
817.0	33.97
817.2	33.60
817.4	31.94
817.6	30.65
817.8	30.52
818.0	31.36
818.2	32.99
818.4	33.78
818.6	33.61
818.8	32.40
819.0	30.85
819.2	30.69
819.4	31.84
819.6	32.30
819.8	32.97
820.0	32.56
820.2	31.62
820.4	31.39
820.6	31.32
820.8	30.68
821.0	30.80
821.2	30.32
821.4	29.00
821.6	28.53
821.8	28.27
822.0	28.06
822.2	28.66
822.4	29.66
822.6	28.60
822.8	28.36
823.0	29.03
823.2	28.36
823.4	27.39
823.6	27.43
823.8	25.98
824.0	25.60
824.2	26.10
824.4	25.66
824.6	25.18
824.8	26.34
825.0	26.91
825.2	27.03
825.4	27.36
825.6	26.66
825.8	25.30
826.0	24.71
826.2	24.78
826.4	24.22
826.6	24.37
826.8	24.22
827.0	23.67
827.2	23.38
827.4	23.48
827.6	22.90
827.8	22.37
828.0	21.74
828.2	21.00
828.4	21.09
828.6	21.46
828.8	21.81
829.0	22.07
829.2	21.48
829.4	20.45
829.6	20.29
829.8	20.13
830.0	20.35
830.2	21.76
830.4	21.65
830.6	21.40
830.8	20.29
831.0	19.12
831.2	18.32
831.4	18.64
831.6	18.67
831.8	19.37
832.0	18.86
832.2	18.53
832.4	18.72
832.6	18.04
832.8	18.79
833.0	19.26
833.2	19.22
833.4	18.21
833.6	17.76
833.8	16.56
834.0	17.45
834.2	17.56
834.4	17.49
834.6	16.74
834.8	16.67
835.0	16.92
835.2	17.15
835.4	16.51
835.6	16.20
835.8	15.52
836.0	15.14
836.2	15.66
836.4	15.38
836.6	15.08
836.8	15.26
837.0	15.15
837.2	14.48
837.4	14.33
837.6	14.47
837.8	14.61
838.0	14.41
838.2	14.66
838.4	13.69
838.6	13.73
