Sample:	'20211010A(EM)
File name:	r-NI-cds-CHO 1;15 580V.FDS
Run date:	'08:58:31, 03/22/2023
Operator:	Administrator
Comment:	'

Instrument
Model:	F-4700 FL Spectrophotometer
Serial number:	2019-001
ROM Version:	5J24010 00

Instrument parameters
Measurement type:	Wavelength scan
Scan mode:	Emission
Data mode:	Fluorescence
EX WL:	530.0 nm
EM  Start WL:	550.0 nm
EM  End WL:	900.0 nm
Scan speed:	1200 nm/min
Delay:	0.0 s
EX Slit:	10.0 nm
EM Slit:	10.0 nm
PMT Voltage:	580 V
Response:	0.002 s
Corrected spectra:	Off
Shutter control:	On

Processing performed
Savitsky-Golay smoothed
Smoothing order:	3
Number of points:	7
Number of times:	1

Peak integration
Integration method:	Rectangular
Sensitivity:	1
Threshold:	1.000

Peaks
No.	Start(nm)	Apex(nm)	End(nm)	Height(Data)	Valley(nm)	Valley(Data)
1	550.0	608.8	610.0	3337	610.0	3309
2	610.0	611.0	786.4	3334	786.4	23.52
3	786.4	787.8	789.0	24.56	789.0	22.61
4	789.0	789.6	796.6	23.85	796.6	18.63
5	796.6	797.6	801.4	19.70	801.4	17.89
6	801.4	802.0	809.6	18.90	809.6	14.07
7	809.6	811.4	900.0	15.08	900.0	1.545

Data points
nm	Data
550.0	371.0
550.2	373.1
550.4	376.4
550.6	380.9
550.8	386.7
551.0	394.4
551.2	402.7
551.4	406.2
551.6	408.3
551.8	414.0
552.0	420.4
552.2	429.3
552.4	437.8
552.6	442.6
552.8	448.4
553.0	455.2
553.2	462.9
553.4	470.9
553.6	476.9
553.8	482.4
554.0	486.4
554.2	491.7
554.4	497.6
554.6	505.5
554.8	511.5
555.0	521.1
555.2	527.8
555.4	534.1
555.6	542.0
555.8	552.7
556.0	560.1
556.2	570.1
556.4	576.7
556.6	580.3
556.8	585.5
557.0	594.6
557.2	602.6
557.4	613.3
557.6	622.9
557.8	627.8
558.0	634.1
558.2	641.7
558.4	649.1
558.6	659.9
558.8	671.0
559.0	680.1
559.2	688.5
559.4	693.9
559.6	700.9
559.8	709.7
560.0	717.7
560.2	727.5
560.4	741.6
560.6	756.2
560.8	771.4
561.0	777.9
561.2	784.0
561.4	787.4
561.6	794.5
561.8	805.9
562.0	817.4
562.2	824.8
562.4	838.8
562.6	847.0
562.8	856.9
563.0	871.3
563.2	884.7
563.4	894.3
563.6	905.9
563.8	914.4
564.0	925.9
564.2	939.1
564.4	950.7
564.6	959.6
564.8	970.3
565.0	980.6
565.2	986.7
565.4	996.8
565.6	1003
565.8	1014
566.0	1031
566.2	1047
566.4	1061
566.6	1076
566.8	1085
567.0	1095
567.2	1105
567.4	1117
567.6	1129
567.8	1141
568.0	1152
568.2	1167
568.4	1178
568.6	1193
568.8	1210
569.0	1221
569.2	1231
569.4	1244
569.6	1256
569.8	1270
570.0	1287
570.2	1296
570.4	1309
570.6	1322
570.8	1333
571.0	1349
571.2	1365
571.4	1375
571.6	1384
571.8	1394
572.0	1402
572.2	1416
572.4	1428
572.6	1444
572.8	1459
573.0	1479
573.2	1492
573.4	1506
573.6	1526
573.8	1544
574.0	1561
574.2	1578
574.4	1589
574.6	1602
574.8	1617
575.0	1632
575.2	1648
575.4	1657
575.6	1669
575.8	1682
576.0	1690
576.2	1706
576.4	1722
576.6	1737
576.8	1755
577.0	1774
577.2	1785
577.4	1795
577.6	1803
577.8	1823
578.0	1840
578.2	1858
578.4	1869
578.6	1877
578.8	1882
579.0	1902
579.2	1924
579.4	1944
579.6	1960
579.8	1971
580.0	1984
580.2	2002
580.4	2019
580.6	2035
580.8	2049
581.0	2061
581.2	2073
581.4	2082
581.6	2097
581.8	2115
582.0	2129
582.2	2148
582.4	2154
582.6	2163
582.8	2179
583.0	2205
583.2	2227
583.4	2248
583.6	2256
583.8	2268
584.0	2276
584.2	2297
584.4	2308
584.6	2318
584.8	2326
585.0	2333
585.2	2345
585.4	2366
585.6	2382
585.8	2401
586.0	2415
586.2	2424
586.4	2436
586.6	2449
586.8	2462
587.0	2478
587.2	2488
587.4	2500
587.6	2514
587.8	2534
588.0	2550
588.2	2563
588.4	2571
588.6	2580
588.8	2591
589.0	2609
589.2	2622
589.4	2630
589.6	2641
589.8	2650
590.0	2664
590.2	2681
590.4	2695
590.6	2711
590.8	2726
591.0	2729
591.2	2738
591.4	2751
591.6	2767
591.8	2783
592.0	2794
592.2	2802
592.4	2817
592.6	2839
592.8	2853
593.0	2863
593.2	2866
593.4	2875
593.6	2879
593.8	2887
594.0	2895
594.2	2909
594.4	2921
594.6	2935
594.8	2945
595.0	2954
595.2	2962
595.4	2966
595.6	2980
595.8	2983
596.0	2999
596.2	3012
596.4	3023
596.6	3035
596.8	3045
597.0	3049
597.2	3064
597.4	3073
597.6	3086
597.8	3093
598.0	3103
598.2	3107
598.4	3108
598.6	3114
598.8	3120
599.0	3121
599.2	3136
599.4	3135
599.6	3136
599.8	3145
600.0	3152
600.2	3163
600.4	3174
600.6	3182
600.8	3191
601.0	3195
601.2	3200
601.4	3202
601.6	3200
601.8	3205
602.0	3213
602.2	3228
602.4	3245
602.6	3254
602.8	3256
603.0	3259
603.2	3255
603.4	3254
603.6	3258
603.8	3260
604.0	3268
604.2	3274
604.4	3278
604.6	3281
604.8	3286
605.0	3289
605.2	3299
605.4	3297
605.6	3296
605.8	3294
606.0	3292
606.2	3299
606.4	3309
606.6	3314
606.8	3313
607.0	3316
607.2	3315
607.4	3321
607.6	3333
607.8	3334
608.0	3326
608.2	3326
608.4	3322
608.6	3325
608.8	3337
609.0	3336
609.2	3328
609.4	3324
609.6	3313
609.8	3312
610.0	3309
610.2	3316
610.4	3320
610.6	3328
610.8	3331
611.0	3334
611.2	3333
611.4	3327
611.6	3329
611.8	3327
612.0	3321
612.2	3321
612.4	3321
612.6	3316
612.8	3320
613.0	3316
613.2	3305
613.4	3308
613.6	3308
613.8	3308
614.0	3303
614.2	3296
614.4	3285
614.6	3285
614.8	3279
615.0	3281
615.2	3280
615.4	3283
615.6	3283
615.8	3283
616.0	3278
616.2	3279
616.4	3275
616.6	3267
616.8	3260
617.0	3249
617.2	3244
617.4	3239
617.6	3236
617.8	3228
618.0	3231
618.2	3232
618.4	3234
618.6	3227
618.8	3220
619.0	3205
619.2	3201
619.4	3195
619.6	3188
619.8	3181
620.0	3175
620.2	3164
620.4	3159
620.6	3150
620.8	3141
621.0	3136
621.2	3136
621.4	3138
621.6	3140
621.8	3135
622.0	3123
622.2	3113
622.4	3099
622.6	3095
622.8	3094
623.0	3089
623.2	3089
623.4	3085
623.6	3074
623.8	3068
624.0	3054
624.2	3042
624.4	3038
624.6	3032
624.8	3034
625.0	3028
625.2	3016
625.4	3000
625.6	2985
625.8	2974
626.0	2970
626.2	2968
626.4	2967
626.6	2961
626.8	2951
627.0	2945
627.2	2936
627.4	2925
627.6	2911
627.8	2894
628.0	2887
628.2	2885
628.4	2884
628.6	2874
628.8	2867
629.0	2852
629.2	2841
629.4	2832
629.6	2828
629.8	2820
630.0	2818
630.2	2806
630.4	2797
630.6	2790
630.8	2779
631.0	2769
631.2	2766
631.4	2754
631.6	2747
631.8	2736
632.0	2724
632.2	2708
632.4	2701
632.6	2690
632.8	2685
633.0	2682
633.2	2682
633.4	2667
633.6	2655
633.8	2643
634.0	2632
634.2	2625
634.4	2620
634.6	2609
634.8	2598
635.0	2589
635.2	2575
635.4	2571
635.6	2562
635.8	2555
636.0	2545
636.2	2538
636.4	2527
636.6	2516
636.8	2503
637.0	2492
637.2	2483
637.4	2474
637.6	2460
637.8	2447
638.0	2435
638.2	2424
638.4	2420
638.6	2414
638.8	2413
639.0	2412
639.2	2403
639.4	2392
639.6	2383
639.8	2372
640.0	2365
640.2	2355
640.4	2341
640.6	2327
640.8	2318
641.0	2309
641.2	2297
641.4	2285
641.6	2267
641.8	2256
642.0	2250
642.2	2247
642.4	2247
642.6	2244
642.8	2231
643.0	2219
643.2	2202
643.4	2192
643.6	2190
643.8	2183
644.0	2172
644.2	2158
644.4	2145
644.6	2138
644.8	2138
645.0	2130
645.2	2118
645.4	2106
645.6	2092
645.8	2076
646.0	2068
646.2	2058
646.4	2045
646.6	2042
646.8	2036
647.0	2025
647.2	2015
647.4	2005
647.6	1993
647.8	1990
648.0	1987
648.2	1977
648.4	1969
648.6	1958
648.8	1952
649.0	1942
649.2	1936
649.4	1921
649.6	1912
649.8	1903
650.0	1897
650.2	1888
650.4	1879
650.6	1864
650.8	1856
651.0	1848
651.2	1844
651.4	1840
651.6	1835
651.8	1828
652.0	1820
652.2	1809
652.4	1800
652.6	1785
652.8	1772
653.0	1765
653.2	1752
653.4	1739
653.6	1732
653.8	1724
654.0	1720
654.2	1716
654.4	1708
654.6	1697
654.8	1688
655.0	1680
655.2	1672
655.4	1658
655.6	1649
655.8	1640
656.0	1635
656.2	1629
656.4	1623
656.6	1615
656.8	1607
657.0	1594
657.2	1579
657.4	1571
657.6	1565
657.8	1563
658.0	1558
658.2	1549
658.4	1540
658.6	1534
658.8	1528
659.0	1526
659.2	1514
659.4	1504
659.6	1496
659.8	1483
660.0	1475
660.2	1468
660.4	1460
660.6	1450
660.8	1443
661.0	1437
661.2	1432
661.4	1428
661.6	1422
661.8	1412
662.0	1402
662.2	1391
662.4	1386
662.6	1381
662.8	1373
663.0	1365
663.2	1356
663.4	1344
663.6	1338
663.8	1330
664.0	1325
664.2	1317
664.4	1311
664.6	1304
664.8	1294
665.0	1284
665.2	1281
665.4	1276
665.6	1271
665.8	1266
666.0	1258
666.2	1248
666.4	1244
666.6	1239
666.8	1238
667.0	1236
667.2	1229
667.4	1219
667.6	1210
667.8	1200
668.0	1191
668.2	1182
668.4	1173
668.6	1165
668.8	1159
669.0	1160
669.2	1153
669.4	1146
669.6	1139
669.8	1130
670.0	1122
670.2	1121
670.4	1115
670.6	1110
670.8	1102
671.0	1092
671.2	1084
671.4	1081
671.6	1076
671.8	1071
672.0	1064
672.2	1055
672.4	1051
672.6	1047
672.8	1042
673.0	1038
673.2	1031
673.4	1022
673.6	1016
673.8	1012
674.0	1006
674.2	999.5
674.4	996.6
674.6	991.3
674.8	988.5
675.0	985.5
675.2	979.2
675.4	970.3
675.6	962.2
675.8	950.8
676.0	944.0
676.2	937.0
676.4	934.7
676.6	932.8
676.8	926.5
677.0	920.8
677.2	913.3
677.4	900.5
677.6	894.8
677.8	893.4
678.0	891.0
678.2	888.9
678.4	884.9
678.6	875.9
678.8	870.6
679.0	869.5
679.2	867.7
679.4	862.4
679.6	856.1
679.8	850.0
680.0	841.2
680.2	838.2
680.4	833.3
680.6	828.4
680.8	822.1
681.0	816.5
681.2	809.8
681.4	804.7
681.6	798.1
681.8	790.8
682.0	789.8
682.2	786.3
682.4	780.3
682.6	773.3
682.8	766.4
683.0	758.6
683.2	758.7
683.4	761.1
683.6	758.1
683.8	753.2
684.0	747.3
684.2	741.1
684.4	735.0
684.6	730.7
684.8	723.6
685.0	718.3
685.2	716.6
685.4	716.8
685.6	714.3
685.8	707.7
686.0	699.7
686.2	690.6
686.4	684.4
686.6	682.4
686.8	679.6
687.0	679.0
687.2	676.1
687.4	669.1
687.6	664.6
687.8	661.2
688.0	656.0
688.2	653.5
688.4	648.6
688.6	642.8
688.8	640.2
689.0	638.4
689.2	633.6
689.4	630.8
689.6	627.5
689.8	626.1
690.0	623.5
690.2	617.1
690.4	608.7
690.6	602.5
690.8	597.9
691.0	597.9
691.2	597.0
691.4	592.0
691.6	587.5
691.8	584.1
692.0	580.7
692.2	578.0
692.4	575.2
692.6	568.9
692.8	564.8
693.0	560.7
693.2	556.5
693.4	552.4
693.6	549.7
693.8	548.2
694.0	547.8
694.2	546.3
694.4	544.5
694.6	540.3
694.8	536.8
695.0	533.1
695.2	529.2
695.4	527.1
695.6	527.2
695.8	526.0
696.0	525.4
696.2	521.8
696.4	518.5
696.6	514.0
696.8	507.5
697.0	501.0
697.2	498.1
697.4	494.8
697.6	494.6
697.8	492.6
698.0	490.0
698.2	487.3
698.4	484.2
698.6	482.5
698.8	481.0
699.0	477.8
699.2	474.1
699.4	468.8
699.6	464.5
699.8	466.3
700.0	464.6
700.2	462.5
700.4	459.5
700.6	457.6
700.8	454.7
701.0	453.1
701.2	448.9
701.4	447.0
701.6	444.6
701.8	442.8
702.0	438.0
702.2	433.0
702.4	429.3
702.6	428.8
702.8	427.2
703.0	427.1
703.2	424.5
703.4	421.0
703.6	417.7
703.8	414.9
704.0	413.7
704.2	413.9
704.4	412.3
704.6	411.0
704.8	407.8
705.0	403.6
705.2	399.9
705.4	397.0
705.6	394.9
705.8	394.5
706.0	393.3
706.2	391.1
706.4	386.1
706.6	383.0
706.8	381.6
707.0	381.9
707.2	379.9
707.4	378.2
707.6	374.2
707.8	372.5
708.0	371.8
708.2	370.1
708.4	366.1
708.6	364.3
708.8	361.8
709.0	359.7
709.2	358.3
709.4	355.3
709.6	353.8
709.8	353.0
710.0	349.2
710.2	346.0
710.4	341.5
710.6	336.4
710.8	333.6
711.0	331.5
711.2	329.0
711.4	329.9
711.6	328.5
711.8	327.5
712.0	326.0
712.2	324.6
712.4	322.2
712.6	321.3
712.8	318.6
713.0	312.8
713.2	308.3
713.4	308.0
713.6	308.3
713.8	309.4
714.0	309.4
714.2	306.0
714.4	302.3
714.6	300.7
714.8	298.6
715.0	295.3
715.2	294.2
715.4	293.7
715.6	292.3
715.8	289.1
716.0	285.4
716.2	281.0
716.4	278.8
716.6	278.5
716.8	278.0
717.0	276.6
717.2	275.5
717.4	274.2
717.6	270.5
717.8	268.5
718.0	267.5
718.2	266.0
718.4	264.9
718.6	264.1
718.8	259.9
719.0	255.9
719.2	255.4
719.4	252.2
719.6	251.6
719.8	249.9
720.0	246.3
720.2	245.1
720.4	243.6
720.6	242.7
720.8	243.4
721.0	243.1
721.2	241.8
721.4	240.3
721.6	236.9
721.8	236.0
722.0	232.3
722.2	231.4
722.4	229.8
722.6	226.3
722.8	225.5
723.0	225.3
723.2	223.3
723.4	224.3
723.6	224.2
723.8	222.7
724.0	220.3
724.2	216.2
724.4	212.3
724.6	210.8
724.8	208.8
725.0	208.8
725.2	207.1
725.4	205.3
725.6	203.0
725.8	201.3
726.0	200.4
726.2	200.8
726.4	199.9
726.6	198.7
726.8	195.8
727.0	191.8
727.2	190.5
727.4	189.4
727.6	190.0
727.8	188.4
728.0	188.0
728.2	186.0
728.4	183.3
728.6	182.4
728.8	181.6
729.0	179.4
729.2	178.3
729.4	175.6
729.6	173.9
729.8	174.5
730.0	173.5
730.2	172.9
730.4	171.5
730.6	170.2
730.8	171.2
731.0	169.1
731.2	165.6
731.4	163.6
731.6	163.3
731.8	163.6
732.0	165.2
732.2	162.6
732.4	159.6
732.6	158.1
732.8	156.9
733.0	155.5
733.2	156.8
733.4	154.7
733.6	152.5
733.8	151.2
734.0	150.2
734.2	148.9
734.4	147.6
734.6	143.4
734.8	141.8
735.0	140.6
735.2	141.9
735.4	141.8
735.6	140.9
735.8	139.4
736.0	138.9
736.2	137.0
736.4	136.7
736.6	136.5
736.8	135.5
737.0	133.5
737.2	132.1
737.4	130.7
737.6	129.8
737.8	129.6
738.0	130.1
738.2	128.2
738.4	128.0
738.6	126.9
738.8	123.6
739.0	120.7
739.2	120.8
739.4	119.4
739.6	120.1
739.8	120.2
740.0	119.6
740.2	119.1
740.4	118.2
740.6	117.7
740.8	116.6
741.0	114.5
741.2	113.5
741.4	113.0
741.6	112.1
741.8	111.2
742.0	110.4
742.2	109.4
742.4	109.1
742.6	109.0
742.8	109.1
743.0	107.2
743.2	106.0
743.4	104.1
743.6	103.3
743.8	103.9
744.0	104.7
744.2	104.5
744.4	103.8
744.6	101.5
744.8	99.98
745.0	99.87
745.2	98.59
745.4	98.09
745.6	98.29
745.8	97.48
746.0	96.47
746.2	96.51
746.4	95.80
746.6	96.49
746.8	96.82
747.0	94.81
747.2	93.42
747.4	91.79
747.6	91.31
747.8	91.91
748.0	92.00
748.2	90.77
748.4	89.67
748.6	88.27
748.8	87.97
749.0	87.85
749.2	86.51
749.4	86.18
749.6	84.40
749.8	83.96
750.0	84.46
750.2	84.61
750.4	83.46
750.6	83.18
750.8	81.98
751.0	81.38
751.2	81.11
751.4	80.25
751.6	79.12
751.8	78.68
752.0	78.39
752.2	77.62
752.4	77.06
752.6	77.19
752.8	76.45
753.0	77.43
753.2	76.99
753.4	76.13
753.6	75.32
753.8	74.12
754.0	72.33
754.2	73.49
754.4	73.52
754.6	72.90
754.8	72.24
755.0	70.63
755.2	70.60
755.4	70.95
755.6	70.34
755.8	69.34
756.0	68.06
756.2	67.35
756.4	67.49
756.6	67.12
756.8	67.11
757.0	66.88
757.2	66.59
757.4	65.87
757.6	64.34
757.8	63.92
758.0	63.77
758.2	63.65
758.4	63.19
758.6	62.14
758.8	60.87
759.0	60.61
759.2	60.38
759.4	60.83
759.6	60.06
759.8	60.23
760.0	59.74
760.2	58.92
760.4	57.95
760.6	57.81
760.8	57.46
761.0	57.74
761.2	57.03
761.4	56.38
761.6	56.37
761.8	56.40
762.0	56.32
762.2	55.63
762.4	54.10
762.6	52.65
762.8	52.08
763.0	51.43
763.2	52.19
763.4	52.61
763.6	52.46
763.8	51.89
764.0	50.85
764.2	50.26
764.4	50.12
764.6	50.28
764.8	50.78
765.0	50.16
765.2	48.89
765.4	48.57
765.6	47.36
765.8	47.07
766.0	47.39
766.2	46.53
766.4	46.52
766.6	46.96
766.8	46.17
767.0	45.99
767.2	46.77
767.4	46.92
767.6	46.64
767.8	45.48
768.0	43.33
768.2	42.59
768.4	43.19
768.6	42.69
768.8	42.16
769.0	41.72
769.2	41.67
769.4	41.92
769.6	42.03
769.8	41.22
770.0	40.87
770.2	40.62
770.4	40.44
770.6	40.58
770.8	40.49
771.0	40.34
771.2	40.50
771.4	40.46
771.6	39.77
771.8	39.67
772.0	38.62
772.2	37.58
772.4	37.53
772.6	38.22
772.8	38.59
773.0	38.45
773.2	37.27
773.4	35.94
773.6	35.57
773.8	35.31
774.0	35.42
774.2	34.86
774.4	34.75
774.6	35.41
774.8	35.96
775.0	35.01
775.2	34.72
775.4	33.38
775.6	33.41
775.8	33.99
776.0	34.05
776.2	33.45
776.4	33.35
776.6	32.63
776.8	32.50
777.0	32.81
777.2	32.78
777.4	32.86
777.6	32.97
777.8	31.89
778.0	31.20
778.2	31.33
778.4	31.03
778.6	31.46
778.8	32.15
779.0	31.85
779.2	31.53
779.4	31.20
779.6	30.21
779.8	29.86
780.0	29.87
780.2	29.54
780.4	29.53
780.6	29.50
780.8	29.23
781.0	29.24
781.2	29.00
781.4	28.24
781.6	27.95
781.8	27.61
782.0	27.33
782.2	27.21
782.4	26.81
782.6	26.77
782.8	26.87
783.0	27.02
783.2	27.10
783.4	27.23
783.6	26.97
783.8	26.68
784.0	26.87
784.2	26.59
784.4	26.26
784.6	25.55
784.8	25.85
785.0	25.31
785.2	25.67
785.4	25.82
785.6	25.18
785.8	24.58
786.0	24.42
786.2	23.68
786.4	23.52
786.6	23.84
786.8	23.81
787.0	23.97
787.2	24.30
787.4	24.42
787.6	24.37
787.8	24.56
788.0	24.32
788.2	24.01
788.4	24.46
788.6	23.83
788.8	23.23
789.0	22.61
789.2	22.76
789.4	23.10
789.6	23.85
789.8	23.84
790.0	23.32
790.2	22.63
790.4	22.36
790.6	21.73
790.8	21.86
791.0	22.31
791.2	22.44
791.4	22.59
791.6	22.34
791.8	21.71
792.0	21.11
792.2	21.07
792.4	21.27
792.6	21.63
792.8	21.72
793.0	21.65
793.2	21.13
793.4	21.17
793.6	21.58
793.8	21.59
794.0	21.58
794.2	21.64
794.4	20.98
794.6	21.28
794.8	20.89
795.0	20.63
795.2	20.56
795.4	20.81
795.6	20.68
795.8	21.17
796.0	20.17
796.2	19.67
796.4	18.69
796.6	18.63
796.8	18.89
797.0	19.26
797.2	19.39
797.4	19.67
797.6	19.70
797.8	19.67
798.0	19.62
798.2	19.28
798.4	18.95
798.6	19.09
798.8	19.45
799.0	19.56
799.2	19.50
799.4	19.55
799.6	18.87
799.8	19.04
800.0	18.90
800.2	18.70
800.4	18.22
800.6	18.22
800.8	18.30
801.0	18.42
801.2	18.16
801.4	17.89
801.6	18.26
801.8	18.33
802.0	18.90
802.2	18.77
802.4	18.24
802.6	17.66
802.8	17.77
803.0	17.43
803.2	17.41
803.4	17.79
803.6	17.49
803.8	17.22
804.0	16.77
804.2	16.85
804.4	17.25
804.6	18.05
804.8	17.54
805.0	17.21
805.2	16.50
805.4	16.39
805.6	16.44
805.8	16.79
806.0	16.55
806.2	16.79
806.4	16.99
806.6	17.01
806.8	16.76
807.0	16.75
807.2	16.24
807.4	16.14
807.6	16.57
807.8	16.16
808.0	15.81
808.2	15.43
808.4	14.63
808.6	14.81
808.8	15.50
809.0	15.00
809.2	14.29
809.4	14.09
809.6	14.07
809.8	14.81
810.0	15.34
810.2	15.07
810.4	14.58
810.6	14.10
810.8	14.26
811.0	14.87
811.2	14.82
811.4	15.08
811.6	14.91
811.8	14.26
812.0	14.11
812.2	14.07
812.4	13.87
812.6	14.14
812.8	13.89
813.0	14.08
813.2	13.96
813.4	14.19
813.6	14.15
813.8	14.17
814.0	13.57
814.2	13.50
814.4	13.49
814.6	13.86
814.8	13.80
815.0	13.81
815.2	13.45
815.4	13.46
815.6	13.56
815.8	13.50
816.0	13.30
816.2	12.90
816.4	12.52
816.6	12.25
816.8	12.10
817.0	12.28
817.2	12.34
817.4	12.40
817.6	12.33
817.8	12.06
818.0	12.15
818.2	12.40
818.4	12.36
818.6	12.47
818.8	12.22
819.0	12.05
819.2	11.88
819.4	11.77
819.6	11.33
819.8	11.20
820.0	11.07
820.2	11.07
820.4	10.86
820.6	10.96
820.8	10.92
821.0	11.39
821.2	11.49
821.4	11.42
821.6	11.32
821.8	11.17
822.0	10.78
822.2	10.87
822.4	10.46
822.6	10.65
822.8	10.72
823.0	10.42
823.2	9.742
823.4	9.521
823.6	9.373
823.8	9.662
824.0	10.04
824.2	10.12
824.4	10.01
824.6	9.756
824.8	9.322
825.0	8.912
825.2	8.938
825.4	9.044
825.6	9.271
825.8	9.388
826.0	9.267
826.2	9.093
826.4	8.857
826.6	9.078
826.8	8.956
827.0	8.765
827.2	8.432
827.4	8.170
827.6	8.221
827.8	8.478
828.0	8.507
828.2	8.498
828.4	8.361
828.6	8.160
828.8	8.211
829.0	8.274
829.2	8.215
829.4	7.892
829.6	8.071
829.8	7.742
830.0	8.013
830.2	7.875
830.4	7.437
830.6	7.289
830.8	7.375
831.0	7.284
831.2	7.830
831.4	7.662
831.6	7.522
831.8	7.540
832.0	7.245
832.2	6.930
832.4	6.636
832.6	6.769
832.8	6.843
833.0	6.972
833.2	7.283
833.4	7.062
833.6	6.573
833.8	6.374
834.0	6.314
834.2	6.000
834.4	6.065
834.6	6.026
834.8	5.953
835.0	5.740
835.2	5.888
835.4	5.907
835.6	6.027
835.8	6.263
836.0	6.205
836.2	5.882
836.4	5.749
836.6	5.687
836.8	5.586
837.0	5.721
837.2	5.679
837.4	5.646
837.6	5.528
837.8	5.283
838.0	5.235
838.2	5.190
838.4	5.232
838.6	5.274
838.8	5.199
839.0	5.371
839.2	5.506
839.4	5.293
839.6	5.091
839.8	4.806
840.0	4.662
840.2	4.742
840.4	4.713
840.6	4.507
840.8	4.276
841.0	4.010
841.2	3.859
841.4	3.958
841.6	4.139
841.8	4.323
842.0	4.425
842.2	4.370
842.4	4.056
842.6	3.992
842.8	3.926
843.0	3.872
843.2	3.757
843.4	3.868
843.6	3.928
843.8	3.996
844.0	4.040
844.2	3.941
844.4	3.707
844.6	3.536
844.8	3.659
845.0	3.652
845.2	3.678
845.4	3.753
845.6	3.840
845.8	3.649
846.0	3.687
846.2	3.403
846.4	3.049
846.6	2.849
846.8	2.820
847.0	2.886
847.2	3.127
847.4	3.222
847.6	3.228
847.8	3.302
848.0	3.411
848.2	3.202
848.4	3.077
