Sample:	'20211010A(EM)
File name:	r-NI-cds-CHO 1;5 580V.FDS
Run date:	'08:55:47, 03/22/2023
Operator:	Administrator
Comment:	'

Instrument
Model:	F-4700 FL Spectrophotometer
Serial number:	2019-001
ROM Version:	5J24010 00

Instrument parameters
Measurement type:	Wavelength scan
Scan mode:	Emission
Data mode:	Fluorescence
EX WL:	530.0 nm
EM  Start WL:	550.0 nm
EM  End WL:	900.0 nm
Scan speed:	1200 nm/min
Delay:	0.0 s
EX Slit:	10.0 nm
EM Slit:	10.0 nm
PMT Voltage:	580 V
Response:	0.002 s
Corrected spectra:	Off
Shutter control:	On

Processing performed
Savitsky-Golay smoothed
Smoothing order:	3
Number of points:	7
Number of times:	1

Peak integration
Integration method:	Rectangular
Sensitivity:	1
Threshold:	1.000

Peaks
No.	Start(nm)	Apex(nm)	End(nm)	Height(Data)	Valley(nm)	Valley(Data)
1	550.0	614.6	798.0	7984	798.0	54.34
2	798.0	799.0	801.2	56.85	801.2	50.45
3	801.2	801.6	900.0	52.10	900.0	2.288

Data points
nm	Data
550.0	674.2
550.2	682.3
550.4	692.4
550.6	703.6
550.8	713.5
551.0	725.9
551.2	737.4
551.4	746.1
551.6	754.4
551.8	766.8
552.0	775.8
552.2	788.7
552.4	801.8
552.6	817.7
552.8	831.1
553.0	847.9
553.2	860.5
553.4	869.9
553.6	879.4
553.8	890.6
554.0	899.8
554.2	915.9
554.4	928.3
554.6	940.3
554.8	955.9
555.0	972.4
555.2	987.5
555.4	1006
555.6	1017
555.8	1026
556.0	1039
556.2	1054
556.4	1071
556.6	1091
556.8	1106
557.0	1121
557.2	1137
557.4	1149
557.6	1165
557.8	1184
558.0	1199
558.2	1215
558.4	1232
558.6	1249
558.8	1268
559.0	1288
559.2	1301
559.4	1316
559.6	1332
559.8	1353
560.0	1377
560.2	1401
560.4	1420
560.6	1436
560.8	1451
561.0	1471
561.2	1490
561.4	1510
561.6	1526
561.8	1543
562.0	1566
562.2	1585
562.4	1611
562.6	1628
562.8	1647
563.0	1668
563.2	1692
563.4	1711
563.6	1736
563.8	1760
564.0	1783
564.2	1806
564.4	1828
564.6	1852
564.8	1874
565.0	1901
565.2	1927
565.4	1951
565.6	1972
565.8	1995
566.0	2011
566.2	2036
566.4	2061
566.6	2084
566.8	2110
567.0	2133
567.2	2157
567.4	2188
567.6	2218
567.8	2245
568.0	2271
568.2	2291
568.4	2321
568.6	2351
568.8	2378
569.0	2403
569.2	2431
569.4	2456
569.6	2490
569.8	2520
570.0	2553
570.2	2577
570.4	2601
570.6	2623
570.8	2654
571.0	2685
571.2	2722
571.4	2751
571.6	2767
571.8	2791
572.0	2819
572.2	2847
572.4	2881
572.6	2914
572.8	2943
573.0	2981
573.2	3012
573.4	3047
573.6	3076
573.8	3106
574.0	3130
574.2	3165
574.4	3192
574.6	3228
574.8	3264
575.0	3297
575.2	3322
575.4	3361
575.6	3390
575.8	3421
576.0	3450
576.2	3476
576.4	3494
576.6	3521
576.8	3563
577.0	3605
577.2	3645
577.4	3684
577.6	3706
577.8	3735
578.0	3771
578.2	3806
578.4	3844
578.6	3878
578.8	3911
579.0	3941
579.2	3971
579.4	4011
579.6	4044
579.8	4074
580.0	4106
580.2	4130
580.4	4167
580.6	4209
580.8	4248
581.0	4280
581.2	4311
581.4	4347
581.6	4383
581.8	4416
582.0	4453
582.2	4479
582.4	4507
582.6	4541
582.8	4581
583.0	4620
583.2	4652
583.4	4684
583.6	4711
583.8	4744
584.0	4785
584.2	4816
584.4	4845
584.6	4881
584.8	4924
585.0	4968
585.2	5011
585.4	5036
585.6	5069
585.8	5091
586.0	5128
586.2	5160
586.4	5202
586.6	5232
586.8	5273
587.0	5298
587.2	5332
587.4	5365
587.6	5402
587.8	5431
588.0	5473
588.2	5502
588.4	5529
588.6	5557
588.8	5585
589.0	5621
589.2	5662
589.4	5705
589.6	5738
589.8	5762
590.0	5785
590.2	5814
590.4	5848
590.6	5881
590.8	5928
591.0	5982
591.2	6016
591.4	6043
591.6	6062
591.8	6069
592.0	6107
592.2	6159
592.4	6196
592.6	6226
592.8	6242
593.0	6256
593.2	6283
593.4	6318
593.6	6356
593.8	6379
594.0	6406
594.2	6432
594.4	6469
594.6	6507
594.8	6551
595.0	6585
595.2	6615
595.4	6636
595.6	6653
595.8	6667
596.0	6699
596.2	6723
596.4	6747
596.6	6779
596.8	6809
597.0	6839
597.2	6872
597.4	6890
597.6	6908
597.8	6931
598.0	6959
598.2	6982
598.4	6998
598.6	7027
598.8	7058
599.0	7084
599.2	7110
599.4	7125
599.6	7134
599.8	7162
600.0	7194
600.2	7222
600.4	7247
600.6	7257
600.8	7272
601.0	7291
601.2	7313
601.4	7336
601.6	7354
601.8	7364
602.0	7385
602.2	7397
602.4	7427
602.6	7462
602.8	7481
603.0	7484
603.2	7487
603.4	7488
603.6	7506
603.8	7531
604.0	7554
604.2	7583
604.4	7603
604.6	7628
604.8	7638
605.0	7657
605.2	7674
605.4	7692
605.6	7690
605.8	7698
606.0	7710
606.2	7727
606.4	7742
606.6	7750
606.8	7755
607.0	7761
607.2	7775
607.4	7783
607.6	7802
607.8	7822
608.0	7847
608.2	7849
608.4	7852
608.6	7850
608.8	7857
609.0	7866
609.2	7875
609.4	7881
609.6	7895
609.8	7904
610.0	7910
610.2	7916
610.4	7925
610.6	7928
610.8	7936
611.0	7938
611.2	7931
611.4	7942
611.6	7946
611.8	7948
612.0	7957
612.2	7961
612.4	7955
612.6	7965
612.8	7950
613.0	7951
613.2	7965
613.4	7966
613.6	7962
613.8	7968
614.0	7965
614.2	7975
614.4	7983
614.6	7984
614.8	7978
615.0	7984
615.2	7981
615.4	7983
615.6	7971
615.8	7960
616.0	7949
616.2	7950
616.4	7940
616.6	7941
616.8	7932
617.0	7931
617.2	7928
617.4	7920
617.6	7918
617.8	7909
618.0	7902
618.2	7902
618.4	7897
618.6	7895
618.8	7898
619.0	7893
619.2	7884
619.4	7871
619.6	7861
619.8	7859
620.0	7848
620.2	7840
620.4	7818
620.6	7811
620.8	7804
621.0	7802
621.2	7799
621.4	7786
621.6	7769
621.8	7751
622.0	7739
622.2	7728
622.4	7726
622.6	7708
622.8	7690
623.0	7669
623.2	7662
623.4	7660
623.6	7670
623.8	7662
624.0	7642
624.2	7632
624.4	7621
624.6	7610
624.8	7599
625.0	7570
625.2	7539
625.4	7519
625.6	7501
625.8	7489
626.0	7483
626.2	7472
626.4	7454
626.6	7432
626.8	7400
627.0	7375
627.2	7365
627.4	7355
627.6	7347
627.8	7347
628.0	7331
628.2	7314
628.4	7300
628.6	7269
628.8	7244
629.0	7231
629.2	7208
629.4	7191
629.6	7181
629.8	7157
630.0	7138
630.2	7121
630.4	7114
630.6	7096
630.8	7080
631.0	7059
631.2	7033
631.4	7009
631.6	7007
631.8	6986
632.0	6960
632.2	6935
632.4	6907
632.6	6891
632.8	6886
633.0	6871
633.2	6847
633.4	6836
633.6	6814
633.8	6784
634.0	6762
634.2	6731
634.4	6688
634.6	6681
634.8	6661
635.0	6640
635.2	6636
635.4	6621
635.6	6596
635.8	6580
636.0	6558
636.2	6544
636.4	6527
636.6	6504
636.8	6485
637.0	6453
637.2	6434
637.4	6424
637.6	6411
637.8	6390
638.0	6365
638.2	6332
638.4	6302
638.6	6283
638.8	6267
639.0	6241
639.2	6211
639.4	6181
639.6	6154
639.8	6136
640.0	6118
640.2	6102
640.4	6084
640.6	6069
640.8	6048
641.0	6023
641.2	5987
641.4	5968
641.6	5946
641.8	5928
642.0	5902
642.2	5878
642.4	5849
642.6	5838
642.8	5821
643.0	5790
643.2	5771
643.4	5755
643.6	5724
643.8	5701
644.0	5672
644.2	5640
644.4	5620
644.6	5601
644.8	5578
645.0	5564
645.2	5547
645.4	5534
645.6	5511
645.8	5480
646.0	5458
646.2	5433
646.4	5407
646.6	5388
646.8	5360
647.0	5339
647.2	5320
647.4	5294
647.6	5274
647.8	5252
648.0	5229
648.2	5209
648.4	5189
648.6	5157
648.8	5140
649.0	5109
649.2	5101
649.4	5080
649.6	5062
649.8	5034
650.0	5010
650.2	4981
650.4	4974
650.6	4950
650.8	4926
651.0	4903
651.2	4873
651.4	4851
651.6	4830
651.8	4811
652.0	4793
652.2	4781
652.4	4763
652.6	4745
652.8	4720
653.0	4690
653.2	4658
653.4	4631
653.6	4609
653.8	4597
654.0	4577
654.2	4561
654.4	4540
654.6	4514
654.8	4495
655.0	4478
655.2	4453
655.4	4435
655.6	4412
655.8	4389
656.0	4366
656.2	4349
656.4	4331
656.6	4309
656.8	4284
657.0	4264
657.2	4242
657.4	4227
657.6	4214
657.8	4199
658.0	4178
658.2	4158
658.4	4133
658.6	4109
658.8	4095
659.0	4084
659.2	4067
659.4	4049
659.6	4027
659.8	3998
660.0	3972
660.2	3949
660.4	3921
660.6	3899
660.8	3882
661.0	3866
661.2	3847
661.4	3832
661.6	3816
661.8	3799
662.0	3784
662.2	3760
662.4	3732
662.6	3706
662.8	3686
663.0	3664
663.2	3651
663.4	3634
663.6	3622
663.8	3612
664.0	3596
664.2	3576
664.4	3557
664.6	3540
664.8	3515
665.0	3488
665.2	3465
665.4	3451
665.6	3445
665.8	3444
666.0	3423
666.2	3399
666.4	3373
666.6	3358
666.8	3346
667.0	3332
667.2	3310
667.4	3287
667.6	3264
667.8	3251
668.0	3237
668.2	3221
668.4	3203
668.6	3177
668.8	3167
669.0	3151
669.2	3134
669.4	3124
669.6	3101
669.8	3080
670.0	3064
670.2	3040
670.4	3020
670.6	3010
670.8	2994
671.0	2989
671.2	2971
671.4	2951
671.6	2932
671.8	2914
672.0	2897
672.2	2877
672.4	2847
672.6	2827
672.8	2818
673.0	2807
673.2	2802
673.4	2793
673.6	2769
673.8	2750
674.0	2736
674.2	2721
674.4	2714
674.6	2706
674.8	2693
675.0	2672
675.2	2648
675.4	2622
675.6	2607
675.8	2597
676.0	2586
676.2	2575
676.4	2565
676.6	2547
676.8	2534
677.0	2519
677.2	2500
677.4	2488
677.6	2479
677.8	2468
678.0	2455
678.2	2439
678.4	2431
678.6	2417
678.8	2400
679.0	2382
679.2	2361
679.4	2348
679.6	2338
679.8	2324
680.0	2312
680.2	2300
680.4	2288
680.6	2283
680.8	2271
681.0	2250
681.2	2235
681.4	2223
681.6	2212
681.8	2203
682.0	2194
682.2	2173
682.4	2158
682.6	2146
682.8	2130
683.0	2117
683.2	2106
683.4	2093
683.6	2077
683.8	2064
684.0	2050
684.2	2036
684.4	2022
684.6	2018
684.8	2007
685.0	1998
685.2	1988
685.4	1969
685.6	1954
685.8	1944
686.0	1933
686.2	1925
686.4	1920
686.6	1904
686.8	1895
687.0	1884
687.2	1872
687.4	1859
687.6	1848
687.8	1830
688.0	1816
688.2	1803
688.4	1793
688.6	1785
688.8	1782
689.0	1775
689.2	1767
689.4	1759
689.6	1750
689.8	1741
690.0	1733
690.2	1720
690.4	1706
690.6	1695
690.8	1681
691.0	1667
691.2	1660
691.4	1651
691.6	1648
691.8	1640
692.0	1632
692.2	1617
692.4	1607
692.6	1597
692.8	1595
693.0	1586
693.2	1580
693.4	1570
693.6	1557
693.8	1548
694.0	1542
694.2	1531
694.4	1521
694.6	1511
694.8	1499
695.0	1489
695.2	1481
695.4	1478
695.6	1474
695.8	1469
696.0	1460
696.2	1447
696.4	1432
696.6	1427
696.8	1419
697.0	1413
697.2	1410
697.4	1402
697.6	1391
697.8	1387
698.0	1375
698.2	1369
698.4	1360
698.6	1354
698.8	1344
699.0	1337
699.2	1331
699.4	1326
699.6	1315
699.8	1310
700.0	1299
700.2	1292
700.4	1290
700.6	1286
700.8	1277
701.0	1270
701.2	1263
701.4	1257
701.6	1251
701.8	1247
702.0	1236
702.2	1225
702.4	1221
702.6	1217
702.8	1209
703.0	1202
703.2	1194
703.4	1189
703.6	1187
703.8	1184
704.0	1175
704.2	1162
704.4	1155
704.6	1152
704.8	1147
705.0	1142
705.2	1138
705.4	1129
705.6	1122
705.8	1115
706.0	1107
706.2	1097
706.4	1089
706.6	1082
706.8	1078
707.0	1073
707.2	1071
707.4	1065
707.6	1056
707.8	1050
708.0	1042
708.2	1036
708.4	1034
708.6	1026
708.8	1023
709.0	1019
709.2	1010
709.4	1000
709.6	996.0
709.8	983.9
710.0	985.5
710.2	981.6
710.4	973.9
710.6	965.7
710.8	962.3
711.0	952.8
711.2	949.4
711.4	941.9
711.6	933.6
711.8	927.3
712.0	926.3
712.2	926.4
712.4	923.0
712.6	916.5
712.8	908.2
713.0	897.2
713.2	891.7
713.4	888.3
713.6	883.9
713.8	880.0
714.0	876.7
714.2	869.1
714.4	863.1
714.6	853.2
714.8	849.0
715.0	845.5
715.2	841.0
715.4	836.5
715.6	829.2
715.8	819.1
716.0	814.0
716.2	814.0
716.4	811.8
716.6	807.1
716.8	799.7
717.0	792.1
717.2	786.3
717.4	783.5
717.6	778.8
717.8	772.9
718.0	770.6
718.2	763.4
718.4	755.8
718.6	748.5
718.8	741.3
719.0	734.8
719.2	730.1
719.4	724.8
719.6	721.9
719.8	719.1
720.0	716.7
720.2	711.8
720.4	706.0
720.6	701.1
720.8	697.5
721.0	690.2
721.2	682.7
721.4	678.4
721.6	674.4
721.8	671.6
722.0	670.3
722.2	664.5
722.4	657.4
722.6	653.7
722.8	648.4
723.0	646.1
723.2	639.9
723.4	633.8
723.6	627.8
723.8	622.9
724.0	622.2
724.2	618.7
724.4	613.4
724.6	609.7
724.8	603.3
725.0	598.0
725.2	596.6
725.4	590.8
725.6	586.8
725.8	582.6
726.0	574.7
726.2	568.1
726.4	561.7
726.6	557.5
726.8	554.5
727.0	551.6
727.2	548.0
727.4	547.5
727.6	543.5
727.8	543.0
728.0	539.9
728.2	533.5
728.4	528.0
728.6	522.6
728.8	516.1
729.0	514.2
729.2	512.8
729.4	509.3
729.6	506.9
729.8	501.7
730.0	497.6
730.2	493.9
730.4	492.1
730.6	488.6
730.8	485.5
731.0	483.0
731.2	479.1
731.4	476.1
731.6	474.4
731.8	471.6
732.0	467.2
732.2	464.0
732.4	459.1
732.6	454.2
732.8	452.0
733.0	449.9
733.2	446.6
733.4	442.6
733.6	440.1
733.8	436.4
734.0	433.6
734.2	429.4
734.4	425.9
734.6	422.0
734.8	418.4
735.0	413.2
735.2	408.8
735.4	405.1
735.6	403.8
735.8	404.9
736.0	406.1
736.2	405.9
736.4	401.2
736.6	395.5
736.8	389.2
737.0	384.7
737.2	384.1
737.4	385.1
737.6	380.9
737.8	375.9
738.0	371.7
738.2	368.4
738.4	365.1
738.6	365.4
738.8	362.9
739.0	359.6
739.2	358.6
739.4	357.6
739.6	354.5
739.8	351.6
740.0	349.2
740.2	346.2
740.4	343.4
740.6	341.3
740.8	338.2
741.0	334.2
741.2	331.9
741.4	331.0
741.6	329.0
741.8	328.0
742.0	326.3
742.2	324.5
742.4	318.6
742.6	315.5
742.8	313.1
743.0	311.9
743.2	310.6
743.4	308.1
743.6	302.9
743.8	301.1
744.0	300.5
744.2	298.4
744.4	296.9
744.6	294.1
744.8	291.3
745.0	289.0
745.2	288.0
745.4	284.4
745.6	283.7
745.8	281.9
746.0	281.5
746.2	279.7
746.4	278.0
746.6	275.2
746.8	273.2
747.0	270.8
747.2	270.8
747.4	270.4
747.6	268.9
747.8	267.7
748.0	264.8
748.2	261.6
748.4	258.8
748.6	256.1
748.8	255.5
749.0	254.6
749.2	254.4
749.4	250.9
749.6	248.3
749.8	245.8
750.0	245.0
750.2	244.2
750.4	245.9
750.6	243.0
750.8	242.2
751.0	240.2
751.2	237.4
751.4	234.0
751.6	231.6
751.8	228.9
752.0	227.5
752.2	227.1
752.4	226.1
752.6	223.2
752.8	219.4
753.0	218.5
753.2	218.9
753.4	219.6
753.6	218.7
753.8	216.3
754.0	213.1
754.2	210.7
754.4	210.4
754.6	210.6
754.8	209.1
755.0	209.6
755.2	207.2
755.4	204.2
755.6	200.9
755.8	200.0
756.0	196.9
756.2	196.0
756.4	194.0
756.6	194.0
756.8	193.1
757.0	193.2
757.2	190.2
757.4	188.0
757.6	187.8
757.8	187.1
758.0	186.9
758.2	184.8
758.4	181.3
758.6	179.2
758.8	178.3
759.0	177.2
759.2	177.0
759.4	175.8
759.6	174.7
759.8	172.8
760.0	170.7
760.2	169.6
760.4	169.6
760.6	170.4
760.8	168.2
761.0	166.1
761.2	164.7
761.4	163.4
761.6	162.9
761.8	161.5
762.0	158.8
762.2	156.5
762.4	156.2
762.6	155.7
762.8	154.4
763.0	153.6
763.2	155.3
763.4	153.9
763.6	153.4
763.8	151.2
764.0	147.2
764.2	145.9
764.4	145.8
764.6	145.9
764.8	145.7
765.0	145.2
765.2	143.0
765.4	142.4
765.6	139.3
765.8	137.6
766.0	135.5
766.2	134.5
766.4	134.8
766.6	135.7
766.8	135.0
767.0	133.7
767.2	131.2
767.4	129.6
767.6	128.7
767.8	128.2
768.0	128.3
768.2	127.7
768.4	125.5
768.6	124.7
768.8	122.8
769.0	122.1
769.2	121.8
769.4	122.2
769.6	121.5
769.8	120.4
770.0	119.3
770.2	117.8
770.4	116.3
770.6	115.8
770.8	115.8
771.0	114.5
771.2	114.3
771.4	113.0
771.6	111.5
771.8	109.8
772.0	110.5
772.2	109.9
772.4	109.8
772.6	109.3
772.8	109.3
773.0	108.3
773.2	108.3
773.4	106.5
773.6	104.6
773.8	103.8
774.0	102.9
774.2	102.8
774.4	103.2
774.6	103.4
774.8	102.3
775.0	102.0
775.2	100.3
775.4	99.07
775.6	98.96
775.8	98.12
776.0	96.69
776.2	96.02
776.4	95.72
776.6	94.52
776.8	94.79
777.0	94.14
777.2	93.83
777.4	94.31
777.6	94.07
777.8	92.73
778.0	92.00
778.2	91.03
778.4	90.76
778.6	91.11
778.8	90.60
779.0	89.63
779.2	88.98
779.4	89.00
779.6	87.96
779.8	87.12
780.0	86.27
780.2	86.20
780.4	85.71
780.6	86.39
780.8	85.27
781.0	84.52
781.2	83.18
781.4	83.96
781.6	82.45
781.8	81.87
782.0	81.71
782.2	80.97
782.4	80.07
782.6	80.84
782.8	79.40
783.0	78.72
783.2	78.61
783.4	77.93
783.6	78.11
783.8	78.54
784.0	77.75
784.2	77.14
784.4	75.65
784.6	74.63
784.8	75.02
785.0	75.24
785.2	75.50
785.4	75.88
785.6	74.37
785.8	73.96
786.0	73.04
786.2	72.33
786.4	72.09
786.6	71.59
786.8	71.30
787.0	72.08
787.2	71.20
787.4	71.77
787.6	71.76
787.8	70.10
788.0	69.54
788.2	69.15
788.4	67.83
788.6	68.13
788.8	69.21
789.0	69.66
789.2	69.21
789.4	68.67
789.6	67.37
789.8	66.43
790.0	65.93
790.2	66.31
790.4	66.26
790.6	65.63
790.8	65.49
791.0	65.59
791.2	64.82
791.4	64.73
791.6	64.74
791.8	63.80
792.0	63.29
792.2	64.45
792.4	64.70
792.6	64.74
792.8	64.15
793.0	62.50
793.2	61.69
793.4	62.11
793.6	61.61
793.8	61.38
794.0	61.04
794.2	59.51
794.4	59.84
794.6	60.17
794.8	59.66
795.0	59.94
795.2	60.28
795.4	60.27
795.6	60.11
795.8	59.91
796.0	58.84
796.2	59.18
796.4	58.43
796.6	58.86
796.8	58.33
797.0	57.45
797.2	56.43
797.4	56.21
797.6	54.79
797.8	55.06
798.0	54.34
798.2	54.49
798.4	54.76
798.6	55.75
798.8	56.23
799.0	56.85
799.2	56.31
799.4	56.00
799.6	55.58
799.8	55.21
800.0	54.43
800.2	54.52
800.4	54.19
800.6	53.04
800.8	52.07
801.0	51.39
801.2	50.45
801.4	51.57
801.6	52.10
801.8	51.90
802.0	51.58
802.2	51.95
802.4	51.90
802.6	51.85
802.8	51.17
803.0	49.90
803.2	49.33
803.4	49.04
803.6	49.65
803.8	49.58
804.0	49.38
804.2	49.53
804.4	48.49
804.6	47.72
804.8	47.60
805.0	47.63
805.2	47.12
805.4	47.34
805.6	46.99
805.8	47.80
806.0	47.61
806.2	46.98
806.4	45.94
806.6	45.03
806.8	45.06
807.0	45.33
807.2	45.75
807.4	45.99
807.6	46.44
807.8	46.40
808.0	44.75
808.2	43.74
808.4	43.68
808.6	43.62
808.8	43.95
809.0	43.99
809.2	43.36
809.4	43.26
809.6	42.95
809.8	42.93
810.0	43.21
810.2	43.11
810.4	42.70
810.6	42.10
810.8	41.38
811.0	40.84
811.2	41.00
811.4	40.99
811.6	40.85
811.8	40.47
812.0	39.83
812.2	38.82
812.4	39.75
812.6	39.97
812.8	40.79
813.0	40.06
813.2	39.26
813.4	38.35
813.6	37.84
813.8	37.42
814.0	38.03
814.2	38.10
814.4	37.88
814.6	37.33
814.8	36.66
815.0	36.76
815.2	36.78
815.4	36.79
815.6	36.18
815.8	35.52
816.0	35.71
816.2	35.83
816.4	35.70
816.6	35.68
816.8	34.84
817.0	34.29
817.2	34.53
817.4	34.29
817.6	33.81
817.8	33.40
818.0	32.69
818.2	32.91
818.4	33.99
818.6	33.68
818.8	32.65
819.0	31.81
819.2	31.11
819.4	30.54
819.6	30.75
819.8	31.01
820.0	30.85
820.2	31.06
820.4	31.07
820.6	30.19
820.8	30.05
821.0	29.97
821.2	29.60
821.4	29.30
821.6	29.46
821.8	28.63
822.0	28.93
822.2	28.84
822.4	28.71
822.6	28.24
822.8	28.23
823.0	27.41
823.2	27.75
823.4	28.06
823.6	28.40
823.8	27.72
824.0	27.29
824.2	26.28
824.4	25.60
824.6	25.54
824.8	26.58
825.0	26.52
825.2	26.11
825.4	25.84
825.6	25.35
825.8	24.38
826.0	24.44
826.2	23.27
826.4	22.85
826.6	23.56
826.8	24.32
827.0	23.95
827.2	23.35
827.4	21.98
827.6	22.04
827.8	22.36
828.0	22.78
828.2	23.01
828.4	22.72
828.6	22.23
828.8	22.11
829.0	21.82
829.2	21.53
829.4	21.36
829.6	20.88
829.8	20.63
830.0	20.21
830.2	19.78
830.4	19.67
830.6	19.77
830.8	19.44
831.0	19.88
831.2	19.63
831.4	19.28
831.6	18.97
831.8	18.95
832.0	18.27
832.2	18.28
832.4	17.97
832.6	17.42
832.8	16.95
833.0	17.14
833.2	17.26
833.4	17.34
833.6	17.41
833.8	17.13
834.0	16.84
834.2	16.42
834.4	16.67
834.6	16.71
834.8	16.58
835.0	16.56
835.2	16.42
835.4	15.59
835.6	15.24
835.8	14.78
836.0	13.94
836.2	13.77
836.4	13.64
836.6	13.64
836.8	13.78
837.0	13.77
837.2	13.58
837.4	13.67
837.6	13.21
837.8	12.73
838.0	12.95
838.2	12.87
838.4	12.66
838.6	12.17
838.8	11.62
839.0	11.22
839.2	11.50
839.4	11.78
839.6	11.79
839.8	11.24
840.0	10.86
840.2	10.62
840.4	10.27
840.6	10.25
840.8	10.18
841.0	9.830
841.2	10.01
841.4	10.24
841.6	10.28
841.8	10.23
842.0	9.922
842.2	9.579
842.4	9.608
842.6	9.571
842.8	9.324
843.0	9.306
843.2	9.368
843.4	9.216
843.6	8.862
843.8	8.561
844.0	8.358
844.2	8.386
844.4	8.734
844.6	8.412
844.8	8.114
845.0	8.089
845.2	7.803
845.4	7.869
845.6	8.039
845.8	7.694
846.0	7.507
846.2	7.558
846.4	7.083
846.6	6.870
846.8	6.582
847.0	6.286
847.2	6.361
847.4	6.787
847.6	7.039
847.8	6.963
848.0	6.832
848.2	6.542
848.4	6.241
848.6	5.978
848.8	5.618
849.0	5.654
849.2	5.947
849.4	6.258
849.6	6.439
849.8	6.342
850.0	6.042
850.2	5.934
850.4	5.684
850.6	5.385
850.8	5.194
851.0	4.990
851.2	4.861
851.4	5.113
851.6	5.311
851.8	5.325
852.0	5.309
852.2	4.984
852.4	4.600
852.6	4.451
852.8	4.282
853.0	4.445
853.2	4.639
853.4	4.638
853.6	4.663
853.8	4.216
854.0	3.887
854.2	3.809
