Sample:	'20211010A(EM)
File name:	r-NI-cds 1;5 760V.FDS
Run date:	'08:24:03, 03/22/2023
Operator:	Administrator
Comment:	'

Instrument
Model:	F-4700 FL Spectrophotometer
Serial number:	2019-001
ROM Version:	5J24010 00

Instrument parameters
Measurement type:	Wavelength scan
Scan mode:	Emission
Data mode:	Fluorescence
EX WL:	530.0 nm
EM  Start WL:	550.0 nm
EM  End WL:	900.0 nm
Scan speed:	1200 nm/min
Delay:	0.0 s
EX Slit:	10.0 nm
EM Slit:	10.0 nm
PMT Voltage:	760 V
Response:	0.002 s
Corrected spectra:	Off
Shutter control:	On

Processing performed
Savitsky-Golay smoothed
Smoothing order:	3
Number of points:	7
Number of times:	1

Peak integration
Integration method:	Rectangular
Sensitivity:	1
Threshold:	1.000

Peaks
No.	Start(nm)	Apex(nm)	End(nm)	Height(Data)	Valley(nm)	Valley(Data)
1	550.0	617.2	618.0	5421	618.0	5369
2	618.0	620.4	622.8	5496	622.8	5451
3	622.8	624.8	625.4	5501	625.4	5426
4	625.4	626.2	627.0	5474	627.0	5414
5	627.0	628.0	765.6	5502	765.6	178.0
6	765.6	766.6	768.4	194.4	768.4	167.4
7	768.4	769.2	775.8	176.2	775.8	128.5
8	775.8	776.6	781.2	139.8	781.2	112.3
9	781.2	782.0	783.2	124.0	783.2	112.5
10	783.2	784.0	789.8	118.8	789.8	99.27
11	789.8	790.8	791.4	105.7	791.4	97.23
12	791.4	792.0	793.4	107.7	793.4	96.79
13	793.4	795.4	796.2	102.3	796.2	92.80
14	796.2	797.0	801.8	99.60	801.8	84.65
15	801.8	803.4	806.2	91.91	806.2	81.82
16	806.2	806.8	812.0	87.22	812.0	73.89
17	812.0	812.8	814.6	77.07	814.6	69.05
18	814.6	815.6	816.4	72.60	816.4	63.60
19	816.4	817.8	826.4	67.64	826.4	41.44
20	826.4	827.0	830.0	44.85	830.0	37.16
21	830.0	831.0	834.0	39.28	834.0	27.96
22	834.0	834.8	837.0	31.05	837.0	22.92
23	837.0	837.6	844.0	26.81	844.0	13.52
24	844.0	844.4	847.8	15.03	847.8	10.03
25	847.8	848.6	851.2	11.33	851.2	7.292
26	851.2	852.4	854.6	8.879	854.6	5.018
27	854.6	855.6	864.4	7.034	864.4	2.548
28	864.4	866.0	868.6	4.288	868.6	2.838
29	868.6	869.0	872.2	4.034	872.2	2.024
30	872.2	873.0	874.4	3.072	874.4	1.975
31	874.4	875.4	876.2	3.245	876.2	1.665
32	876.2	877.2	877.8	3.464	877.8	2.010
33	877.8	880.8	882.8	3.469	882.8	1.966
34	882.8	885.6	886.4	3.704	886.4	2.246
35	886.4	887.8	890.4	3.594	890.4	1.778
36	890.4	891.2	893.8	3.009	893.8	1.750
37	893.8	894.6	900.0	3.873	900.0	2.361

Data points
nm	Data
550.0	272.6
550.2	275.1
550.4	278.9
550.6	284.2
550.8	291.9
551.0	302.3
551.2	310.6
551.4	317.6
551.6	319.2
551.8	321.0
552.0	331.4
552.2	339.4
552.4	344.8
552.6	348.1
552.8	348.3
553.0	349.1
553.2	364.1
553.4	378.1
553.6	388.9
553.8	393.8
554.0	393.6
554.2	397.5
554.4	404.1
554.6	411.6
554.8	423.7
555.0	430.2
555.2	436.9
555.4	444.8
555.6	453.8
555.8	462.4
556.0	475.9
556.2	481.3
556.4	483.5
556.6	482.4
556.8	491.1
557.0	501.6
557.2	519.6
557.4	526.1
557.6	534.1
557.8	539.1
558.0	544.2
558.2	547.9
558.4	558.8
558.6	570.2
558.8	585.5
559.0	597.8
559.2	600.4
559.4	602.1
559.6	602.0
559.8	613.5
560.0	626.2
560.2	642.2
560.4	661.8
560.6	678.9
560.8	679.5
561.0	686.8
561.2	695.7
561.4	700.4
561.6	716.4
561.8	732.6
562.0	737.3
562.2	756.1
562.4	775.7
562.6	788.2
562.8	801.1
563.0	806.4
563.2	813.7
563.4	831.7
563.6	843.8
563.8	858.1
564.0	862.6
564.2	870.4
564.4	880.8
564.6	894.6
564.8	898.7
565.0	920.5
565.2	931.4
565.4	949.6
565.6	958.3
565.8	973.5
566.0	972.1
566.2	994.8
566.4	1010
566.6	1020
566.8	1026
567.0	1048
567.2	1050
567.4	1074
567.6	1094
567.8	1110
568.0	1112
568.2	1139
568.4	1153
568.6	1176
568.8	1192
569.0	1196
569.2	1193
569.4	1223
569.6	1240
569.8	1261
570.0	1273
570.2	1277
570.4	1279
570.6	1303
570.8	1316
571.0	1340
571.2	1353
571.4	1369
571.6	1381
571.8	1415
572.0	1445
572.2	1459
572.4	1481
572.6	1494
572.8	1507
573.0	1534
573.2	1553
573.4	1548
573.6	1570
573.8	1581
574.0	1593
574.2	1610
574.4	1635
574.6	1660
574.8	1693
575.0	1708
575.2	1719
575.4	1736
575.6	1754
575.8	1788
576.0	1812
576.2	1828
576.4	1845
576.6	1864
576.8	1872
577.0	1895
577.2	1916
577.4	1936
577.6	1942
577.8	1972
578.0	1992
578.2	2016
578.4	2031
578.6	2037
578.8	2037
579.0	2067
579.2	2092
579.4	2109
579.6	2118
579.8	2149
580.0	2175
580.2	2205
580.4	2235
580.6	2249
580.8	2261
581.0	2303
581.2	2328
581.4	2362
581.6	2386
581.8	2397
582.0	2405
582.2	2427
582.4	2449
582.6	2475
582.8	2488
583.0	2497
583.2	2516
583.4	2534
583.6	2548
583.8	2555
584.0	2590
584.2	2619
584.4	2672
584.6	2710
584.8	2717
585.0	2727
585.2	2750
585.4	2750
585.6	2774
585.8	2802
586.0	2831
586.2	2860
586.4	2879
586.6	2885
586.8	2899
587.0	2934
587.2	2955
587.4	2972
587.6	3006
587.8	3024
588.0	3036
588.2	3055
588.4	3067
588.6	3102
588.8	3131
589.0	3157
589.2	3164
589.4	3189
589.6	3217
589.8	3245
590.0	3259
590.2	3282
590.4	3292
590.6	3335
590.8	3359
591.0	3389
591.2	3419
591.4	3438
591.6	3469
591.8	3496
592.0	3507
592.2	3514
592.4	3530
592.6	3537
592.8	3559
593.0	3577
593.2	3610
593.4	3628
593.6	3673
593.8	3700
594.0	3720
594.2	3733
594.4	3755
594.6	3744
594.8	3758
595.0	3789
595.2	3818
595.4	3844
595.6	3882
595.8	3894
596.0	3909
596.2	3943
596.4	3972
596.6	4001
596.8	4011
597.0	4032
597.2	4036
597.4	4039
597.6	4046
597.8	4085
598.0	4100
598.2	4138
598.4	4155
598.6	4157
598.8	4173
599.0	4213
599.2	4242
599.4	4281
599.6	4301
599.8	4325
600.0	4363
600.2	4371
600.4	4370
600.6	4380
600.8	4398
601.0	4432
601.2	4459
601.4	4481
601.6	4480
601.8	4467
602.0	4493
602.2	4518
602.4	4519
602.6	4547
602.8	4560
603.0	4560
603.2	4580
603.4	4612
603.6	4639
603.8	4669
604.0	4696
604.2	4703
604.4	4682
604.6	4691
604.8	4711
605.0	4751
605.2	4778
605.4	4800
605.6	4794
605.8	4812
606.0	4817
606.2	4857
606.4	4873
606.6	4905
606.8	4906
607.0	4911
607.2	4881
607.4	4875
607.6	4900
607.8	4924
608.0	4944
608.2	4960
608.4	4968
608.6	4993
608.8	5025
609.0	5020
609.2	5040
609.4	5043
609.6	5051
609.8	5078
610.0	5100
610.2	5126
610.4	5141
610.6	5151
610.8	5150
611.0	5158
611.2	5162
611.4	5171
611.6	5160
611.8	5147
612.0	5143
612.2	5166
612.4	5198
612.6	5227
612.8	5269
613.0	5267
613.2	5259
613.4	5246
613.6	5267
613.8	5278
614.0	5314
614.2	5315
614.4	5323
614.6	5291
614.8	5312
615.0	5312
615.2	5339
615.4	5354
615.6	5377
615.8	5357
616.0	5364
616.2	5363
616.4	5368
616.6	5381
616.8	5397
617.0	5403
617.2	5421
617.4	5415
617.6	5394
617.8	5374
618.0	5369
618.2	5392
618.4	5415
618.6	5430
618.8	5443
619.0	5447
619.2	5446
619.4	5433
619.6	5421
619.8	5423
620.0	5443
620.2	5461
620.4	5496
620.6	5495
620.8	5469
621.0	5468
621.2	5473
621.4	5475
621.6	5466
621.8	5477
622.0	5455
622.2	5462
622.4	5465
622.6	5472
622.8	5451
623.0	5467
623.2	5480
623.4	5483
623.6	5486
623.8	5481
624.0	5455
624.2	5455
624.4	5475
624.6	5484
624.8	5501
625.0	5484
625.2	5440
625.4	5426
625.6	5436
625.8	5428
626.0	5472
626.2	5474
626.4	5470
626.6	5439
626.8	5447
627.0	5414
627.2	5443
627.4	5453
627.6	5481
627.8	5475
628.0	5502
628.2	5473
628.4	5449
628.6	5417
628.8	5400
629.0	5371
629.2	5378
629.4	5400
629.6	5398
629.8	5407
630.0	5385
630.2	5354
630.4	5344
630.6	5360
630.8	5335
631.0	5345
631.2	5343
631.4	5326
631.6	5315
631.8	5328
632.0	5317
632.2	5325
632.4	5333
632.6	5309
632.8	5296
633.0	5300
633.2	5298
633.4	5287
633.6	5274
633.8	5258
634.0	5247
634.2	5233
634.4	5226
634.6	5227
634.8	5228
635.0	5208
635.2	5190
635.4	5183
635.6	5178
635.8	5191
636.0	5186
636.2	5148
636.4	5111
636.6	5097
636.8	5099
637.0	5110
637.2	5127
637.4	5105
637.6	5087
637.8	5089
638.0	5086
638.2	5057
638.4	5048
638.6	5013
638.8	5001
639.0	5007
639.2	4994
639.4	4996
639.6	4983
639.8	4976
640.0	4954
640.2	4948
640.4	4942
640.6	4943
640.8	4919
641.0	4915
641.2	4901
641.4	4880
641.6	4858
641.8	4832
642.0	4832
642.2	4821
642.4	4816
642.6	4791
642.8	4772
643.0	4763
643.2	4760
643.4	4744
643.6	4740
643.8	4735
644.0	4727
644.2	4714
644.4	4693
644.6	4677
644.8	4663
645.0	4657
645.2	4618
645.4	4606
645.6	4603
645.8	4589
646.0	4573
646.2	4572
646.4	4542
646.6	4546
646.8	4544
647.0	4539
647.2	4507
647.4	4501
647.6	4478
647.8	4473
648.0	4455
648.2	4463
648.4	4439
648.6	4427
648.8	4400
649.0	4391
649.2	4350
649.4	4348
649.6	4326
649.8	4305
650.0	4295
650.2	4313
650.4	4290
650.6	4288
650.8	4264
651.0	4222
651.2	4185
651.4	4197
651.6	4176
651.8	4175
652.0	4160
652.2	4155
652.4	4142
652.6	4136
652.8	4111
653.0	4090
653.2	4066
653.4	4070
653.6	4055
653.8	4039
654.0	4031
654.2	4015
654.4	4010
654.6	4003
654.8	3996
655.0	3969
655.2	3932
655.4	3894
655.6	3892
655.8	3885
656.0	3888
656.2	3865
656.4	3833
656.6	3802
656.8	3815
657.0	3809
657.2	3813
657.4	3806
657.6	3789
657.8	3761
658.0	3760
658.2	3731
658.4	3727
658.6	3705
658.8	3682
659.0	3664
659.2	3655
659.4	3621
659.6	3614
659.8	3587
660.0	3575
660.2	3565
660.4	3555
660.6	3526
660.8	3508
661.0	3494
661.2	3498
661.4	3493
661.6	3502
661.8	3502
662.0	3486
662.2	3451
662.4	3419
662.6	3400
662.8	3382
663.0	3369
663.2	3365
663.4	3351
663.6	3345
663.8	3335
664.0	3298
664.2	3286
664.4	3268
664.6	3264
664.8	3264
665.0	3242
665.2	3215
665.4	3204
665.6	3178
665.8	3179
666.0	3167
666.2	3163
666.4	3145
666.6	3121
666.8	3092
667.0	3075
667.2	3047
667.4	3031
667.6	3021
667.8	3015
668.0	3001
668.2	2986
668.4	2985
668.6	2973
668.8	2969
669.0	2949
669.2	2931
669.4	2904
669.6	2890
669.8	2888
670.0	2882
670.2	2866
670.4	2868
670.6	2857
670.8	2837
671.0	2817
671.2	2801
671.4	2773
671.6	2778
671.8	2764
672.0	2753
672.2	2730
672.4	2739
672.6	2731
672.8	2742
673.0	2716
673.2	2679
673.4	2640
673.6	2634
673.8	2612
674.0	2617
674.2	2610
674.4	2604
674.6	2601
674.8	2599
675.0	2570
675.2	2546
675.4	2524
675.6	2510
675.8	2502
676.0	2487
676.2	2484
676.4	2464
676.6	2449
676.8	2441
677.0	2426
677.2	2415
677.4	2412
677.6	2394
677.8	2380
678.0	2392
678.2	2389
678.4	2377
678.6	2342
678.8	2313
679.0	2290
679.2	2301
679.4	2311
679.6	2308
679.8	2284
680.0	2258
680.2	2230
680.4	2225
680.6	2233
680.8	2249
681.0	2238
681.2	2212
681.4	2178
681.6	2156
681.8	2144
682.0	2145
682.2	2149
682.4	2140
682.6	2131
682.8	2115
683.0	2087
683.2	2053
683.4	2052
683.6	2058
683.8	2063
684.0	2069
684.2	2047
684.4	2023
684.6	2002
684.8	1992
685.0	1978
685.2	1974
685.4	1952
685.6	1948
685.8	1926
686.0	1923
686.2	1928
686.4	1930
686.6	1927
686.8	1911
687.0	1895
687.2	1880
687.4	1864
687.6	1841
687.8	1826
688.0	1810
688.2	1817
688.4	1813
688.6	1816
688.8	1799
689.0	1781
689.2	1775
689.4	1772
689.6	1765
689.8	1751
690.0	1734
690.2	1728
690.4	1736
690.6	1749
690.8	1745
691.0	1713
691.2	1682
691.4	1672
691.6	1664
691.8	1675
692.0	1660
692.2	1644
692.4	1635
692.6	1638
692.8	1625
693.0	1620
693.2	1601
693.4	1581
693.6	1580
693.8	1588
694.0	1584
694.2	1588
694.4	1577
694.6	1558
694.8	1544
695.0	1537
695.2	1530
695.4	1530
695.6	1524
695.8	1511
696.0	1506
696.2	1500
696.4	1502
696.6	1494
696.8	1489
697.0	1468
697.2	1459
697.4	1445
697.6	1452
697.8	1442
698.0	1441
698.2	1439
698.4	1426
698.6	1412
698.8	1408
699.0	1388
699.2	1384
699.4	1387
699.6	1388
699.8	1397
700.0	1395
700.2	1381
700.4	1367
700.6	1348
700.8	1331
701.0	1334
701.2	1333
701.4	1328
701.6	1319
701.8	1315
702.0	1302
702.2	1304
702.4	1299
702.6	1287
702.8	1281
703.0	1274
703.2	1267
703.4	1265
703.6	1255
703.8	1253
704.0	1257
704.2	1243
704.4	1226
704.6	1211
704.8	1202
705.0	1202
705.2	1206
705.4	1194
705.6	1180
705.8	1171
706.0	1173
706.2	1180
706.4	1178
706.6	1164
706.8	1155
707.0	1150
707.2	1155
707.4	1148
707.6	1138
707.8	1127
708.0	1121
708.2	1114
708.4	1114
708.6	1103
708.8	1100
709.0	1096
709.2	1087
709.4	1073
709.6	1067
709.8	1062
710.0	1053
710.2	1044
710.4	1029
710.6	1022
710.8	1023
711.0	1032
711.2	1034
711.4	1032
711.6	1031
711.8	1014
712.0	1009
712.2	1013
712.4	1003
712.6	1002
712.8	1004
713.0	986.2
713.2	978.0
713.4	963.4
713.6	945.6
713.8	946.2
714.0	947.9
714.2	942.6
714.4	933.5
714.6	921.3
714.8	913.7
715.0	916.8
715.2	925.3
715.4	919.7
715.6	916.3
715.8	905.9
716.0	900.9
716.2	897.7
716.4	900.2
716.6	884.6
716.8	880.2
717.0	869.5
717.2	868.8
717.4	867.0
717.6	867.8
717.8	856.8
718.0	853.0
718.2	851.9
718.4	846.4
718.6	837.3
718.8	833.8
719.0	829.8
719.2	827.3
719.4	825.4
719.6	818.9
719.8	811.7
720.0	807.3
720.2	808.5
720.4	803.5
720.6	795.5
720.8	793.9
721.0	785.9
721.2	774.4
721.4	774.8
721.6	770.0
721.8	759.3
722.0	752.7
722.2	752.2
722.4	751.5
722.6	755.3
722.8	751.9
723.0	741.5
723.2	729.7
723.4	732.1
723.6	734.3
723.8	731.7
724.0	726.0
724.2	717.2
724.4	703.8
724.6	694.4
724.8	688.5
725.0	677.4
725.2	677.1
725.4	675.2
725.6	672.6
725.8	676.4
726.0	673.3
726.2	669.0
726.4	667.1
726.6	655.0
726.8	647.2
727.0	644.8
727.2	634.8
727.4	629.4
727.6	621.3
727.8	616.1
728.0	622.7
728.2	626.1
728.4	626.1
728.6	622.2
728.8	616.4
729.0	616.0
729.2	616.3
729.4	613.0
729.6	604.0
729.8	597.5
730.0	590.5
730.2	584.5
730.4	586.8
730.6	593.7
730.8	594.1
731.0	595.0
731.2	581.4
731.4	564.2
731.6	553.3
731.8	544.3
732.0	539.4
732.2	543.7
732.4	539.4
732.6	542.4
732.8	539.8
733.0	536.1
733.2	535.8
733.4	534.0
733.6	525.6
733.8	525.7
734.0	519.1
734.2	514.2
734.4	507.5
734.6	501.7
734.8	494.5
735.0	494.1
735.2	492.3
735.4	493.2
735.6	487.0
735.8	483.5
736.0	473.6
736.2	474.7
736.4	473.4
736.6	473.8
736.8	472.4
737.0	469.4
737.2	458.6
737.4	459.6
737.6	460.4
737.8	457.3
738.0	455.6
738.2	457.0
738.4	454.5
738.6	451.4
738.8	451.4
739.0	442.9
739.2	434.4
739.4	424.1
739.6	420.3
739.8	414.2
740.0	418.8
740.2	418.7
740.4	421.4
740.6	416.9
740.8	418.1
741.0	408.3
741.2	409.3
741.4	402.0
741.6	400.5
741.8	398.0
742.0	394.0
742.2	389.6
742.4	397.0
742.6	393.0
742.8	393.3
743.0	390.8
743.2	384.2
743.4	382.2
743.6	380.4
743.8	374.3
744.0	373.8
744.2	377.7
744.4	381.3
744.6	382.9
744.8	376.0
745.0	371.9
745.2	371.4
745.4	371.5
745.6	367.2
745.8	364.5
746.0	360.0
746.2	351.6
746.4	349.1
746.6	345.1
746.8	338.7
747.0	335.9
747.2	337.2
747.4	337.5
747.6	338.5
747.8	335.3
748.0	330.5
748.2	326.2
748.4	322.7
748.6	326.4
748.8	328.9
749.0	325.8
749.2	327.7
749.4	327.7
749.6	324.3
749.8	319.0
750.0	314.1
750.2	307.8
750.4	307.8
750.6	307.0
750.8	307.4
751.0	303.5
751.2	304.4
751.4	308.4
751.6	310.6
751.8	304.6
752.0	300.2
752.2	290.7
752.4	288.4
752.6	287.5
752.8	289.7
753.0	290.6
753.2	291.8
753.4	289.9
753.6	282.8
753.8	276.5
754.0	273.6
754.2	273.0
754.4	270.0
754.6	274.2
754.8	270.9
755.0	273.1
755.2	268.1
755.4	262.1
755.6	256.5
755.8	256.5
756.0	256.0
756.2	259.4
756.4	257.9
756.6	257.2
756.8	254.8
757.0	254.8
757.2	252.7
757.4	253.5
757.6	248.2
757.8	244.7
758.0	239.8
758.2	240.3
758.4	237.5
758.6	232.1
758.8	228.4
759.0	229.9
759.2	231.7
759.4	232.9
759.6	236.6
759.8	232.3
760.0	230.1
760.2	228.1
760.4	228.4
760.6	225.3
760.8	226.6
761.0	227.6
761.2	225.1
761.4	224.4
761.6	222.8
761.8	219.1
762.0	213.3
762.2	207.9
762.4	206.2
762.6	209.6
762.8	211.0
763.0	213.1
763.2	209.2
763.4	200.1
763.6	193.0
763.8	193.5
764.0	194.8
764.2	197.0
764.4	197.5
764.6	199.1
764.8	193.0
765.0	191.8
765.2	190.5
765.4	186.0
765.6	178.0
765.8	180.4
766.0	178.6
766.2	184.0
766.4	190.0
766.6	194.4
766.8	189.6
767.0	188.0
767.2	182.0
767.4	178.7
767.6	177.3
767.8	174.1
768.0	171.8
768.2	168.0
768.4	167.4
768.6	168.5
768.8	172.9
769.0	172.6
769.2	176.2
769.4	171.9
769.6	172.3
769.8	169.3
770.0	166.3
770.2	167.1
770.4	164.8
770.6	161.5
770.8	165.3
771.0	166.6
771.2	164.0
771.4	167.6
771.6	159.8
771.8	155.2
772.0	153.8
772.2	156.0
772.4	155.0
772.6	156.9
772.8	153.2
773.0	150.8
773.2	148.5
773.4	148.9
773.6	149.3
773.8	144.3
774.0	140.8
774.2	139.1
774.4	136.7
774.6	135.7
774.8	139.8
775.0	139.7
775.2	138.2
775.4	136.5
775.6	132.4
775.8	128.5
776.0	131.6
776.2	131.3
776.4	134.4
776.6	139.8
776.8	139.2
777.0	136.2
777.2	137.8
777.4	133.3
777.6	133.2
777.8	135.4
778.0	132.6
778.2	130.9
778.4	134.9
778.6	132.4
778.8	131.6
779.0	132.7
779.2	130.6
779.4	130.7
779.6	129.9
779.8	124.3
780.0	120.5
780.2	119.3
780.4	115.8
780.6	119.6
780.8	119.3
781.0	113.9
781.2	112.3
781.4	113.2
781.6	112.6
781.8	120.7
782.0	124.0
782.2	121.2
782.4	121.9
782.6	119.6
782.8	115.4
783.0	113.3
783.2	112.5
783.4	113.9
783.6	117.8
783.8	116.7
784.0	118.8
784.2	118.0
784.4	115.3
784.6	116.4
784.8	117.8
785.0	116.2
785.2	116.6
785.4	118.1
785.6	114.4
785.8	115.3
786.0	114.0
786.2	112.7
786.4	109.7
786.6	113.5
786.8	112.5
787.0	110.2
787.2	109.1
787.4	106.6
787.6	104.5
787.8	106.0
788.0	104.2
788.2	103.4
788.4	105.9
788.6	104.9
788.8	105.4
789.0	104.2
789.2	104.0
789.4	101.3
789.6	100.5
789.8	99.27
790.0	101.1
790.2	102.2
790.4	105.1
790.6	104.8
790.8	105.7
791.0	103.1
791.2	100.9
791.4	97.23
791.6	99.46
791.8	104.3
792.0	107.7
792.2	105.8
792.4	104.2
792.6	99.90
792.8	100.4
793.0	99.43
793.2	98.19
793.4	96.79
793.6	99.03
793.8	99.54
794.0	99.44
794.2	98.59
794.4	98.13
794.6	97.81
794.8	101.1
795.0	99.87
795.2	99.89
795.4	102.3
795.6	102.2
795.8	98.96
796.0	96.24
796.2	92.80
796.4	94.12
796.6	98.06
796.8	99.34
797.0	99.60
797.2	96.99
797.4	96.54
797.6	96.73
797.8	97.20
798.0	95.34
798.2	94.73
798.4	94.22
798.6	94.15
798.8	92.66
799.0	89.87
799.2	88.64
799.4	89.01
799.6	91.20
799.8	92.44
800.0	92.05
800.2	88.89
800.4	88.02
800.6	87.31
800.8	89.31
801.0	90.25
801.2	89.95
801.4	88.91
801.6	86.27
801.8	84.65
802.0	88.21
802.2	90.01
802.4	89.80
802.6	89.57
802.8	88.61
803.0	88.09
803.2	90.01
803.4	91.91
803.6	89.72
803.8	87.73
804.0	88.27
804.2	86.57
804.4	85.95
804.6	87.55
804.8	86.72
805.0	87.07
805.2	88.77
805.4	86.71
805.6	84.98
805.8	82.89
806.0	82.01
806.2	81.82
806.4	86.57
806.6	86.60
806.8	87.22
807.0	85.17
807.2	82.20
807.4	79.80
807.6	81.97
807.8	80.22
808.0	81.27
808.2	81.87
808.4	81.05
808.6	79.50
808.8	79.75
809.0	80.09
809.2	79.90
809.4	80.04
809.6	78.54
809.8	76.46
810.0	76.87
810.2	76.90
810.4	77.04
810.6	77.80
810.8	76.51
811.0	75.72
811.2	76.85
811.4	75.36
811.6	76.63
811.8	75.75
812.0	73.89
812.2	74.38
812.4	75.19
812.6	75.13
812.8	77.07
813.0	75.76
813.2	75.65
813.4	75.48
813.6	75.00
813.8	73.89
814.0	72.55
814.2	70.78
814.4	70.81
814.6	69.05
814.8	69.31
815.0	70.43
815.2	69.25
815.4	71.91
815.6	72.60
815.8	69.31
816.0	67.16
816.2	65.95
816.4	63.60
816.6	66.21
816.8	67.04
817.0	65.71
817.2	67.07
817.4	66.78
817.6	66.98
817.8	67.64
818.0	66.23
818.2	62.77
818.4	61.64
818.6	60.42
818.8	62.10
819.0	63.98
819.2	62.99
819.4	60.91
819.6	58.36
819.8	58.01
820.0	59.67
820.2	62.04
820.4	62.11
820.6	60.94
820.8	57.76
821.0	56.89
821.2	57.81
821.4	59.21
821.6	59.08
821.8	57.68
822.0	57.22
822.2	54.17
822.4	55.45
822.6	55.77
822.8	55.61
823.0	56.53
823.2	56.96
823.4	53.05
823.6	53.40
823.8	53.49
824.0	53.42
824.2	52.40
824.4	51.99
824.6	49.92
824.8	50.82
825.0	51.91
825.2	51.65
825.4	49.74
825.6	48.87
825.8	46.05
826.0	44.35
826.2	42.70
826.4	41.44
826.6	42.88
826.8	44.84
827.0	44.85
827.2	44.84
827.4	43.50
827.6	42.80
827.8	42.91
828.0	42.78
828.2	42.25
828.4	41.96
828.6	39.61
828.8	38.54
829.0	38.92
829.2	40.19
829.4	41.40
829.6	40.14
829.8	38.60
830.0	37.16
830.2	37.25
830.4	38.01
830.6	38.48
830.8	38.26
831.0	39.28
831.2	38.43
831.4	37.38
831.6	35.03
831.8	34.34
832.0	34.39
832.2	33.53
832.4	33.39
832.6	33.86
832.8	32.08
833.0	31.66
