Sample:	'20211010A(EM)
File name:	G-NI 6 600.FDS
Run date:	'18:48:04, 06/19/2023
Operator:	Administrator
Comment:	'

Instrument
Model:	F-4700 FL Spectrophotometer
Serial number:	2019-001
ROM Version:	5J24010 00

Instrument parameters
Measurement type:	Wavelength scan
Scan mode:	Emission
Data mode:	Fluorescence
EX WL:	400.0 nm
EM  Start WL:	420.0 nm
EM  End WL:	800.0 nm
Scan speed:	1200 nm/min
Delay:	0.0 s
EX Slit:	10.0 nm
EM Slit:	10.0 nm
PMT Voltage:	500 V
Response:	0.002 s
Corrected spectra:	Off
Shutter control:	On

Processing performed
Savitsky-Golay smoothed
Smoothing order:	3
Number of points:	7
Number of times:	1

Peak integration
Integration method:	Rectangular
Sensitivity:	1
Threshold:	1.000

Peaks
No.	Start(nm)	Apex(nm)	End(nm)	Height(Data)	Valley(nm)	Valley(Data)
1	420.0	467.0	467.6	4.848	467.6	3.847
2	467.6	558.0	559.0	5020	559.0	4992
3	559.0	560.6	740.2	5026	740.2	34.82
4	740.2	740.8	744.0	36.91	744.0	32.19
5	744.0	744.8	754.6	33.37	754.6	22.05
6	754.6	755.2	761.8	23.50	761.8	16.52
7	761.8	762.6	769.0	18.02	769.0	12.35
8	769.0	770.6	781.2	13.46	781.2	9.204
9	781.2	782.2	783.0	10.81	783.0	9.248

Data points
nm	Data
420.0	1.970
420.2	1.961
420.4	1.953
420.6	1.958
420.8	2.084
421.0	1.959
421.2	2.046
421.4	2.121
421.6	1.953
421.8	2.005
422.0	2.149
422.2	2.101
422.4	2.205
422.6	2.169
422.8	2.068
423.0	1.962
423.2	2.013
423.4	2.017
423.6	1.950
423.8	1.859
424.0	1.777
424.2	1.687
424.4	1.870
424.6	2.048
424.8	2.163
425.0	2.254
425.2	2.033
425.4	1.970
425.6	1.860
425.8	1.893
426.0	2.078
426.2	2.361
426.4	2.247
426.6	2.244
426.8	2.030
427.0	2.172
427.2	2.215
427.4	2.323
427.6	2.110
427.8	1.903
428.0	1.782
428.2	2.141
428.4	2.117
428.6	2.086
428.8	1.989
429.0	1.864
429.2	1.951
429.4	2.316
429.6	2.325
429.8	2.315
430.0	2.089
430.2	1.870
430.4	1.837
430.6	1.984
430.8	2.021
431.0	2.040
431.2	1.843
431.4	1.857
431.6	2.107
431.8	2.184
432.0	2.119
432.2	2.019
432.4	1.896
432.6	2.102
432.8	2.330
433.0	2.344
433.2	2.140
433.4	1.982
433.6	2.014
433.8	2.009
434.0	2.015
434.2	2.181
434.4	2.337
434.6	2.374
434.8	2.541
435.0	2.251
435.2	1.976
435.4	1.962
435.6	2.099
435.8	2.209
436.0	2.300
436.2	2.190
436.4	2.122
436.6	2.110
436.8	1.950
437.0	1.932
437.2	1.980
437.4	1.928
437.6	1.952
437.8	2.072
438.0	2.089
438.2	2.207
438.4	2.341
438.6	2.117
438.8	2.011
439.0	2.082
439.2	2.145
439.4	2.169
439.6	2.184
439.8	1.919
440.0	1.916
440.2	2.098
440.4	2.318
440.6	2.367
440.8	2.501
441.0	2.437
441.2	2.345
441.4	2.150
441.6	1.938
441.8	1.849
442.0	1.989
442.2	2.284
442.4	2.459
442.6	2.372
442.8	2.084
443.0	2.176
443.2	2.290
443.4	2.433
443.6	2.441
443.8	2.542
444.0	2.334
444.2	2.381
444.4	2.450
444.6	2.550
444.8	2.680
445.0	2.756
445.2	2.575
445.4	2.346
445.6	2.155
445.8	2.059
446.0	2.128
446.2	2.119
446.4	2.237
446.6	2.211
446.8	2.288
447.0	2.286
447.2	2.253
447.4	2.354
447.6	2.587
447.8	2.679
448.0	2.874
448.2	2.724
448.4	2.673
448.6	2.844
448.8	2.920
449.0	2.969
449.2	2.883
449.4	2.753
449.6	2.624
449.8	2.636
450.0	2.720
450.2	2.891
450.4	2.967
450.6	2.901
450.8	2.707
451.0	2.701
451.2	2.748
451.4	2.966
451.6	2.964
451.8	2.693
452.0	2.670
452.2	2.510
452.4	2.389
452.6	2.537
452.8	2.605
453.0	2.587
453.2	2.678
453.4	2.397
453.6	2.451
453.8	2.707
454.0	2.955
454.2	3.033
454.4	3.152
454.6	2.839
454.8	2.857
455.0	2.986
455.2	3.025
455.4	3.007
455.6	2.935
455.8	2.719
456.0	2.718
456.2	2.932
456.4	2.980
456.6	3.036
456.8	3.058
457.0	3.085
457.2	3.188
457.4	3.145
457.6	2.989
457.8	2.959
458.0	2.969
458.2	2.946
458.4	2.988
458.6	2.858
458.8	2.920
459.0	2.998
459.2	3.165
459.4	3.248
459.6	3.152
459.8	3.139
460.0	3.238
460.2	3.037
460.4	2.981
460.6	2.932
460.8	3.116
461.0	3.286
461.2	3.287
461.4	3.294
461.6	3.128
461.8	2.916
462.0	3.230
462.2	3.259
462.4	3.056
462.6	3.325
462.8	3.398
463.0	3.483
463.2	3.799
463.4	3.880
463.6	3.713
463.8	3.618
464.0	3.625
464.2	3.517
464.4	3.484
464.6	3.617
464.8	3.684
465.0	3.710
465.2	3.639
465.4	3.679
465.6	3.652
465.8	3.780
466.0	3.776
466.2	3.632
466.4	3.666
466.6	4.178
466.8	4.623
467.0	4.848
467.2	4.532
467.4	4.232
467.6	3.847
467.8	3.856
468.0	4.159
468.2	4.352
468.4	4.399
468.6	4.606
468.8	4.513
469.0	4.641
469.2	4.742
469.4	4.790
469.6	4.679
469.8	4.678
470.0	4.856
470.2	4.884
470.4	4.947
470.6	5.054
470.8	5.281
471.0	5.530
471.2	5.474
471.4	5.426
471.6	5.386
471.8	5.148
472.0	5.268
472.2	5.446
472.4	5.293
472.6	5.628
472.8	6.148
473.0	6.150
473.2	6.349
473.4	6.434
473.6	6.164
473.8	6.068
474.0	6.473
474.2	6.432
474.4	6.745
474.6	6.974
474.8	6.928
475.0	6.901
475.2	7.290
475.4	7.608
475.6	7.894
475.8	7.832
476.0	7.654
476.2	7.487
476.4	7.775
476.6	7.766
476.8	7.871
477.0	7.869
477.2	8.450
477.4	9.165
477.6	9.588
477.8	9.485
478.0	9.465
478.2	9.633
478.4	9.783
478.6	9.988
478.8	9.919
479.0	10.10
479.2	10.26
479.4	10.70
479.6	11.09
479.8	11.75
480.0	12.07
480.2	12.26
480.4	12.42
480.6	12.69
480.8	13.23
481.0	13.59
481.2	13.76
481.4	14.44
481.6	14.89
481.8	15.59
482.0	16.18
482.2	16.09
482.4	16.36
482.6	17.38
482.8	17.92
483.0	18.99
483.2	19.70
483.4	20.40
483.6	20.72
483.8	20.99
484.0	21.12
484.2	21.60
484.4	22.09
484.6	23.03
484.8	23.72
485.0	24.39
485.2	24.96
485.4	25.90
485.6	27.11
485.8	28.49
486.0	30.14
486.2	31.68
486.4	32.71
486.6	33.91
486.8	34.84
487.0	35.50
487.2	36.33
487.4	37.32
487.6	38.50
487.8	39.89
488.0	41.02
488.2	42.53
488.4	43.90
488.6	44.96
488.8	46.68
489.0	48.08
489.2	49.96
489.4	52.50
489.6	53.80
489.8	55.56
490.0	58.27
490.2	60.03
490.4	61.91
490.6	63.56
490.8	65.04
491.0	67.15
491.2	70.03
491.4	72.99
491.6	75.50
491.8	78.21
492.0	81.91
492.2	84.68
492.4	87.44
492.6	90.05
492.8	92.78
493.0	95.75
493.2	100.5
493.4	104.4
493.6	107.2
493.8	109.4
494.0	112.4
494.2	116.2
494.4	121.6
494.6	126.2
494.8	129.9
495.0	132.2
495.2	135.8
495.4	139.7
495.6	144.9
495.8	150.0
496.0	155.3
496.2	158.6
496.4	164.6
496.6	169.4
496.8	175.4
497.0	180.5
497.2	185.0
497.4	188.0
497.6	194.5
497.8	201.3
498.0	209.7
498.2	215.1
498.4	220.6
498.6	224.8
498.8	231.3
499.0	238.7
499.2	248.2
499.4	254.3
499.6	263.1
499.8	269.7
500.0	274.8
500.2	280.1
500.4	287.1
500.6	294.1
500.8	303.8
501.0	315.0
501.2	324.1
501.4	331.7
501.6	339.4
501.8	346.8
502.0	353.3
502.2	362.2
502.4	369.9
502.6	381.3
502.8	391.4
503.0	402.0
503.2	411.3
503.4	423.0
503.6	431.9
503.8	446.6
504.0	454.5
504.2	463.7
504.4	474.5
504.6	486.3
504.8	495.8
505.0	506.5
505.2	515.8
505.4	526.3
505.6	539.6
505.8	555.1
506.0	569.4
506.2	581.6
506.4	590.9
506.6	598.4
506.8	610.9
507.0	626.7
507.2	639.2
507.4	653.4
507.6	665.5
507.8	679.4
508.0	697.7
508.2	712.5
508.4	724.4
508.6	738.0
508.8	750.9
509.0	765.0
509.2	777.5
509.4	793.2
509.6	805.8
509.8	822.5
510.0	838.9
510.2	855.9
510.4	872.4
510.6	890.7
510.8	905.9
511.0	921.5
511.2	936.5
511.4	949.7
511.6	961.3
511.8	972.5
512.0	988.0
512.2	1008
512.4	1028
512.6	1044
512.8	1061
513.0	1077
513.2	1092
513.4	1112
513.6	1128
513.8	1142
514.0	1161
514.2	1184
514.4	1202
514.6	1220
514.8	1235
515.0	1249
515.2	1266
515.4	1287
515.6	1313
515.8	1336
516.0	1354
516.2	1369
516.4	1386
516.6	1408
516.8	1438
517.0	1460
517.2	1480
517.4	1494
517.6	1507
517.8	1524
518.0	1545
518.2	1568
518.4	1591
518.6	1610
518.8	1628
519.0	1652
519.2	1677
519.4	1703
519.6	1724
519.8	1743
520.0	1760
520.2	1782
520.4	1803
520.6	1825
520.8	1845
521.0	1871
521.2	1889
521.4	1907
521.6	1930
521.8	1951
522.0	1974
522.2	1998
522.4	2021
522.6	2042
522.8	2062
523.0	2083
523.2	2101
523.4	2123
523.6	2148
523.8	2169
524.0	2186
524.2	2206
524.4	2226
524.6	2247
524.8	2270
525.0	2296
525.2	2320
525.4	2344
525.6	2372
525.8	2388
526.0	2405
526.2	2424
526.4	2449
526.6	2477
526.8	2510
527.0	2535
527.2	2554
527.4	2569
527.6	2594
527.8	2621
528.0	2647
528.2	2670
528.4	2690
528.6	2714
528.8	2737
529.0	2761
529.2	2782
529.4	2802
529.6	2821
529.8	2846
530.0	2869
530.2	2890
530.4	2915
530.6	2936
530.8	2959
531.0	2982
531.2	3001
531.4	3028
531.6	3054
531.8	3075
532.0	3104
532.2	3131
532.4	3145
532.6	3177
532.8	3197
533.0	3215
533.2	3237
533.4	3258
533.6	3273
533.8	3294
534.0	3307
534.2	3330
534.4	3351
534.6	3375
534.8	3403
535.0	3429
535.2	3455
535.4	3491
535.6	3515
535.8	3540
536.0	3554
536.2	3570
536.4	3589
536.6	3616
536.8	3635
537.0	3662
537.2	3677
537.4	3699
537.6	3719
537.8	3743
538.0	3763
538.2	3783
538.4	3791
538.6	3815
538.8	3831
539.0	3852
539.2	3875
539.4	3892
539.6	3910
539.8	3937
540.0	3959
540.2	3986
540.4	4007
540.6	4022
540.8	4034
541.0	4047
541.2	4062
541.4	4085
541.6	4112
541.8	4138
542.0	4151
542.2	4164
542.4	4168
542.6	4180
542.8	4198
543.0	4225
543.2	4244
543.4	4265
543.6	4288
543.8	4305
544.0	4312
544.2	4331
544.4	4341
544.6	4364
544.8	4379
545.0	4387
545.2	4394
545.4	4415
545.6	4440
545.8	4474
546.0	4490
546.2	4507
546.4	4520
546.6	4535
546.8	4542
547.0	4553
547.2	4560
547.4	4582
547.6	4597
547.8	4613
548.0	4620
548.2	4632
548.4	4642
548.6	4664
548.8	4675
549.0	4692
549.2	4706
549.4	4719
549.6	4722
549.8	4729
550.0	4736
550.2	4746
550.4	4760
550.6	4778
550.8	4787
551.0	4798
551.2	4803
551.4	4807
551.6	4816
551.8	4832
552.0	4837
552.2	4848
552.4	4849
552.6	4861
552.8	4878
553.0	4894
553.2	4899
553.4	4899
553.6	4894
553.8	4903
554.0	4915
554.2	4922
554.4	4933
554.6	4934
554.8	4925
555.0	4930
555.2	4939
555.4	4935
555.6	4944
555.8	4950
556.0	4951
556.2	4963
556.4	4973
556.6	4970
556.8	4979
557.0	4983
557.2	4993
557.4	5002
557.6	5010
557.8	5013
558.0	5020
558.2	5017
558.4	5008
558.6	4999
558.8	4997
559.0	4992
559.2	4997
559.4	5008
559.6	5001
559.8	4998
560.0	5001
560.2	5005
560.4	5015
560.6	5026
560.8	5021
561.0	5014
561.2	5013
561.4	5015
561.6	5015
561.8	5015
562.0	5013
562.2	5002
562.4	4993
562.6	4989
562.8	4985
563.0	4982
563.2	4991
563.4	4984
563.6	4978
563.8	4980
564.0	4968
564.2	4960
564.4	4958
564.6	4948
564.8	4944
565.0	4944
565.2	4946
565.4	4942
565.6	4942
565.8	4933
566.0	4923
566.2	4917
566.4	4914
566.6	4900
566.8	4899
567.0	4896
567.2	4891
567.4	4882
567.6	4865
567.8	4852
568.0	4843
568.2	4848
568.4	4851
568.6	4843
568.8	4831
569.0	4813
569.2	4797
569.4	4790
569.6	4792
569.8	4783
570.0	4777
570.2	4763
570.4	4756
570.6	4749
570.8	4748
571.0	4738
571.2	4733
571.4	4721
571.6	4712
571.8	4702
572.0	4690
572.2	4675
572.4	4668
572.6	4650
572.8	4645
573.0	4638
573.2	4636
573.4	4629
573.6	4620
573.8	4601
574.0	4586
574.2	4573
574.4	4569
574.6	4563
574.8	4555
575.0	4546
575.2	4531
575.4	4524
575.6	4509
575.8	4496
576.0	4486
576.2	4476
576.4	4464
576.6	4450
576.8	4439
577.0	4432
577.2	4426
577.4	4413
577.6	4397
577.8	4373
578.0	4365
578.2	4360
578.4	4358
578.6	4348
578.8	4331
579.0	4320
579.2	4305
579.4	4291
579.6	4280
579.8	4267
580.0	4248
580.2	4235
580.4	4226
580.6	4210
580.8	4197
581.0	4181
581.2	4168
581.4	4163
581.6	4164
581.8	4149
582.0	4133
582.2	4112
582.4	4101
582.6	4095
582.8	4086
583.0	4071
583.2	4058
583.4	4044
583.6	4031
583.8	4007
584.0	3988
584.2	3975
584.4	3965
584.6	3953
584.8	3941
585.0	3928
585.2	3922
585.4	3916
585.6	3906
585.8	3899
586.0	3884
586.2	3866
586.4	3846
586.6	3830
586.8	3812
587.0	3804
587.2	3791
587.4	3777
587.6	3763
587.8	3757
588.0	3738
588.2	3731
588.4	3716
588.6	3707
588.8	3704
589.0	3695
589.2	3674
589.4	3664
589.6	3646
589.8	3634
590.0	3629
590.2	3612
590.4	3590
590.6	3572
590.8	3562
591.0	3546
591.2	3532
591.4	3522
591.6	3503
591.8	3490
592.0	3484
592.2	3466
592.4	3449
592.6	3435
592.8	3425
593.0	3420
593.2	3404
593.4	3395
593.6	3382
593.8	3356
594.0	3348
594.2	3338
594.4	3324
594.6	3318
594.8	3309
595.0	3292
595.2	3281
595.4	3273
595.6	3265
595.8	3252
596.0	3245
596.2	3227
596.4	3204
596.6	3196
596.8	3190
597.0	3180
597.2	3175
597.4	3157
597.6	3138
597.8	3122
598.0	3107
598.2	3089
598.4	3078
598.6	3065
598.8	3058
599.0	3051
599.2	3039
599.4	3025
599.6	3007
599.8	2995
600.0	2980
600.2	2970
600.4	2958
600.6	2939
600.8	2925
601.0	2919
601.2	2908
601.4	2898
601.6	2889
601.8	2873
602.0	2861
602.2	2849
602.4	2836
602.6	2822
602.8	2813
603.0	2809
603.2	2793
603.4	2780
603.6	2768
603.8	2745
604.0	2730
604.2	2726
604.4	2704
604.6	2697
604.8	2689
605.0	2674
605.2	2667
605.4	2660
605.6	2645
605.8	2632
606.0	2619
606.2	2609
606.4	2601
606.6	2590
606.8	2577
607.0	2557
607.2	2547
607.4	2532
607.6	2525
607.8	2519
608.0	2506
608.2	2490
608.4	2474
608.6	2459
608.8	2453
609.0	2441
609.2	2434
609.4	2422
609.6	2408
609.8	2395
610.0	2384
610.2	2370
610.4	2360
610.6	2350
610.8	2340
611.0	2327
611.2	2318
611.4	2313
611.6	2303
611.8	2293
612.0	2277
612.2	2260
612.4	2244
612.6	2233
612.8	2226
613.0	2213
613.2	2202
613.4	2193
613.6	2181
613.8	2170
614.0	2167
614.2	2157
614.4	2147
614.6	2134
614.8	2115
615.0	2106
615.2	2102
615.4	2096
615.6	2086
615.8	2071
616.0	2053
616.2	2042
616.4	2034
616.6	2024
616.8	2014
617.0	2007
617.2	1995
617.4	1981
617.6	1970
617.8	1959
618.0	1953
618.2	1949
618.4	1942
618.6	1930
618.8	1920
619.0	1906
619.2	1897
619.4	1888
619.6	1879
619.8	1864
620.0	1851
620.2	1839
620.4	1829
620.6	1817
620.8	1806
621.0	1793
621.2	1786
621.4	1781
621.6	1778
621.8	1768
622.0	1761
622.2	1749
622.4	1738
622.6	1724
622.8	1712
623.0	1703
623.2	1699
623.4	1693
623.6	1684
623.8	1672
624.0	1659
624.2	1652
624.4	1645
624.6	1638
624.8	1626
625.0	1616
625.2	1606
625.4	1595
625.6	1585
625.8	1577
626.0	1563
626.2	1553
626.4	1539
626.6	1529
626.8	1520
627.0	1517
627.2	1512
627.4	1506
627.6	1499
627.8	1492
628.0	1485
628.2	1479
628.4	1472
628.6	1461
628.8	1449
629.0	1435
629.2	1426
629.4	1418
629.6	1410
629.8	1401
630.0	1393
630.2	1385
630.4	1380
630.6	1376
630.8	1368
631.0	1360
631.2	1355
631.4	1343
631.6	1334
631.8	1324
632.0	1314
632.2	1309
632.4	1308
632.6	1298
632.8	1288
633.0	1277
633.2	1271
633.4	1270
633.6	1266
633.8	1258
634.0	1249
634.2	1236
634.4	1229
634.6	1222
634.8	1219
635.0	1214
635.2	1210
635.4	1202
635.6	1191
635.8	1180
636.0	1173
636.2	1165
636.4	1162
636.6	1158
636.8	1147
637.0	1141
637.2	1133
637.4	1127
637.6	1119
637.8	1110
638.0	1099
638.2	1091
638.4	1088
638.6	1085
638.8	1079
639.0	1074
639.2	1068
639.4	1062
639.6	1058
639.8	1052
640.0	1044
640.2	1033
640.4	1023
640.6	1015
640.8	1008
641.0	1003
641.2	998.0
641.4	992.3
641.6	986.5
641.8	983.7
642.0	978.4
642.2	972.7
642.4	968.7
642.6	963.0
642.8	958.3
643.0	952.3
643.2	946.1
643.4	941.6
643.6	936.7
643.8	925.9
644.0	917.5
644.2	907.6
644.4	907.0
644.6	905.8
644.8	900.7
645.0	888.7
645.2	882.3
645.4	875.7
645.6	872.8
645.8	867.5
646.0	860.2
646.2	852.5
646.4	848.8
646.6	845.8
646.8	842.2
647.0	840.9
647.2	835.0
647.4	832.2
647.6	822.4
647.8	814.4
648.0	807.1
648.2	803.1
648.4	797.0
648.6	798.2
648.8	794.8
649.0	789.6
649.2	783.1
649.4	777.3
649.6	771.5
649.8	765.2
650.0	760.7
650.2	752.5
650.4	749.7
650.6	746.5
650.8	745.3
651.0	738.4
651.2	733.4
651.4	726.4
651.6	722.1
651.8	720.6
652.0	717.6
652.2	715.2
652.4	711.5
652.6	705.1
652.8	698.3
653.0	695.3
653.2	690.7
653.4	686.9
653.6	682.8
653.8	678.3
654.0	674.1
654.2	669.6
654.4	667.1
654.6	659.2
654.8	652.0
655.0	647.8
655.2	643.4
655.4	639.7
655.6	636.2
655.8	632.7
656.0	629.9
656.2	627.4
656.4	621.8
656.6	618.7
656.8	613.9
657.0	609.0
657.2	605.5
657.4	601.6
657.6	596.6
657.8	593.3
658.0	590.5
658.2	585.2
658.4	581.9
658.6	578.9
658.8	576.0
659.0	572.6
659.2	568.8
659.4	562.6
659.6	561.6
659.8	558.5
660.0	556.5
660.2	552.8
660.4	547.5
660.6	539.6
660.8	536.0
661.0	530.9
661.2	527.6
661.4	527.3
661.6	525.2
661.8	523.6
662.0	521.2
662.2	517.3
662.4	515.2
662.6	512.9
662.8	506.4
663.0	503.7
663.2	501.7
663.4	500.1
663.6	497.4
663.8	491.8
664.0	486.4
664.2	481.2
664.4	479.3
664.6	477.9
664.8	475.3
665.0	470.7
665.2	466.3
665.4	459.0
665.6	453.5
665.8	451.3
666.0	453.8
666.2	453.1
666.4	452.1
666.6	448.2
666.8	441.4
667.0	437.5
667.2	435.3
667.4	432.9
667.6	429.1
667.8	424.4
668.0	420.6
668.2	419.4
668.4	417.1
668.6	417.1
668.8	414.2
669.0	410.0
669.2	407.3
669.4	405.6
669.6	403.1
669.8	402.8
670.0	400.4
670.2	396.7
670.4	393.4
670.6	391.1
670.8	387.9
671.0	385.5
671.2	382.3
671.4	378.9
671.6	374.4
671.8	371.9
672.0	369.2
672.2	368.6
672.4	367.7
672.6	365.2
672.8	361.0
673.0	355.9
673.2	351.1
673.4	351.0
673.6	351.0
673.8	352.1
674.0	353.3
674.2	349.3
674.4	345.4
674.6	341.7
674.8	338.0
675.0	335.4
675.2	333.7
675.4	330.2
675.6	328.0
675.8	325.3
676.0	325.2
676.2	323.2
676.4	322.5
676.6	320.1
676.8	316.9
677.0	312.7
677.2	311.0
677.4	309.2
677.6	307.6
677.8	305.0
678.0	302.5
678.2	297.6
678.4	294.9
678.6	295.6
678.8	294.8
679.0	293.1
679.2	291.4
679.4	288.9
679.6	285.8
679.8	284.6
680.0	282.1
680.2	281.0
680.4	278.6
680.6	277.9
680.8	277.3
681.0	274.9
681.2	271.6
681.4	269.5
681.6	265.7
681.8	264.1
682.0	264.0
682.2	262.9
682.4	260.2
682.6	259.6
682.8	256.9
683.0	253.9
683.2	252.5
683.4	250.2
683.6	247.9
683.8	246.9
684.0	244.5
684.2	242.6
684.4	243.5
684.6	242.7
684.8	242.4
685.0	239.2
685.2	235.7
685.4	232.7
685.6	231.7
685.8	230.5
686.0	228.8
686.2	227.6
686.4	227.0
686.6	226.3
686.8	226.4
687.0	225.6
687.2	222.7
687.4	221.0
687.6	220.4
687.8	218.2
688.0	217.0
688.2	213.9
688.4	211.2
688.6	208.4
688.8	206.5
689.0	205.2
689.2	204.4
689.4	202.1
689.6	202.5
689.8	202.4
690.0	201.3
690.2	201.3
690.4	199.4
690.6	196.2
690.8	194.5
691.0	191.7
691.2	190.1
691.4	190.2
691.6	191.1
691.8	191.0
692.0	190.6
692.2	187.9
692.4	185.6
692.6	182.2
692.8	181.2
693.0	180.9
693.2	181.3
693.4	181.3
693.6	180.4
693.8	178.3
694.0	177.0
694.2	177.0
694.4	175.8
694.6	174.6
694.8	172.1
695.0	169.9
695.2	168.0
695.4	167.1
695.6	165.1
695.8	163.9
696.0	162.2
696.2	160.8
696.4	161.6
696.6	161.7
696.8	161.2
697.0	160.8
697.2	160.2
697.4	157.4
697.6	155.6
697.8	154.7
698.0	154.1
698.2	154.1
698.4	153.5
698.6	151.5
698.8	148.6
699.0	147.6
699.2	147.7
699.4	147.8
699.6	148.7
699.8	148.2
700.0	147.3
700.2	145.8
700.4	145.0
700.6	142.9
700.8	142.5
701.0	140.9
701.2	141.8
701.4	141.1
701.6	140.5
701.8	137.9
702.0	136.0
702.2	134.6
702.4	134.8
702.6	133.7
702.8	134.5
703.0	134.4
703.2	133.8
703.4	132.9
703.6	131.3
703.8	130.2
704.0	129.8
704.2	128.5
704.4	127.8
704.6	127.6
704.8	126.6
705.0	127.0
705.2	125.7
705.4	124.9
705.6	125.0
705.8	125.8
706.0	125.0
706.2	123.4
706.4	120.9
706.6	119.2
706.8	118.3
707.0	118.5
707.2	118.0
707.4	117.1
707.6	116.5
707.8	114.9
708.0	114.2
708.2	113.6
708.4	113.1
708.6	112.8
708.8	112.3
709.0	111.0
709.2	110.5
709.4	109.7
709.6	109.5
709.8	109.0
710.0	109.0
710.2	108.4
710.4	108.1
710.6	106.6
710.8	105.8
711.0	104.5
711.2	103.9
711.4	103.5
711.6	102.7
711.8	101.8
712.0	102.0
712.2	101.1
712.4	100.7
712.6	100.2
712.8	98.85
713.0	97.69
713.2	96.28
713.4	95.26
713.6	95.59
713.8	95.42
714.0	96.27
714.2	95.29
714.4	93.90
714.6	92.06
714.8	91.31
715.0	90.18
715.2	91.31
715.4	91.54
715.6	91.98
715.8	90.50
716.0	89.03
716.2	87.67
716.4	85.99
716.6	85.61
716.8	84.99
717.0	84.65
717.2	84.36
717.4	84.26
717.6	82.77
717.8	82.48
718.0	81.68
718.2	80.69
718.4	80.49
718.6	78.82
718.8	79.02
719.0	80.01
