Sample:	'20211010A(EM)
File name:	G-NI 7 700.FDS
Run date:	'18:53:53, 06/19/2023
Operator:	Administrator
Comment:	'

Instrument
Model:	F-4700 FL Spectrophotometer
Serial number:	2019-001
ROM Version:	5J24010 00

Instrument parameters
Measurement type:	Wavelength scan
Scan mode:	Emission
Data mode:	Fluorescence
EX WL:	400.0 nm
EM  Start WL:	420.0 nm
EM  End WL:	800.0 nm
Scan speed:	1200 nm/min
Delay:	0.0 s
EX Slit:	10.0 nm
EM Slit:	10.0 nm
PMT Voltage:	500 V
Response:	0.002 s
Corrected spectra:	Off
Shutter control:	On

Processing performed
Savitsky-Golay smoothed
Smoothing order:	3
Number of points:	7
Number of times:	1

Peak integration
Integration method:	Rectangular
Sensitivity:	1
Threshold:	1.000

Peaks
No.	Start(nm)	Apex(nm)	End(nm)	Height(Data)	Valley(nm)	Valley(Data)
1	420.0	558.4	719.2	3712	719.2	58.76
2	719.2	720.0	757.0	59.96	757.0	15.61
3	757.0	757.8	762.8	16.70	762.8	12.88
4	762.8	763.2	781.8	14.09	781.8	7.440
5	781.8	785.2	785.8	8.756	785.8	7.714

Data points
nm	Data
420.0	1.581
420.2	1.423
420.4	1.534
420.6	1.759
420.8	1.876
421.0	1.824
421.2	1.616
421.4	1.447
421.6	1.378
421.8	1.511
422.0	1.544
422.2	1.547
422.4	1.543
422.6	1.504
422.8	1.521
423.0	1.458
423.2	1.355
423.4	1.463
423.6	1.550
423.8	1.539
424.0	1.491
424.2	1.341
424.4	1.177
424.6	1.171
424.8	1.268
425.0	1.289
425.2	1.328
425.4	1.447
425.6	1.497
425.8	1.518
426.0	1.591
426.2	1.576
426.4	1.510
426.6	1.452
426.8	1.428
427.0	1.443
427.2	1.511
427.4	1.481
427.6	1.430
427.8	1.384
428.0	1.341
428.2	1.548
428.4	1.651
428.6	1.573
428.8	1.427
429.0	1.399
429.2	1.440
429.4	1.616
429.6	1.561
429.8	1.427
430.0	1.325
430.2	1.324
430.4	1.318
430.6	1.300
430.8	1.349
431.0	1.388
431.2	1.427
431.4	1.467
431.6	1.487
431.8	1.570
432.0	1.601
432.2	1.493
432.4	1.300
432.6	1.271
432.8	1.481
433.0	1.605
433.2	1.576
433.4	1.510
433.6	1.397
433.8	1.425
434.0	1.471
434.2	1.427
434.4	1.421
434.6	1.462
434.8	1.370
435.0	1.522
435.2	1.569
435.4	1.515
435.6	1.580
435.8	1.660
436.0	1.669
436.2	1.951
436.4	1.930
436.6	1.822
436.8	1.959
437.0	2.022
437.2	2.010
437.4	1.980
437.6	1.661
437.8	1.475
438.0	1.423
438.2	1.565
438.4	1.695
438.6	1.832
438.8	1.833
439.0	1.802
439.2	1.589
439.4	1.712
439.6	1.620
439.8	1.690
440.0	1.631
440.2	1.724
440.4	1.754
440.6	1.861
440.8	1.782
441.0	1.997
441.2	1.874
441.4	1.840
441.6	1.774
441.8	1.675
442.0	1.602
442.2	1.715
442.4	1.692
442.6	1.740
442.8	1.711
443.0	1.771
443.2	1.776
443.4	1.715
443.6	1.693
443.8	1.730
444.0	1.639
444.2	1.663
444.4	1.690
444.6	1.619
444.8	1.584
445.0	1.590
445.2	1.747
445.4	1.925
445.6	1.934
445.8	1.741
446.0	1.655
446.2	1.719
446.4	1.798
446.6	1.909
446.8	2.000
447.0	1.917
447.2	1.940
447.4	2.068
447.6	1.950
447.8	1.780
448.0	1.767
448.2	1.808
448.4	1.813
448.6	1.955
448.8	2.008
449.0	1.891
449.2	1.820
449.4	1.949
449.6	2.011
449.8	2.059
450.0	2.102
450.2	1.956
450.4	1.866
450.6	1.814
450.8	1.933
451.0	2.027
451.2	2.159
451.4	2.179
451.6	2.197
451.8	2.258
452.0	2.305
452.2	2.361
452.4	2.222
452.6	2.192
452.8	2.178
453.0	2.296
453.2	2.214
453.4	2.366
453.6	2.265
453.8	2.216
454.0	2.300
454.2	2.166
454.4	2.066
454.6	2.070
454.8	2.168
455.0	2.197
455.2	2.327
455.4	2.251
455.6	2.325
455.8	2.178
456.0	2.187
456.2	2.220
456.4	2.247
456.6	2.263
456.8	2.439
457.0	2.415
457.2	2.188
457.4	2.246
457.6	2.307
457.8	2.462
458.0	2.677
458.2	2.944
458.4	2.775
458.6	2.786
458.8	2.714
459.0	2.537
459.2	2.447
459.4	2.469
459.6	2.394
459.8	2.526
460.0	2.648
460.2	2.579
460.4	2.601
460.6	2.646
460.8	2.614
461.0	2.639
461.2	2.750
461.4	2.763
461.6	2.795
461.8	2.844
462.0	2.852
462.2	2.827
462.4	2.824
462.6	2.834
462.8	2.679
463.0	2.664
463.2	2.872
463.4	2.944
463.6	2.892
463.8	2.914
464.0	2.781
464.2	2.895
464.4	2.966
464.6	3.047
464.8	3.230
465.0	3.431
465.2	3.465
465.4	3.466
465.6	3.375
465.8	3.376
466.0	3.286
466.2	3.451
466.4	3.494
466.6	3.515
466.8	3.457
467.0	3.395
467.2	3.359
467.4	3.583
467.6	3.524
467.8	3.550
468.0	3.647
468.2	3.918
468.4	4.249
468.6	4.513
468.8	4.520
469.0	4.637
469.2	4.561
469.4	4.517
469.6	4.330
469.8	4.116
470.0	3.897
470.2	3.988
470.4	3.828
470.6	4.125
470.8	4.595
471.0	4.992
471.2	5.231
471.4	5.074
471.6	4.708
471.8	4.844
472.0	4.823
472.2	5.088
472.4	5.595
472.6	5.592
472.8	5.391
473.0	5.579
473.2	5.618
473.4	5.690
473.6	6.011
473.8	6.102
474.0	5.850
474.2	5.994
474.4	6.218
474.6	6.260
474.8	6.338
475.0	6.312
475.2	6.307
475.4	6.526
475.6	7.119
475.8	7.226
476.0	7.337
476.2	7.441
476.4	7.485
476.6	7.698
476.8	8.200
477.0	7.911
477.2	8.001
477.4	8.161
477.6	8.167
477.8	8.581
478.0	8.950
478.2	9.208
478.4	9.860
478.6	10.49
478.8	10.87
479.0	11.00
479.2	10.63
479.4	10.86
479.6	10.93
479.8	11.26
480.0	11.58
480.2	11.91
480.4	12.33
480.6	13.41
480.8	13.59
481.0	13.83
481.2	13.52
481.4	13.60
481.6	14.09
481.8	14.67
482.0	14.95
482.2	15.59
482.4	16.22
482.6	17.48
482.8	18.12
483.0	18.39
483.2	18.69
483.4	19.05
483.6	19.50
483.8	20.11
484.0	20.62
484.2	21.70
484.4	23.06
484.6	24.26
484.8	24.80
485.0	24.85
485.2	25.26
485.4	26.28
485.6	26.95
485.8	27.77
486.0	28.40
486.2	29.03
486.4	30.13
486.6	31.34
486.8	32.39
487.0	33.83
487.2	35.31
487.4	36.49
487.6	37.67
487.8	38.72
488.0	39.81
488.2	40.36
488.4	41.43
488.6	42.22
488.8	43.70
489.0	46.87
489.2	49.78
489.4	51.75
489.6	53.36
489.8	54.47
490.0	56.15
490.2	58.38
490.4	59.26
490.6	61.75
490.8	63.40
491.0	66.70
491.2	69.54
491.4	71.30
491.6	72.92
491.8	76.37
492.0	78.92
492.2	82.04
492.4	84.56
492.6	86.24
492.8	89.64
493.0	92.08
493.2	95.80
493.4	98.59
493.6	101.6
493.8	104.1
494.0	107.5
494.2	110.5
494.4	114.8
494.6	116.9
494.8	120.5
495.0	123.5
495.2	127.6
495.4	133.0
495.6	137.9
495.8	140.9
496.0	145.3
496.2	149.6
496.4	154.4
496.6	159.4
496.8	163.7
497.0	169.1
497.2	174.7
497.4	178.6
497.6	181.9
497.8	185.7
498.0	190.1
498.2	198.0
498.4	206.0
498.6	211.3
498.8	216.3
499.0	221.1
499.2	227.1
499.4	234.5
499.6	240.8
499.8	247.4
500.0	252.6
500.2	259.3
500.4	266.7
500.6	273.4
500.8	280.1
501.0	287.8
501.2	293.7
501.4	300.4
501.6	306.9
501.8	315.2
502.0	323.7
502.2	333.7
502.4	343.1
502.6	350.1
502.8	355.4
503.0	363.8
503.2	369.9
503.4	380.6
503.6	389.2
503.8	397.3
504.0	404.1
504.2	416.4
504.4	425.9
504.6	436.1
504.8	444.5
505.0	450.6
505.2	459.7
505.4	472.8
505.6	483.4
505.8	492.1
506.0	503.0
506.2	511.9
506.4	525.4
506.6	536.3
506.8	547.6
507.0	553.6
507.2	563.9
507.4	576.9
507.6	590.8
507.8	601.6
508.0	613.5
508.2	621.1
508.4	633.1
508.6	647.1
508.8	659.4
509.0	671.1
509.2	682.9
509.4	695.7
509.6	709.1
509.8	722.1
510.0	732.3
510.2	742.1
510.4	754.2
510.6	770.2
510.8	783.6
511.0	798.5
511.2	812.1
511.4	824.7
511.6	837.0
511.8	851.5
512.0	860.6
512.2	872.6
512.4	887.5
512.6	900.6
512.8	913.7
513.0	932.7
513.2	945.7
513.4	961.1
513.6	978.0
513.8	989.6
514.0	1003
514.2	1022
514.4	1035
514.6	1051
514.8	1067
515.0	1080
515.2	1095
515.4	1112
515.6	1126
515.8	1139
516.0	1150
516.2	1165
516.4	1180
516.6	1199
516.8	1217
517.0	1235
517.2	1252
517.4	1267
517.6	1279
517.8	1293
518.0	1305
518.2	1323
518.4	1337
518.6	1356
518.8	1376
519.0	1392
519.2	1408
519.4	1424
519.6	1438
519.8	1459
520.0	1475
520.2	1490
520.4	1507
520.6	1524
520.8	1542
521.0	1559
521.2	1571
521.4	1587
521.6	1605
521.8	1622
522.0	1640
522.2	1658
522.4	1676
522.6	1696
522.8	1715
523.0	1731
523.2	1742
523.4	1758
523.6	1774
523.8	1792
524.0	1808
524.2	1828
524.4	1841
524.6	1858
524.8	1876
525.0	1895
525.2	1917
525.4	1940
525.6	1955
525.8	1964
526.0	1976
526.2	1991
526.4	2009
526.6	2034
526.8	2055
527.0	2074
527.2	2091
527.4	2102
527.6	2115
527.8	2131
528.0	2146
528.2	2165
528.4	2185
528.6	2205
528.8	2225
529.0	2243
529.2	2263
529.4	2273
529.6	2283
529.8	2298
530.0	2314
530.2	2332
530.4	2353
530.6	2369
530.8	2387
531.0	2412
531.2	2427
531.4	2442
531.6	2452
531.8	2467
532.0	2482
532.2	2504
532.4	2516
532.6	2529
532.8	2550
533.0	2572
533.2	2587
533.4	2607
533.6	2620
533.8	2635
534.0	2654
534.2	2667
534.4	2682
534.6	2698
534.8	2713
535.0	2730
535.2	2741
535.4	2752
535.6	2767
535.8	2782
536.0	2801
536.2	2816
536.4	2826
536.6	2837
536.8	2849
537.0	2860
537.2	2880
537.4	2896
537.6	2915
537.8	2927
538.0	2941
538.2	2954
538.4	2962
538.6	2977
538.8	2998
539.0	3008
539.2	3021
539.4	3044
539.6	3048
539.8	3067
540.0	3085
540.2	3104
540.4	3115
540.6	3126
540.8	3129
541.0	3144
541.2	3155
541.4	3178
541.6	3193
541.8	3204
542.0	3222
542.2	3232
542.4	3232
542.6	3238
542.8	3242
543.0	3252
543.2	3274
543.4	3284
543.6	3293
543.8	3306
544.0	3316
544.2	3327
544.4	3344
544.6	3355
544.8	3367
545.0	3377
545.2	3389
545.4	3395
545.6	3400
545.8	3409
546.0	3419
546.2	3428
546.4	3442
546.6	3447
546.8	3449
547.0	3456
547.2	3464
547.4	3470
547.6	3485
547.8	3501
548.0	3517
548.2	3528
548.4	3538
548.6	3539
548.8	3546
549.0	3554
549.2	3564
549.4	3569
549.6	3579
549.8	3580
550.0	3582
550.2	3588
550.4	3593
550.6	3601
550.8	3607
551.0	3600
551.2	3597
551.4	3603
551.6	3615
551.8	3626
552.0	3640
552.2	3639
552.4	3637
552.6	3639
552.8	3649
553.0	3657
553.2	3671
553.4	3673
553.6	3672
553.8	3669
554.0	3672
554.2	3675
554.4	3684
554.6	3688
554.8	3682
555.0	3682
555.2	3684
555.4	3686
555.6	3699
555.8	3705
556.0	3702
556.2	3700
556.4	3698
556.6	3697
556.8	3707
557.0	3702
557.2	3703
557.4	3698
557.6	3703
557.8	3703
558.0	3712
558.2	3707
558.4	3712
558.6	3708
558.8	3706
559.0	3701
559.2	3699
559.4	3696
559.6	3700
559.8	3696
560.0	3691
560.2	3696
560.4	3695
560.6	3697
560.8	3699
561.0	3696
561.2	3693
561.4	3687
561.6	3681
561.8	3679
562.0	3680
562.2	3686
562.4	3683
562.6	3677
562.8	3679
563.0	3673
563.2	3671
563.4	3666
563.6	3654
563.8	3649
564.0	3644
564.2	3634
564.4	3639
564.6	3640
564.8	3633
565.0	3629
565.2	3619
565.4	3603
565.6	3605
565.8	3609
566.0	3599
566.2	3597
566.4	3592
566.6	3576
566.8	3576
567.0	3582
567.2	3578
567.4	3577
567.6	3570
567.8	3563
568.0	3554
568.2	3548
568.4	3534
568.6	3528
568.8	3521
569.0	3524
569.2	3514
569.4	3518
569.6	3510
569.8	3499
570.0	3492
570.2	3480
570.4	3465
570.6	3461
570.8	3445
571.0	3431
571.2	3433
571.4	3427
571.6	3427
571.8	3424
572.0	3411
572.2	3406
572.4	3402
572.6	3391
572.8	3378
573.0	3363
573.2	3345
573.4	3343
573.6	3341
573.8	3338
574.0	3333
574.2	3323
574.4	3313
574.6	3313
574.8	3303
575.0	3288
575.2	3280
575.4	3266
575.6	3262
575.8	3261
576.0	3257
576.2	3251
576.4	3240
576.6	3224
576.8	3207
577.0	3198
577.2	3192
577.4	3190
577.6	3183
577.8	3169
578.0	3157
578.2	3149
578.4	3141
578.6	3135
578.8	3124
579.0	3110
579.2	3104
579.4	3094
579.6	3093
579.8	3084
580.0	3076
580.2	3066
580.4	3060
580.6	3048
580.8	3045
581.0	3028
581.2	3023
581.4	3012
581.6	3003
581.8	2987
582.0	2977
582.2	2967
582.4	2959
582.6	2951
582.8	2947
583.0	2936
583.2	2920
583.4	2912
583.6	2906
583.8	2897
584.0	2890
584.2	2883
584.4	2870
584.6	2860
584.8	2856
585.0	2840
585.2	2826
585.4	2817
585.6	2805
585.8	2793
586.0	2787
586.2	2778
586.4	2765
586.6	2758
586.8	2752
587.0	2747
587.2	2744
587.4	2736
587.6	2712
587.8	2699
588.0	2693
588.2	2684
588.4	2675
588.6	2675
588.8	2666
589.0	2655
589.2	2647
589.4	2637
589.6	2625
589.8	2621
590.0	2614
590.2	2599
590.4	2586
590.6	2576
590.8	2560
591.0	2550
591.2	2545
591.4	2540
591.6	2531
591.8	2519
592.0	2503
592.2	2493
592.4	2483
592.6	2472
592.8	2465
593.0	2448
593.2	2442
593.4	2440
593.6	2435
593.8	2425
594.0	2423
594.2	2412
594.4	2403
594.6	2385
594.8	2373
595.0	2363
595.2	2358
595.4	2351
595.6	2342
595.8	2323
596.0	2311
596.2	2305
596.4	2306
596.6	2295
596.8	2294
597.0	2280
597.2	2266
597.4	2255
597.6	2249
597.8	2240
598.0	2234
598.2	2215
598.4	2204
598.6	2193
598.8	2177
599.0	2171
599.2	2167
599.4	2159
599.6	2155
599.8	2146
600.0	2132
600.2	2127
600.4	2122
600.6	2112
600.8	2100
601.0	2090
601.2	2083
601.4	2081
601.6	2072
601.8	2057
602.0	2047
602.2	2039
602.4	2035
602.6	2034
602.8	2026
603.0	2022
603.2	2011
603.4	1997
603.6	1986
603.8	1975
604.0	1963
604.2	1958
604.4	1946
604.6	1937
604.8	1928
605.0	1920
605.2	1913
605.4	1910
605.6	1904
605.8	1898
606.0	1887
606.2	1877
606.4	1866
606.6	1851
606.8	1840
607.0	1830
607.2	1825
607.4	1822
607.6	1817
607.8	1808
608.0	1798
608.2	1787
608.4	1780
608.6	1770
608.8	1760
609.0	1755
609.2	1747
609.4	1737
609.6	1732
609.8	1721
610.0	1710
610.2	1703
610.4	1696
610.6	1685
610.8	1678
611.0	1665
611.2	1660
611.4	1651
611.6	1643
611.8	1631
612.0	1620
612.2	1607
612.4	1603
612.6	1602
612.8	1601
613.0	1596
613.2	1586
613.4	1573
613.6	1561
613.8	1553
614.0	1550
614.2	1548
614.4	1542
614.6	1534
614.8	1521
615.0	1512
615.2	1501
615.4	1492
615.6	1484
615.8	1484
616.0	1479
616.2	1475
616.4	1459
616.6	1446
616.8	1431
617.0	1428
617.2	1426
617.4	1422
617.6	1415
617.8	1405
618.0	1393
618.2	1383
618.4	1378
618.6	1370
618.8	1368
619.0	1360
619.2	1357
619.4	1348
619.6	1345
619.8	1336
620.0	1332
620.2	1322
620.4	1314
620.6	1304
620.8	1299
621.0	1291
621.2	1283
621.4	1278
621.6	1274
621.8	1264
622.0	1257
622.2	1250
622.4	1240
622.6	1238
622.8	1236
623.0	1230
623.2	1225
623.4	1214
623.6	1205
623.8	1197
624.0	1187
624.2	1180
624.4	1177
624.6	1168
624.8	1168
625.0	1160
625.2	1153
625.4	1143
625.6	1136
625.8	1125
626.0	1120
626.2	1112
626.4	1110
626.6	1100
626.8	1090
627.0	1083
627.2	1082
627.4	1083
627.6	1084
627.8	1072
628.0	1059
628.2	1051
628.4	1048
628.6	1042
628.8	1038
629.0	1029
629.2	1020
629.4	1014
629.6	1006
629.8	1002
630.0	999.2
630.2	995.1
630.4	989.8
630.6	982.6
630.8	977.3
631.0	972.7
631.2	969.6
631.4	961.0
631.6	957.1
631.8	951.6
632.0	951.3
632.2	946.8
632.4	941.9
632.6	930.0
632.8	923.2
633.0	914.5
633.2	907.4
633.4	901.4
633.6	894.9
633.8	891.9
634.0	892.1
634.2	887.8
634.4	880.4
634.6	875.1
634.8	870.1
635.0	870.0
635.2	867.6
635.4	862.6
635.6	854.9
635.8	848.8
636.0	845.0
636.2	838.2
636.4	830.0
636.6	821.8
636.8	815.1
637.0	815.2
637.2	815.5
637.4	813.4
637.6	808.3
637.8	800.0
638.0	791.6
638.2	789.4
638.4	785.4
638.6	784.3
638.8	780.7
639.0	774.5
639.2	767.1
639.4	761.1
639.6	754.5
639.8	748.2
640.0	742.9
640.2	736.1
640.4	736.1
640.6	733.1
640.8	727.8
641.0	724.6
641.2	720.7
641.4	715.6
641.6	715.0
641.8	708.4
642.0	699.4
642.2	694.1
642.4	690.9
642.6	687.2
642.8	686.3
643.0	684.1
643.2	680.6
643.4	679.5
643.6	676.3
643.8	670.1
644.0	663.0
644.2	654.0
644.4	646.9
644.6	644.1
644.8	639.7
645.0	638.3
645.2	635.4
645.4	632.9
645.6	628.5
645.8	625.2
646.0	622.9
646.2	617.4
646.4	613.1
646.6	610.9
646.8	604.3
647.0	600.1
647.2	600.1
647.4	594.0
647.6	590.5
647.8	586.9
648.0	580.4
648.2	574.8
648.4	571.1
648.6	566.4
648.8	564.9
649.0	563.8
649.2	560.9
649.4	558.9
649.6	555.9
649.8	552.7
650.0	551.3
650.2	546.7
650.4	543.1
650.6	541.6
650.8	538.9
651.0	534.8
651.2	530.1
651.4	524.2
651.6	520.3
651.8	517.9
652.0	513.4
652.2	511.1
652.4	508.6
652.6	509.1
652.8	504.6
653.0	501.3
653.2	494.4
653.4	490.0
653.6	485.4
653.8	485.1
654.0	481.6
654.2	479.7
654.4	477.9
654.6	474.4
654.8	468.6
655.0	463.9
655.2	460.3
655.4	461.1
655.6	464.1
655.8	462.3
656.0	459.6
656.2	454.5
656.4	449.5
656.6	443.8
656.8	439.5
657.0	435.6
657.2	435.1
657.4	434.4
657.6	432.1
657.8	426.7
658.0	424.1
658.2	421.6
658.4	420.4
658.6	417.7
658.8	416.6
659.0	413.3
659.2	410.6
659.4	407.8
659.6	406.4
659.8	402.5
660.0	401.9
660.2	399.2
660.4	395.4
660.6	392.0
660.8	389.1
661.0	383.5
661.2	380.5
661.4	378.1
661.6	377.1
661.8	373.1
662.0	372.9
662.2	371.4
662.4	370.7
662.6	368.2
662.8	366.2
663.0	361.9
663.2	358.7
663.4	356.2
663.6	355.0
663.8	354.5
664.0	352.9
664.2	350.7
664.4	344.7
664.6	340.7
664.8	336.8
665.0	336.8
665.2	336.4
665.4	334.3
665.6	330.2
665.8	327.8
666.0	325.9
666.2	325.5
666.4	323.0
666.6	320.6
666.8	317.6
667.0	315.9
667.2	317.7
667.4	316.0
667.6	311.6
667.8	308.1
668.0	305.1
668.2	305.3
668.4	305.3
668.6	303.4
668.8	300.0
669.0	297.0
669.2	294.4
669.4	294.1
669.6	290.9
669.8	289.7
670.0	287.6
670.2	285.2
670.4	283.0
670.6	282.1
670.8	279.8
671.0	279.9
671.2	279.0
671.4	275.8
671.6	271.2
671.8	268.9
672.0	265.9
672.2	265.7
672.4	264.7
672.6	264.0
672.8	262.0
673.0	261.5
673.2	258.9
673.4	257.0
673.6	254.7
673.8	253.5
674.0	252.1
674.2	250.8
674.4	250.1
674.6	247.1
674.8	244.9
675.0	243.9
675.2	242.5
675.4	240.2
675.6	238.5
675.8	233.9
676.0	232.4
676.2	234.0
676.4	234.7
676.6	233.4
676.8	230.5
677.0	226.7
677.2	225.2
677.4	224.6
677.6	223.3
677.8	222.5
678.0	220.3
678.2	218.7
678.4	218.3
678.6	218.5
678.8	217.1
679.0	215.6
679.2	212.2
679.4	208.6
679.6	206.1
679.8	205.9
680.0	204.1
680.2	202.9
680.4	201.6
680.6	200.1
680.8	199.1
681.0	199.5
681.2	198.3
681.4	196.6
681.6	196.6
681.8	194.9
682.0	192.4
682.2	190.4
682.4	188.2
682.6	186.1
682.8	186.5
683.0	185.9
683.2	184.7
683.4	184.7
683.6	183.3
683.8	181.3
684.0	179.0
684.2	178.6
684.4	177.8
684.6	177.0
684.8	175.1
685.0	172.9
685.2	170.7
685.4	170.2
685.6	170.4
685.8	171.1
686.0	169.5
686.2	166.9
686.4	165.0
686.6	163.6
686.8	164.6
687.0	164.6
687.2	161.3
687.4	159.4
687.6	158.0
687.8	157.5
688.0	159.1
688.2	157.9
688.4	156.5
688.6	155.6
688.8	153.9
689.0	152.3
689.2	152.4
689.4	151.1
689.6	150.0
689.8	148.4
690.0	148.5
690.2	146.9
690.4	146.3
690.6	146.1
690.8	144.0
691.0	143.2
691.2	142.6
691.4	140.0
691.6	138.3
691.8	138.7
692.0	137.4
692.2	138.3
692.4	138.0
692.6	137.6
692.8	135.0
693.0	133.4
693.2	130.6
693.4	129.5
693.6	129.6
693.8	130.5
694.0	129.3
694.2	129.9
694.4	129.5
694.6	127.7
694.8	126.9
695.0	124.9
695.2	123.1
695.4	122.8
695.6	124.1
695.8	123.7
696.0	122.1
696.2	119.5
696.4	117.6
696.6	117.0
696.8	117.9
697.0	118.4
697.2	117.4
697.4	116.1
697.6	115.1
697.8	114.5
698.0	114.0
698.2	114.3
698.4	114.3
698.6	113.5
698.8	113.2
699.0	111.3
699.2	110.7
699.4	109.9
699.6	109.4
699.8	109.5
700.0	109.1
700.2	107.2
700.4	106.4
700.6	104.5
700.8	104.7
701.0	104.4
701.2	103.6
701.4	102.9
701.6	102.7
701.8	101.6
702.0	101.3
702.2	100.1
702.4	99.75
702.6	100.8
702.8	101.1
703.0	99.98
703.2	99.11
703.4	97.44
703.6	98.28
703.8	99.22
704.0	98.62
704.2	96.97
704.4	94.95
704.6	92.30
704.8	92.45
705.0	92.20
705.2	92.30
705.4	92.04
705.6	91.50
705.8	90.02
706.0	89.55
706.2	89.59
706.4	89.93
706.6	89.70
706.8	89.80
707.0	89.04
707.2	88.26
707.4	88.27
707.6	87.44
707.8	86.49
708.0	85.74
708.2	84.73
708.4	84.47
708.6	84.99
708.8	84.28
709.0	83.67
709.2	83.79
709.4	82.55
709.6	83.18
709.8	83.36
710.0	81.86
710.2	80.48
710.4	79.34
710.6	77.92
710.8	78.40
711.0	78.34
711.2	78.05
711.4	78.68
711.6	78.88
711.8	78.49
712.0	77.50
712.2	75.92
712.4	73.18
712.6	72.89
712.8	72.60
713.0	71.33
713.2	70.58
713.4	71.18
713.6	70.51
713.8	71.37
714.0	70.66
714.2	70.06
714.4	69.99
714.6	69.58
714.8	68.84
715.0	68.28
715.2	67.30
715.4	68.00
715.6	68.86
715.8	68.00
716.0	67.05
716.2	65.59
716.4	64.40
716.6	64.70
716.8	65.35
717.0	66.05
717.2	65.96
717.4	64.40
717.6	62.96
717.8	62.33
718.0	61.72
718.2	61.90
718.4	61.54
718.6	60.53
718.8	59.62
719.0	59.48
719.2	58.76
719.4	58.84
719.6	59.26
719.8	59.45
720.0	59.96
720.2	59.70
