Sample:	'20211010A(EM)
File name:	G-NI 4 400.FDS
Run date:	'18:19:05, 06/19/2023
Operator:	Administrator
Comment:	'

Instrument
Model:	F-4700 FL Spectrophotometer
Serial number:	2019-001
ROM Version:	5J24010 00

Instrument parameters
Measurement type:	Wavelength scan
Scan mode:	Emission
Data mode:	Fluorescence
EX WL:	400.0 nm
EM  Start WL:	420.0 nm
EM  End WL:	800.0 nm
Scan speed:	1200 nm/min
Delay:	0.0 s
EX Slit:	10.0 nm
EM Slit:	10.0 nm
PMT Voltage:	500 V
Response:	0.002 s
Corrected spectra:	Off
Shutter control:	On

Processing performed
Savitsky-Golay smoothed
Smoothing order:	3
Number of points:	7
Number of times:	1

Peak integration
Integration method:	Rectangular
Sensitivity:	1
Threshold:	1.000

Peaks
No.	Start(nm)	Apex(nm)	End(nm)	Height(Data)	Valley(nm)	Valley(Data)
1	420.0	553.4	554.0	2656	554.0	2647
2	554.0	555.6	557.6	2672	557.6	2639
3	557.6	559.0	706.4	2648	706.4	57.79
4	706.4	707.0	715.0	60.66	715.0	42.98
5	715.0	715.8	737.0	44.57	737.0	19.88
6	737.0	737.4	771.2	20.99	771.2	5.931
7	771.2	772.0	787.2	7.075	787.2	4.804

Data points
nm	Data
420.0	1.201
420.2	1.326
420.4	1.409
420.6	1.428
420.8	1.324
421.0	1.166
421.2	1.108
421.4	1.032
421.6	1.090
421.8	1.191
422.0	1.082
422.2	1.016
422.4	0.912
422.6	0.744
422.8	0.776
423.0	1.026
423.2	1.100
423.4	1.098
423.6	1.179
423.8	1.183
424.0	1.219
424.2	1.264
424.4	1.104
424.6	1.018
424.8	1.052
425.0	1.194
425.2	1.262
425.4	1.273
425.6	1.250
425.8	1.247
426.0	1.233
426.2	1.314
426.4	1.215
426.6	1.131
426.8	1.135
427.0	1.125
427.2	1.176
427.4	1.162
427.6	1.241
427.8	1.215
428.0	1.249
428.2	1.245
428.4	1.191
428.6	1.022
428.8	0.911
429.0	0.990
429.2	1.123
429.4	1.262
429.6	1.278
429.8	1.260
430.0	1.102
430.2	1.069
430.4	1.090
430.6	1.121
430.8	1.126
431.0	1.296
431.2	1.473
431.4	1.513
431.6	1.585
431.8	1.417
432.0	1.186
432.2	1.102
432.4	1.157
432.6	1.139
432.8	1.240
433.0	1.246
433.2	1.131
433.4	1.254
433.6	1.382
433.8	1.315
434.0	1.266
434.2	1.267
434.4	1.119
434.6	1.077
434.8	1.182
435.0	1.223
435.2	1.214
435.4	1.232
435.6	1.205
435.8	1.124
436.0	1.151
436.2	1.137
436.4	1.215
436.6	1.185
436.8	1.367
437.0	1.361
437.2	1.385
437.4	1.419
437.6	1.566
437.8	1.520
438.0	1.622
438.2	1.536
438.4	1.544
438.6	1.526
438.8	1.449
439.0	1.286
439.2	1.265
439.4	1.304
439.6	1.312
439.8	1.347
440.0	1.289
440.2	1.337
440.4	1.275
440.6	1.359
440.8	1.410
441.0	1.367
441.2	1.332
441.4	1.389
441.6	1.273
441.8	1.306
442.0	1.238
442.2	1.232
442.4	1.326
442.6	1.436
442.8	1.482
443.0	1.510
443.2	1.288
443.4	1.343
443.6	1.316
443.8	1.251
444.0	1.349
444.2	1.529
444.4	1.497
444.6	1.665
444.8	1.571
445.0	1.334
445.2	1.262
445.4	1.252
445.6	1.312
445.8	1.584
446.0	1.564
446.2	1.570
446.4	1.503
446.6	1.482
446.8	1.538
447.0	1.613
447.2	1.575
447.4	1.795
447.6	1.719
447.8	1.694
448.0	1.435
448.2	1.277
448.4	1.384
448.6	1.709
448.8	1.991
449.0	2.193
449.2	2.155
449.4	1.990
449.6	2.010
449.8	1.889
450.0	1.813
450.2	1.703
450.4	1.677
450.6	1.590
450.8	1.505
451.0	1.558
451.2	1.670
451.4	1.798
451.6	2.041
451.8	2.107
452.0	1.917
452.2	1.783
452.4	1.804
452.6	1.842
452.8	1.887
453.0	2.006
453.2	2.022
453.4	2.023
453.6	2.122
453.8	2.088
454.0	1.946
454.2	1.899
454.4	1.855
454.6	1.942
454.8	1.991
455.0	1.884
455.2	2.015
455.4	2.147
455.6	2.264
455.8	2.344
456.0	2.381
456.2	2.055
456.4	2.144
456.6	2.119
456.8	2.218
457.0	2.196
457.2	2.040
457.4	1.874
457.6	1.958
457.8	1.882
458.0	2.245
458.2	2.358
458.4	2.128
458.6	2.180
458.8	2.179
459.0	1.963
459.2	2.127
459.4	2.176
459.6	2.051
459.8	2.086
460.0	2.215
460.2	2.268
460.4	2.507
460.6	2.531
460.8	2.522
461.0	2.321
461.2	2.214
461.4	2.285
461.6	2.375
461.8	2.448
462.0	2.576
462.2	2.661
462.4	2.609
462.6	2.508
462.8	2.409
463.0	2.459
463.2	2.755
463.4	2.930
463.6	3.011
463.8	3.064
464.0	2.758
464.2	2.753
464.4	2.912
464.6	2.791
464.8	3.021
465.0	3.182
465.2	2.902
465.4	2.998
465.6	2.986
465.8	2.953
466.0	3.389
466.2	3.656
466.4	3.716
466.6	3.690
466.8	3.460
467.0	3.255
467.2	3.387
467.4	3.516
467.6	3.570
467.8	3.420
468.0	3.555
468.2	3.701
468.4	3.883
468.6	3.991
468.8	3.971
469.0	3.900
469.2	4.029
469.4	4.140
469.6	4.272
469.8	4.488
470.0	4.519
470.2	4.622
470.4	4.425
470.6	4.345
470.8	4.260
471.0	4.611
471.2	4.878
471.4	5.140
471.6	5.129
471.8	5.203
472.0	5.314
472.2	5.593
472.4	5.655
472.6	5.635
472.8	5.728
473.0	5.600
473.2	5.919
473.4	6.129
473.6	6.445
473.8	6.691
474.0	6.909
474.2	6.812
474.4	6.884
474.6	6.899
474.8	6.980
475.0	7.291
475.2	7.532
475.4	7.649
475.6	7.679
475.8	7.981
476.0	8.160
476.2	8.678
476.4	8.817
476.6	8.924
476.8	9.175
477.0	9.541
477.2	9.810
477.4	9.964
477.6	9.838
477.8	10.17
478.0	10.52
478.2	10.89
478.4	11.00
478.6	11.42
478.8	11.69
479.0	12.56
479.2	13.00
479.4	13.22
479.6	13.01
479.8	13.20
480.0	13.20
480.2	14.14
480.4	14.59
480.6	14.99
480.8	15.33
481.0	15.84
481.2	16.09
481.4	16.74
481.6	17.21
481.8	17.92
482.0	18.15
482.2	18.66
482.4	19.13
482.6	19.69
482.8	20.70
483.0	21.48
483.2	22.13
483.4	22.81
483.6	23.36
483.8	23.95
484.0	24.99
484.2	25.94
484.4	26.94
484.6	27.63
484.8	28.19
485.0	28.77
485.2	29.27
485.4	30.00
485.6	31.25
485.8	31.98
486.0	33.00
486.2	34.72
486.4	35.96
486.6	37.22
486.8	39.20
487.0	39.89
487.2	40.86
487.4	42.70
487.6	43.65
487.8	45.29
488.0	46.88
488.2	47.56
488.4	49.09
488.6	50.91
488.8	52.65
489.0	54.87
489.2	56.15
489.4	57.17
489.6	59.30
489.8	60.82
490.0	62.73
490.2	65.15
490.4	67.37
490.6	70.63
490.8	73.08
491.0	74.79
491.2	75.84
491.4	77.50
491.6	80.16
491.8	82.91
492.0	85.79
492.2	88.30
492.4	91.14
492.6	94.67
492.8	97.32
493.0	100.3
493.2	103.5
493.4	106.0
493.6	108.3
493.8	111.3
494.0	112.9
494.2	117.3
494.4	121.9
494.6	125.9
494.8	129.5
495.0	132.3
495.2	135.2
495.4	137.6
495.6	141.0
495.8	145.1
496.0	149.6
496.2	153.0
496.4	156.2
496.6	159.4
496.8	164.4
497.0	171.2
497.2	176.1
497.4	180.3
497.6	183.3
497.8	188.1
498.0	193.1
498.2	199.3
498.4	204.6
498.6	209.6
498.8	214.0
499.0	218.8
499.2	223.0
499.4	229.6
499.6	234.6
499.8	239.8
500.0	244.7
500.2	249.9
500.4	255.8
500.6	264.2
500.8	269.3
501.0	276.1
501.2	283.1
501.4	290.2
501.6	298.1
501.8	305.6
502.0	309.5
502.2	316.1
502.4	323.2
502.6	329.8
502.8	336.0
503.0	342.9
503.2	348.6
503.4	356.5
503.6	364.1
503.8	370.3
504.0	376.1
504.2	384.4
504.4	393.9
504.6	402.1
504.8	410.8
505.0	416.2
505.2	425.0
505.4	435.1
505.6	445.1
505.8	451.5
506.0	459.4
506.2	464.5
506.4	473.8
506.6	482.9
506.8	491.2
507.0	501.7
507.2	510.5
507.4	519.1
507.6	528.1
507.8	535.4
508.0	546.4
508.2	560.5
508.4	570.1
508.6	578.5
508.8	585.3
509.0	590.7
509.2	603.7
509.4	617.6
509.6	629.3
509.8	639.3
510.0	648.1
510.2	655.3
510.4	663.5
510.6	676.0
510.8	686.0
511.0	698.3
511.2	711.3
511.4	719.7
511.6	724.6
511.8	733.8
512.0	743.3
512.2	755.9
512.4	767.3
512.6	777.8
512.8	789.0
513.0	799.5
513.2	812.8
513.4	826.1
513.6	836.7
513.8	850.8
514.0	863.1
514.2	874.7
514.4	885.3
514.6	894.9
514.8	905.6
515.0	916.8
515.2	927.8
515.4	940.6
515.6	950.2
515.8	963.3
516.0	977.9
516.2	990.2
516.4	1003
516.6	1014
516.8	1024
517.0	1040
517.2	1049
517.4	1058
517.6	1065
517.8	1075
518.0	1089
518.2	1105
518.4	1117
518.6	1132
518.8	1144
519.0	1159
519.2	1171
519.4	1181
519.6	1189
519.8	1202
520.0	1219
520.2	1234
520.4	1247
520.6	1263
520.8	1273
521.0	1285
521.2	1297
521.4	1305
521.6	1314
521.8	1332
522.0	1347
522.2	1363
522.4	1377
522.6	1385
522.8	1392
523.0	1402
523.2	1413
523.4	1428
523.6	1441
523.8	1452
524.0	1463
524.2	1480
524.4	1493
524.6	1504
524.8	1510
525.0	1516
525.2	1522
525.4	1541
525.6	1556
525.8	1576
526.0	1590
526.2	1606
526.4	1612
526.6	1625
526.8	1628
527.0	1642
527.2	1648
527.4	1659
527.6	1675
527.8	1691
528.0	1702
528.2	1724
528.4	1738
528.6	1749
528.8	1762
529.0	1766
529.2	1772
529.4	1785
529.6	1797
529.8	1815
530.0	1834
530.2	1848
530.4	1859
530.6	1866
530.8	1872
531.0	1882
531.2	1896
531.4	1904
531.6	1914
531.8	1925
532.0	1937
532.2	1954
532.4	1967
532.6	1974
532.8	1986
533.0	1998
533.2	2009
533.4	2026
533.6	2035
533.8	2041
534.0	2053
534.2	2066
534.4	2076
534.6	2084
534.8	2099
535.0	2116
535.2	2125
535.4	2132
535.6	2139
535.8	2148
536.0	2164
536.2	2175
536.4	2179
536.6	2186
536.8	2196
537.0	2210
537.2	2223
537.4	2233
537.6	2240
537.8	2250
538.0	2254
538.2	2257
538.4	2267
538.6	2284
538.8	2292
539.0	2305
539.2	2315
539.4	2324
539.6	2330
539.8	2345
540.0	2344
540.2	2347
540.4	2358
540.6	2366
540.8	2372
541.0	2385
541.2	2388
541.4	2389
541.6	2404
541.8	2413
542.0	2417
542.2	2426
542.4	2430
542.6	2433
542.8	2445
543.0	2451
543.2	2459
543.4	2471
543.6	2474
543.8	2478
544.0	2483
544.2	2486
544.4	2497
544.6	2507
544.8	2513
545.0	2519
545.2	2525
545.4	2529
545.6	2531
545.8	2535
546.0	2545
546.2	2551
546.4	2554
546.6	2563
546.8	2561
547.0	2558
547.2	2564
547.4	2570
547.6	2573
547.8	2581
548.0	2586
548.2	2588
548.4	2592
548.6	2597
548.8	2597
549.0	2595
549.2	2604
549.4	2610
549.6	2613
549.8	2614
550.0	2614
550.2	2618
550.4	2619
550.6	2622
550.8	2614
551.0	2618
551.2	2620
551.4	2631
551.6	2630
551.8	2636
552.0	2632
552.2	2641
552.4	2641
552.6	2648
552.8	2648
553.0	2651
553.2	2652
553.4	2656
553.6	2653
553.8	2649
554.0	2647
554.2	2647
554.4	2650
554.6	2650
554.8	2647
555.0	2648
555.2	2657
555.4	2665
555.6	2672
555.8	2668
556.0	2658
556.2	2656
556.4	2654
556.6	2653
556.8	2652
557.0	2652
557.2	2646
557.4	2645
557.6	2639
557.8	2645
558.0	2644
558.2	2643
558.4	2645
558.6	2644
558.8	2642
559.0	2648
559.2	2645
559.4	2640
559.6	2638
559.8	2631
560.0	2628
560.2	2626
560.4	2625
560.6	2617
560.8	2613
561.0	2611
561.2	2608
561.4	2610
561.6	2610
561.8	2608
562.0	2604
562.2	2597
562.4	2592
562.6	2593
562.8	2590
563.0	2594
563.2	2591
563.4	2589
563.6	2587
563.8	2592
564.0	2588
564.2	2580
564.4	2566
564.6	2559
564.8	2550
565.0	2549
565.2	2543
565.4	2538
565.6	2536
565.8	2538
566.0	2541
566.2	2533
566.4	2526
566.6	2520
566.8	2515
567.0	2513
567.2	2509
567.4	2497
567.6	2500
567.8	2497
568.0	2496
568.2	2493
568.4	2484
568.6	2476
568.8	2473
569.0	2467
569.2	2464
569.4	2457
569.6	2449
569.8	2443
570.0	2437
570.2	2432
570.4	2433
570.6	2430
570.8	2427
571.0	2426
571.2	2423
571.4	2414
571.6	2407
571.8	2399
572.0	2390
572.2	2378
572.4	2373
572.6	2369
572.8	2368
573.0	2364
573.2	2359
573.4	2354
573.6	2350
573.8	2349
574.0	2345
574.2	2333
574.4	2323
574.6	2315
574.8	2303
575.0	2297
575.2	2294
575.4	2290
575.6	2282
575.8	2274
576.0	2264
576.2	2260
576.4	2254
576.6	2247
576.8	2241
577.0	2240
577.2	2235
577.4	2232
577.6	2222
577.8	2211
578.0	2207
578.2	2202
578.4	2196
578.6	2188
578.8	2183
579.0	2179
579.2	2175
579.4	2172
579.6	2168
579.8	2158
580.0	2150
580.2	2137
580.4	2129
580.6	2128
580.8	2122
581.0	2117
581.2	2110
581.4	2100
581.6	2094
581.8	2087
582.0	2081
582.2	2075
582.4	2070
582.6	2067
582.8	2060
583.0	2050
583.2	2049
583.4	2042
583.6	2035
583.8	2029
584.0	2022
584.2	2013
584.4	2008
584.6	1993
584.8	1982
585.0	1973
585.2	1973
585.4	1971
585.6	1969
585.8	1961
586.0	1956
586.2	1949
586.4	1949
586.6	1947
586.8	1942
587.0	1936
587.2	1924
587.4	1914
587.6	1905
587.8	1895
588.0	1887
588.2	1881
588.4	1874
588.6	1874
588.8	1869
589.0	1868
589.2	1861
589.4	1851
589.6	1836
589.8	1827
590.0	1817
590.2	1814
590.4	1811
590.6	1802
590.8	1788
591.0	1783
591.2	1775
591.4	1772
591.6	1773
591.8	1760
592.0	1750
592.2	1739
592.4	1731
592.6	1730
592.8	1726
593.0	1717
593.2	1712
593.4	1704
593.6	1703
593.8	1702
594.0	1694
594.2	1683
594.4	1672
594.6	1667
594.8	1664
595.0	1658
595.2	1647
595.4	1639
595.6	1630
595.8	1624
596.0	1618
596.2	1612
596.4	1602
596.6	1596
596.8	1595
597.0	1589
597.2	1582
597.4	1575
597.6	1569
597.8	1562
598.0	1559
598.2	1552
598.4	1544
598.6	1537
598.8	1531
599.0	1525
599.2	1519
599.4	1513
599.6	1511
599.8	1507
600.0	1498
600.2	1490
600.4	1479
600.6	1475
600.8	1473
601.0	1469
601.2	1459
601.4	1453
601.6	1441
601.8	1435
602.0	1428
602.2	1420
602.4	1411
602.6	1408
602.8	1400
603.0	1392
603.2	1390
603.4	1386
603.6	1381
603.8	1380
604.0	1372
604.2	1362
604.4	1357
604.6	1348
604.8	1343
605.0	1341
605.2	1330
605.4	1321
605.6	1315
605.8	1313
606.0	1313
606.2	1310
606.4	1305
606.6	1296
606.8	1287
607.0	1283
607.2	1274
607.4	1268
607.6	1264
607.8	1254
608.0	1248
608.2	1243
608.4	1235
608.6	1233
608.8	1227
609.0	1218
609.2	1211
609.4	1208
609.6	1202
609.8	1195
610.0	1189
610.2	1178
610.4	1172
610.6	1173
610.8	1171
611.0	1166
611.2	1163
611.4	1152
611.6	1143
611.8	1139
612.0	1130
612.2	1122
612.4	1119
612.6	1116
612.8	1114
613.0	1108
613.2	1103
613.4	1095
613.6	1086
613.8	1083
614.0	1080
614.2	1073
614.4	1073
614.6	1068
614.8	1060
615.0	1054
615.2	1047
615.4	1039
615.6	1036
615.8	1035
616.0	1035
616.2	1029
616.4	1022
616.6	1014
616.8	1006
617.0	999.7
617.2	993.7
617.4	987.1
617.6	981.7
617.8	980.3
618.0	976.6
618.2	969.4
618.4	964.8
618.6	956.4
618.8	951.5
619.0	946.0
619.2	942.0
619.4	936.8
619.6	931.5
619.8	925.5
620.0	916.0
620.2	909.7
620.4	908.8
620.6	906.9
620.8	905.4
621.0	906.1
621.2	897.4
621.4	893.5
621.6	887.3
621.8	882.3
622.0	877.1
622.2	874.6
622.4	869.6
622.6	862.3
622.8	852.7
623.0	849.2
623.2	845.9
623.4	846.0
623.6	846.2
623.8	840.0
624.0	834.5
624.2	830.3
624.4	822.4
624.6	817.0
624.8	811.1
625.0	804.0
625.2	800.7
625.4	797.6
625.6	791.1
625.8	785.3
626.0	780.3
626.2	774.3
626.4	770.6
626.6	767.1
626.8	763.1
627.0	759.8
627.2	756.6
627.4	753.0
627.6	749.7
627.8	746.8
628.0	743.4
628.2	739.5
628.4	734.6
628.6	729.1
628.8	725.2
629.0	720.1
629.2	716.3
629.4	712.2
629.6	706.4
629.8	699.3
630.0	695.7
630.2	690.6
630.4	689.3
630.6	688.1
630.8	681.6
631.0	679.4
631.2	677.7
631.4	672.9
631.6	669.1
631.8	662.6
632.0	655.4
632.2	651.8
632.4	649.7
632.6	641.6
632.8	638.1
633.0	634.2
633.2	634.4
633.4	632.6
633.6	630.4
633.8	623.8
634.0	619.2
634.2	615.8
634.4	611.6
634.6	608.1
634.8	605.1
635.0	602.9
635.2	599.0
635.4	596.6
635.6	593.6
635.8	591.6
636.0	588.3
636.2	584.6
636.4	579.1
636.6	575.7
636.8	571.7
637.0	569.4
637.2	565.6
637.4	561.9
637.6	557.5
637.8	557.1
638.0	551.6
638.2	549.9
638.4	549.1
638.6	544.6
638.8	539.5
639.0	535.9
639.2	530.8
639.4	528.1
639.6	529.4
639.8	528.5
640.0	525.1
640.2	516.0
640.4	508.9
640.6	504.5
640.8	502.4
641.0	501.4
641.2	499.0
641.4	493.6
641.6	490.5
641.8	489.5
642.0	487.5
642.2	484.3
642.4	482.9
642.6	481.3
642.8	477.5
643.0	474.3
643.2	469.7
643.4	464.9
643.6	463.3
643.8	461.2
644.0	460.2
644.2	458.1
644.4	456.3
644.6	452.2
644.8	448.2
645.0	444.5
645.2	443.1
645.4	438.0
645.6	435.7
645.8	433.1
646.0	432.1
646.2	430.4
646.4	428.7
646.6	424.1
646.8	420.4
647.0	417.4
647.2	416.8
647.4	413.3
647.6	411.7
647.8	407.1
648.0	403.9
648.2	400.7
648.4	399.6
648.6	397.4
648.8	396.1
649.0	393.8
649.2	392.2
649.4	390.2
649.6	388.5
649.8	383.8
650.0	379.5
650.2	376.3
650.4	371.8
650.6	369.7
650.8	368.1
651.0	365.8
651.2	366.5
651.4	366.4
651.6	364.1
651.8	360.6
652.0	355.2
652.2	351.4
652.4	351.3
652.6	350.0
652.8	348.7
653.0	347.4
653.2	344.5
653.4	341.3
653.6	340.0
653.8	336.8
654.0	334.3
654.2	332.9
654.4	329.1
654.6	327.7
654.8	327.2
655.0	325.1
655.2	321.9
655.4	318.8
655.6	314.3
655.8	315.3
656.0	316.1
656.2	314.1
656.4	312.1
656.6	308.1
656.8	302.7
657.0	300.5
657.2	300.5
657.4	298.9
657.6	300.7
657.8	299.7
658.0	296.5
658.2	293.8
658.4	291.2
658.6	286.0
658.8	284.8
659.0	282.8
659.2	281.7
659.4	281.4
659.6	280.1
659.8	276.1
660.0	273.7
660.2	270.9
660.4	270.5
660.6	270.0
660.8	270.5
661.0	269.2
661.2	267.8
661.4	264.6
661.6	261.8
661.8	259.4
662.0	258.0
662.2	257.3
662.4	257.1
662.6	255.5
662.8	254.2
663.0	254.0
663.2	251.4
663.4	248.5
663.6	246.6
663.8	244.7
664.0	244.4
664.2	241.9
664.4	237.6
664.6	234.6
664.8	233.4
665.0	232.2
665.2	233.4
665.4	231.8
665.6	230.9
665.8	230.4
666.0	230.0
666.2	226.5
666.4	224.1
666.6	220.1
666.8	218.8
667.0	217.5
667.2	217.4
667.4	215.5
667.6	214.0
667.8	212.0
668.0	212.4
668.2	211.4
668.4	209.2
668.6	207.1
668.8	205.7
669.0	205.3
669.2	205.8
669.4	205.6
669.6	203.6
669.8	202.4
670.0	201.4
670.2	198.6
670.4	196.7
670.6	193.5
670.8	192.4
671.0	191.4
671.2	191.3
671.4	189.5
671.6	188.3
671.8	185.9
672.0	186.0
672.2	185.0
672.4	184.3
672.6	180.9
672.8	177.5
673.0	175.2
673.2	175.8
673.4	176.6
673.6	177.1
673.8	175.2
674.0	172.8
674.2	171.0
674.4	169.5
674.6	168.5
674.8	168.3
675.0	167.7
675.2	167.0
675.4	166.4
675.6	163.8
675.8	162.2
676.0	160.7
676.2	159.2
676.4	160.1
676.6	160.4
676.8	159.2
677.0	158.1
677.2	155.9
677.4	153.8
677.6	153.3
677.8	151.9
678.0	149.3
678.2	149.8
678.4	149.3
678.6	149.1
678.8	148.2
679.0	146.8
679.2	144.7
679.4	143.7
679.6	143.4
679.8	142.9
680.0	141.5
680.2	141.0
680.4	140.7
680.6	137.8
680.8	137.2
681.0	136.2
681.2	135.3
681.4	135.4
681.6	134.9
681.8	132.8
682.0	132.8
682.2	131.3
682.4	130.0
682.6	128.6
682.8	126.8
683.0	126.6
683.2	126.7
683.4	125.5
683.6	124.2
683.8	123.0
684.0	121.8
684.2	122.0
684.4	122.3
684.6	121.6
684.8	120.3
685.0	119.8
685.2	117.7
685.4	115.7
685.6	114.9
685.8	113.5
686.0	112.7
686.2	112.7
686.4	112.1
686.6	110.8
686.8	110.2
687.0	110.0
687.2	109.6
687.4	108.7
687.6	108.1
687.8	107.3
688.0	107.3
688.2	107.3
688.4	107.3
688.6	105.1
688.8	104.1
689.0	102.4
689.2	102.1
689.4	101.7
689.6	101.5
689.8	99.82
690.0	99.04
690.2	98.11
690.4	97.82
690.6	97.89
690.8	97.37
691.0	96.99
691.2	96.17
691.4	95.86
691.6	95.22
691.8	94.62
692.0	94.46
692.2	94.30
692.4	93.60
692.6	92.72
692.8	91.52
693.0	90.60
693.2	90.11
693.4	89.17
693.6	88.51
693.8	88.08
694.0	86.92
694.2	85.98
694.4	84.91
694.6	83.88
694.8	84.21
695.0	85.45
695.2	85.64
695.4	84.94
695.6	84.89
695.8	83.83
696.0	82.49
696.2	82.02
696.4	81.33
696.6	80.81
696.8	81.94
697.0	81.75
697.2	80.05
697.4	78.87
697.6	78.09
697.8	77.12
698.0	77.26
698.2	76.59
698.4	75.27
698.6	74.62
698.8	75.00
699.0	74.57
699.2	74.35
699.4	73.19
699.6	72.54
699.8	72.97
700.0	73.28
700.2	72.61
700.4	71.98
700.6	70.92
700.8	70.65
701.0	70.18
701.2	69.64
701.4	68.98
701.6	68.85
701.8	68.97
702.0	69.39
702.2	68.88
702.4	68.27
702.6	67.90
702.8	66.92
703.0	66.41
703.2	65.76
703.4	64.75
703.6	64.16
703.8	64.08
704.0	63.76
704.2	63.77
704.4	63.78
704.6	63.58
704.8	62.95
705.0	62.17
705.2	61.71
705.4	61.42
705.6	61.51
705.8	60.68
706.0	58.98
706.2	57.85
706.4	57.79
706.6	58.38
706.8	59.75
707.0	60.66
707.2	59.82
707.4	58.51
707.6	58.39
707.8	58.12
708.0	58.16
708.2	58.54
708.4	56.89
708.6	54.64
708.8	54.94
709.0	54.71
709.2	54.01
709.4	53.76
709.6	53.65
709.8	52.81
710.0	53.74
710.2	53.76
710.4	53.56
710.6	53.62
710.8	53.35
711.0	52.40
711.2	51.83
711.4	51.30
711.6	50.74
711.8	50.78
712.0	50.51
712.2	50.27
712.4	49.35
712.6	49.32
712.8	48.30
713.0	47.92
713.2	47.99
713.4	47.87
713.6	47.67
713.8	47.40
714.0	47.98
714.2	47.76
714.4	46.96
714.6	45.76
714.8	44.34
715.0	42.98
715.2	43.23
715.4	43.73
715.6	44.37
715.8	44.57
716.0	44.42
716.2	44.33
716.4	44.15
716.6	44.20
716.8	43.13
717.0	41.93
717.2	41.69
717.4	42.12
717.6	42.94
717.8	43.34
718.0	42.57
