Sample:	'20211010A(EM)
File name:	G-NI 7.FDS
Run date:	'18:51:54, 06/19/2023
Operator:	Administrator
Comment:	'

Instrument
Model:	F-4700 FL Spectrophotometer
Serial number:	2019-001
ROM Version:	5J24010 00

Instrument parameters
Measurement type:	Wavelength scan
Scan mode:	Emission
Data mode:	Fluorescence
EX WL:	400.0 nm
EM  Start WL:	420.0 nm
EM  End WL:	800.0 nm
Scan speed:	1200 nm/min
Delay:	0.0 s
EX Slit:	10.0 nm
EM Slit:	10.0 nm
PMT Voltage:	500 V
Response:	0.002 s
Corrected spectra:	Off
Shutter control:	On

Processing performed
Savitsky-Golay smoothed
Smoothing order:	3
Number of points:	7
Number of times:	1

Peak integration
Integration method:	Rectangular
Sensitivity:	1
Threshold:	1.000

Peaks
No.	Start(nm)	Apex(nm)	End(nm)	Height(Data)	Valley(nm)	Valley(Data)
1	420.0	535.8	536.6	1054	536.6	1047
2	536.6	537.8	538.6	1057	538.6	1046
3	538.6	539.4	541.8	1055	541.8	1046
4	541.8	542.6	547.4	1057	547.4	1019
5	547.4	547.8	647.4	1027	647.4	122.7
6	647.4	648.0	696.4	125.4	696.4	26.00
7	696.4	697.2	701.6	27.06	701.6	22.51
8	701.6	703.0	726.4	23.62	726.4	10.27
9	726.4	727.0	800.0	11.72	800.0	2.414

Data points
nm	Data
420.0	0.631
420.2	0.806
420.4	1.001
420.6	1.138
420.8	1.029
421.0	0.899
421.2	0.712
421.4	0.727
421.6	0.846
421.8	0.895
422.0	0.829
422.2	0.912
422.4	0.837
422.6	0.864
422.8	0.860
423.0	0.766
423.2	0.635
423.4	0.612
423.6	0.549
423.8	0.622
424.0	0.789
424.2	0.898
424.4	0.887
424.6	0.948
424.8	0.941
425.0	0.974
425.2	0.926
425.4	0.892
425.6	0.867
425.8	0.799
426.0	0.754
426.2	0.734
426.4	0.765
426.6	0.875
426.8	0.952
427.0	0.992
427.2	1.001
427.4	0.950
427.6	0.956
427.8	0.933
428.0	0.835
428.2	0.768
428.4	0.772
428.6	0.751
428.8	0.792
429.0	0.926
429.2	0.995
429.4	0.857
429.6	0.837
429.8	0.759
430.0	0.749
430.2	0.865
430.4	0.961
430.6	0.919
430.8	0.832
431.0	0.737
431.2	0.752
431.4	0.899
431.6	1.049
431.8	1.009
432.0	0.836
432.2	0.663
432.4	0.540
432.6	0.623
432.8	0.682
433.0	0.770
433.2	0.910
433.4	0.989
433.6	0.958
433.8	0.957
434.0	0.790
434.2	0.835
434.4	0.851
434.6	0.822
434.8	0.824
435.0	0.776
435.2	0.846
435.4	0.955
435.6	0.940
435.8	0.966
436.0	1.029
436.2	0.964
436.4	0.986
436.6	0.972
436.8	0.910
437.0	0.834
437.2	0.919
437.4	0.889
437.6	0.895
437.8	0.933
438.0	0.920
438.2	0.879
438.4	1.027
438.6	1.024
438.8	1.003
439.0	0.897
439.2	0.848
439.4	0.728
439.6	0.801
439.8	0.812
440.0	0.862
440.2	1.019
440.4	1.162
440.6	1.142
440.8	1.176
441.0	1.124
441.2	0.981
441.4	0.971
441.6	0.850
441.8	0.917
442.0	1.006
442.2	1.122
442.4	1.134
442.6	1.155
442.8	1.128
443.0	1.172
443.2	1.174
443.4	1.130
443.6	1.032
443.8	1.003
444.0	1.011
444.2	1.022
444.4	1.100
444.6	0.977
444.8	0.902
445.0	0.870
445.2	0.888
445.4	1.004
445.6	1.162
445.8	1.084
446.0	1.169
446.2	1.159
446.4	1.126
446.6	1.027
446.8	0.839
447.0	0.662
447.2	0.710
447.4	0.817
447.6	0.982
447.8	0.977
448.0	0.938
448.2	0.879
448.4	0.885
448.6	0.962
448.8	0.986
449.0	0.928
449.2	0.988
449.4	0.941
449.6	0.948
449.8	0.979
450.0	0.845
450.2	0.759
450.4	0.780
450.6	0.808
450.8	0.939
451.0	1.065
451.2	1.051
451.4	1.049
451.6	1.034
451.8	1.095
452.0	1.116
452.2	1.106
452.4	0.923
452.6	0.869
452.8	0.844
453.0	0.987
453.2	0.912
453.4	0.848
453.6	0.741
453.8	0.755
454.0	0.796
454.2	1.002
454.4	1.120
454.6	1.109
454.8	1.138
455.0	1.141
455.2	1.039
455.4	1.030
455.6	1.099
455.8	1.019
456.0	0.989
456.2	1.006
456.4	0.881
456.6	0.971
456.8	1.105
457.0	1.177
457.2	1.254
457.4	1.281
457.6	1.185
457.8	1.143
458.0	1.172
458.2	1.158
458.4	1.222
458.6	1.247
458.8	1.281
459.0	1.198
459.2	1.253
459.4	1.247
459.6	1.232
459.8	1.180
460.0	1.287
460.2	1.274
460.4	1.229
460.6	1.351
460.8	1.347
461.0	1.274
461.2	1.326
461.4	1.262
461.6	1.152
461.8	1.290
462.0	1.401
462.2	1.378
462.4	1.282
462.6	1.234
462.8	1.171
463.0	1.202
463.2	1.379
463.4	1.474
463.6	1.453
463.8	1.466
464.0	1.396
464.2	1.368
464.4	1.465
464.6	1.514
464.8	1.580
465.0	1.577
465.2	1.522
465.4	1.429
465.6	1.476
465.8	1.500
466.0	1.549
466.2	1.513
466.4	1.575
466.6	1.604
466.8	1.767
467.0	1.828
467.2	2.036
467.4	1.952
467.6	2.018
467.8	2.040
468.0	2.084
468.2	1.989
468.4	2.128
468.6	2.038
468.8	2.087
469.0	2.157
469.2	2.235
469.4	2.135
469.6	2.211
469.8	2.271
470.0	2.290
470.2	2.288
470.4	2.341
470.6	2.376
470.8	2.660
471.0	2.919
471.2	2.985
471.4	2.877
471.6	2.987
471.8	2.943
472.0	3.129
472.2	3.350
472.4	3.311
472.6	3.321
472.8	3.715
473.0	3.758
473.2	3.945
473.4	4.393
473.6	4.403
473.8	4.405
474.0	4.614
474.2	4.798
474.4	4.822
474.6	5.071
474.8	4.951
475.0	4.993
475.2	5.088
475.4	5.484
475.6	5.771
475.8	5.945
476.0	6.130
476.2	6.442
476.4	7.035
476.6	7.588
476.8	7.672
477.0	7.650
477.2	7.768
477.4	8.059
477.6	8.394
477.8	8.782
478.0	8.640
478.2	8.785
478.4	9.129
478.6	9.428
478.8	10.12
479.0	11.01
479.2	11.52
479.4	11.98
479.6	12.18
479.8	11.95
480.0	12.87
480.2	13.46
480.4	13.89
480.6	14.24
480.8	14.62
481.0	14.97
481.2	15.49
481.4	15.55
481.6	15.94
481.8	16.64
482.0	17.99
482.2	19.18
482.4	19.79
482.6	20.17
482.8	20.78
483.0	21.35
483.2	22.47
483.4	22.91
483.6	23.52
483.8	24.54
484.0	25.50
484.2	26.05
484.4	26.63
484.6	27.13
484.8	27.75
485.0	28.73
485.2	29.93
485.4	30.48
485.6	31.83
485.8	34.09
486.0	36.21
486.2	38.15
486.4	39.21
486.6	39.27
486.8	40.08
487.0	40.90
487.2	42.07
487.4	43.99
487.6	45.24
487.8	46.84
488.0	48.66
488.2	50.19
488.4	51.64
488.6	53.42
488.8	55.43
489.0	58.00
489.2	58.92
489.4	60.26
489.6	61.14
489.8	62.25
490.0	65.04
490.2	68.31
490.4	70.48
490.6	73.28
490.8	74.58
491.0	76.09
491.2	78.94
491.4	81.77
491.6	85.11
491.8	87.51
492.0	89.60
492.2	90.89
492.4	93.87
492.6	96.64
492.8	99.72
493.0	102.2
493.2	105.1
493.4	106.3
493.6	109.4
493.8	112.4
494.0	116.6
494.2	119.9
494.4	124.1
494.6	126.9
494.8	129.5
495.0	133.4
495.2	137.3
495.4	140.2
495.6	143.7
495.8	146.6
496.0	149.2
496.2	154.1
496.4	158.2
496.6	162.4
496.8	166.4
497.0	170.3
497.2	174.2
497.4	178.3
497.6	181.8
497.8	185.5
498.0	190.8
498.2	194.4
498.4	198.4
498.6	203.4
498.8	207.9
499.0	212.8
499.2	217.5
499.4	221.2
499.6	225.1
499.8	232.7
500.0	239.0
500.2	244.0
500.4	247.9
500.6	252.0
500.8	255.0
501.0	259.6
501.2	266.1
501.4	273.4
501.6	280.9
501.8	286.5
502.0	290.3
502.2	292.9
502.4	298.2
502.6	306.0
502.8	312.9
503.0	317.2
503.2	322.6
503.4	326.9
503.6	329.4
503.8	336.1
504.0	341.7
504.2	346.8
504.4	353.7
504.6	361.4
504.8	368.6
505.0	375.0
505.2	379.8
505.4	385.4
505.6	392.0
505.8	400.7
506.0	407.4
506.2	413.2
506.4	417.4
506.6	422.3
506.8	430.4
507.0	438.8
507.2	444.2
507.4	451.7
507.6	456.7
507.8	463.2
508.0	469.2
508.2	475.7
508.4	482.2
508.6	488.7
508.8	495.8
509.0	504.5
509.2	507.5
509.4	511.2
509.6	515.9
509.8	522.3
510.0	531.8
510.2	542.6
510.4	552.3
510.6	558.6
510.8	564.5
511.0	569.1
511.2	575.7
511.4	581.1
511.6	589.4
511.8	595.9
512.0	600.2
512.2	605.9
512.4	614.1
512.6	620.1
512.8	627.0
513.0	633.8
513.2	638.0
513.4	644.5
513.6	652.3
513.8	659.5
514.0	664.7
514.2	666.8
514.4	672.2
514.6	679.2
514.8	687.3
515.0	697.0
515.2	700.7
515.4	705.0
515.6	711.3
515.8	717.6
516.0	723.9
516.2	733.3
516.4	735.5
516.6	740.8
516.8	746.6
517.0	751.7
517.2	760.8
517.4	770.5
517.6	774.8
517.8	775.3
518.0	779.3
518.2	784.1
518.4	792.5
518.6	798.1
518.8	801.6
519.0	803.5
519.2	810.8
519.4	819.2
519.6	828.2
519.8	834.6
520.0	836.9
520.2	840.0
520.4	846.2
520.6	848.8
520.8	853.2
521.0	860.4
521.2	864.2
521.4	871.1
521.6	875.0
521.8	876.1
522.0	879.9
522.2	884.4
522.4	890.4
522.6	897.8
522.8	901.7
523.0	904.5
523.2	908.2
523.4	911.2
523.6	917.7
523.8	919.6
524.0	921.2
524.2	920.7
524.4	925.6
524.6	932.9
524.8	942.4
525.0	943.3
525.2	945.6
525.4	945.3
525.6	948.4
525.8	954.1
526.0	959.3
526.2	961.0
526.4	967.7
526.6	971.7
526.8	973.8
527.0	977.0
527.2	976.0
527.4	975.6
527.6	979.5
527.8	984.9
528.0	991.2
528.2	997.3
528.4	998.7
528.6	999.9
528.8	1000
529.0	1002
529.2	1004
529.4	1008
529.6	1007
529.8	1007
530.0	1007
530.2	1008
530.4	1009
530.6	1016
530.8	1018
531.0	1023
531.2	1025
531.4	1029
531.6	1030
531.8	1031
532.0	1031
532.2	1033
532.4	1029
532.6	1030
532.8	1031
533.0	1030
533.2	1029
533.4	1035
533.6	1038
533.8	1044
534.0	1048
534.2	1048
534.4	1045
534.6	1046
534.8	1045
535.0	1046
535.2	1047
535.4	1048
535.6	1051
535.8	1054
536.0	1050
536.2	1049
536.4	1048
536.6	1047
536.8	1050
537.0	1053
537.2	1056
537.4	1055
537.6	1056
537.8	1057
538.0	1053
538.2	1052
538.4	1051
538.6	1046
538.8	1048
539.0	1050
539.2	1050
539.4	1055
539.6	1054
539.8	1053
540.0	1053
540.2	1052
540.4	1049
540.6	1051
540.8	1050
541.0	1052
541.2	1052
541.4	1053
541.6	1047
541.8	1046
542.0	1047
542.2	1053
542.4	1055
542.6	1057
542.8	1054
543.0	1049
543.2	1046
543.4	1045
543.6	1042
543.8	1040
544.0	1039
544.2	1038
544.4	1039
544.6	1040
544.8	1041
545.0	1037
545.2	1037
545.4	1036
545.6	1037
545.8	1036
546.0	1036
546.2	1030
546.4	1031
546.6	1028
546.8	1024
547.0	1020
547.2	1019
547.4	1019
547.6	1021
547.8	1027
548.0	1027
548.2	1025
548.4	1022
548.6	1018
548.8	1016
549.0	1016
549.2	1012
549.4	1010
549.6	1010
549.8	1007
550.0	1007
550.2	1005
550.4	997.8
550.6	993.6
550.8	994.8
551.0	992.9
551.2	991.1
551.4	990.8
551.6	987.2
551.8	984.7
552.0	984.3
552.2	980.8
552.4	977.5
552.6	974.0
552.8	972.1
553.0	974.4
553.2	974.9
553.4	975.2
553.6	972.1
553.8	965.8
554.0	963.0
554.2	961.9
554.4	963.3
554.6	965.8
554.8	965.5
555.0	965.0
555.2	959.8
555.4	953.7
555.6	953.2
555.8	951.4
556.0	949.2
556.2	951.2
556.4	948.8
556.6	946.5
556.8	946.1
557.0	939.0
557.2	931.7
557.4	929.5
557.6	931.3
557.8	934.1
558.0	933.1
558.2	925.8
558.4	917.6
558.6	912.3
558.8	910.9
559.0	916.7
559.2	918.0
559.4	918.0
559.6	915.0
559.8	911.0
560.0	907.0
560.2	907.1
560.4	908.0
560.6	908.3
560.8	904.3
561.0	896.5
561.2	890.5
561.4	882.9
561.6	884.4
561.8	883.5
562.0	880.7
562.2	880.3
562.4	879.8
562.6	875.6
562.8	879.7
563.0	875.7
563.2	870.8
563.4	868.5
563.6	863.2
563.8	858.4
564.0	860.1
564.2	859.1
564.4	857.6
564.6	857.8
564.8	853.1
565.0	850.7
565.2	845.7
565.4	840.5
565.6	834.8
565.8	835.4
566.0	833.9
566.2	835.8
566.4	832.1
566.6	827.5
566.8	822.3
567.0	822.7
567.2	822.8
567.4	824.2
567.6	820.8
567.8	817.1
568.0	812.6
568.2	809.6
568.4	806.8
568.6	806.3
568.8	804.8
569.0	801.3
569.2	798.7
569.4	793.8
569.6	792.6
569.8	790.9
570.0	794.3
570.2	792.8
570.4	787.7
570.6	783.6
570.8	779.4
571.0	775.9
571.2	777.2
571.4	776.7
571.6	770.0
571.8	766.4
572.0	758.5
572.2	755.3
572.4	752.2
572.6	752.9
572.8	749.0
573.0	746.5
573.2	742.6
573.4	739.9
573.6	737.7
573.8	739.9
574.0	736.5
574.2	734.3
574.4	732.0
574.6	729.3
574.8	729.0
575.0	728.4
575.2	725.4
575.4	719.1
575.6	712.8
575.8	708.3
576.0	707.7
576.2	706.6
576.4	705.8
576.6	702.2
576.8	699.4
577.0	696.7
577.2	696.9
577.4	694.7
577.6	692.7
577.8	690.7
578.0	685.7
578.2	682.3
578.4	682.1
578.6	678.3
578.8	676.4
579.0	675.3
579.2	670.5
579.4	668.7
579.6	666.8
579.8	662.2
580.0	660.0
580.2	658.4
580.4	654.5
580.6	651.8
580.8	649.1
581.0	647.0
581.2	647.6
581.4	645.2
581.6	642.9
581.8	640.9
582.0	638.6
582.2	635.0
582.4	631.4
582.6	627.4
582.8	624.8
583.0	623.8
583.2	622.1
583.4	617.8
583.6	614.4
583.8	612.6
584.0	609.1
584.2	609.2
584.4	608.7
584.6	604.5
584.8	603.6
585.0	601.5
585.2	598.5
585.4	599.4
585.6	596.8
585.8	592.9
586.0	591.7
586.2	588.2
586.4	586.0
586.6	584.3
586.8	579.6
587.0	575.7
587.2	573.1
587.4	570.0
587.6	568.0
587.8	566.8
588.0	564.9
588.2	561.1
588.4	559.8
588.6	556.7
588.8	556.9
589.0	553.0
589.2	550.3
589.4	545.5
589.6	543.5
589.8	541.9
590.0	540.9
590.2	537.3
590.4	538.1
590.6	535.9
590.8	536.3
591.0	535.3
591.2	530.0
591.4	527.5
591.6	522.1
591.8	519.0
592.0	519.9
592.2	517.1
592.4	516.0
592.6	514.7
592.8	510.0
593.0	507.4
593.2	505.8
593.4	502.8
593.6	501.7
593.8	498.9
594.0	498.3
594.2	495.7
594.4	491.6
594.6	488.8
594.8	485.4
595.0	482.5
595.2	482.6
595.4	481.0
595.6	478.0
595.8	477.5
596.0	475.8
596.2	474.5
596.4	473.4
596.6	471.2
596.8	468.1
597.0	467.2
597.2	466.1
597.4	465.4
597.6	463.9
597.8	460.7
598.0	456.2
598.2	453.7
598.4	452.6
598.6	451.5
598.8	451.0
599.0	448.9
599.2	443.9
599.4	441.3
599.6	438.8
599.8	437.1
600.0	438.5
600.2	437.1
600.4	431.0
600.6	426.3
600.8	421.4
601.0	421.2
601.2	422.9
601.4	422.8
601.6	421.0
601.8	417.6
602.0	414.1
602.2	413.6
602.4	411.1
602.6	410.4
602.8	410.6
603.0	408.1
603.2	405.2
603.4	404.8
603.6	404.3
603.8	403.6
604.0	401.6
604.2	395.5
604.4	390.9
604.6	390.4
604.8	391.8
605.0	392.6
605.2	393.4
605.4	390.0
605.6	386.9
605.8	383.1
606.0	378.7
606.2	376.5
606.4	377.5
606.6	376.6
606.8	375.0
607.0	371.6
607.2	368.8
607.4	368.5
607.6	365.6
607.8	363.1
608.0	359.6
608.2	357.7
608.4	357.9
608.6	358.4
608.8	355.5
609.0	353.8
609.2	351.7
609.4	351.0
609.6	349.5
609.8	347.7
610.0	345.2
610.2	344.1
610.4	342.3
610.6	341.9
610.8	341.8
611.0	342.5
611.2	338.9
611.4	334.6
611.6	330.7
611.8	327.9
612.0	327.8
612.2	328.6
612.4	324.7
612.6	322.2
612.8	321.1
613.0	320.3
613.2	321.2
613.4	320.7
613.6	317.5
613.8	316.6
614.0	315.7
614.2	316.4
614.4	315.8
614.6	311.7
614.8	308.4
615.0	303.6
615.2	300.9
615.4	299.9
615.6	298.7
615.8	297.2
616.0	297.3
616.2	297.1
616.4	297.2
616.6	297.3
616.8	295.6
617.0	294.5
617.2	291.9
617.4	291.1
617.6	289.6
617.8	289.2
618.0	286.5
618.2	282.8
618.4	279.0
618.6	278.8
618.8	278.4
619.0	280.5
619.2	279.6
619.4	278.3
619.6	276.1
619.8	273.6
620.0	270.8
620.2	269.1
620.4	265.3
620.6	264.8
620.8	264.5
621.0	262.5
621.2	263.6
621.4	262.5
621.6	260.8
621.8	259.9
622.0	258.1
622.2	254.3
622.4	253.6
622.6	251.5
622.8	250.1
623.0	249.3
623.2	247.7
623.4	246.7
623.6	247.9
623.8	247.8
624.0	246.5
624.2	243.6
624.4	240.9
624.6	239.8
624.8	240.6
625.0	239.8
625.2	239.1
625.4	235.9
625.6	234.4
625.8	233.2
626.0	232.9
626.2	231.0
626.4	229.5
626.6	226.7
626.8	226.7
627.0	226.3
627.2	226.4
627.4	224.6
627.6	222.5
627.8	220.1
628.0	218.4
628.2	215.8
628.4	215.2
628.6	213.5
628.8	212.7
629.0	211.5
629.2	210.1
629.4	209.0
629.6	208.7
629.8	208.3
630.0	207.3
630.2	205.9
630.4	204.3
630.6	204.4
630.8	204.0
631.0	203.2
631.2	201.2
631.4	200.8
631.6	199.5
631.8	198.3
632.0	196.2
632.2	194.5
632.4	191.5
632.6	189.8
632.8	188.7
633.0	189.0
633.2	187.3
633.4	187.8
633.6	187.9
633.8	186.6
634.0	185.0
634.2	184.7
634.4	181.8
634.6	180.8
634.8	180.0
635.0	178.6
635.2	177.2
635.4	176.9
635.6	177.7
635.8	177.9
636.0	177.2
636.2	176.7
636.4	174.8
636.6	174.1
636.8	173.1
637.0	170.2
637.2	168.8
637.4	167.1
637.6	166.3
637.8	166.9
638.0	164.2
638.2	161.2
638.4	160.3
638.6	159.7
638.8	160.8
639.0	161.4
639.2	160.6
639.4	159.1
639.6	158.0
639.8	157.2
640.0	157.0
640.2	155.5
640.4	154.4
640.6	153.3
640.8	152.2
641.0	152.3
641.2	152.5
641.4	150.9
641.6	149.5
641.8	148.4
642.0	148.0
642.2	146.4
642.4	145.5
642.6	144.0
642.8	143.9
643.0	143.9
643.2	143.4
643.4	141.3
643.6	140.5
643.8	138.9
644.0	138.8
644.2	138.1
644.4	136.0
644.6	136.4
644.8	135.7
645.0	134.7
645.2	133.6
645.4	132.7
645.6	131.0
645.8	132.3
646.0	132.2
646.2	131.3
646.4	129.6
646.6	128.1
646.8	126.5
647.0	124.9
647.2	123.3
647.4	122.7
647.6	123.5
647.8	123.4
648.0	125.4
648.2	125.2
648.4	124.4
648.6	122.9
648.8	121.2
649.0	119.0
649.2	118.9
649.4	117.1
649.6	115.4
649.8	113.6
650.0	112.8
650.2	113.1
650.4	114.9
650.6	114.5
650.8	114.0
651.0	112.6
651.2	111.1
651.4	109.6
651.6	110.1
651.8	109.9
652.0	109.4
652.2	108.1
652.4	107.4
652.6	106.0
652.8	105.8
653.0	104.8
653.2	103.3
653.4	102.0
653.6	102.2
653.8	102.1
654.0	102.4
654.2	102.4
654.4	101.5
654.6	100.9
654.8	99.98
655.0	99.67
655.2	99.06
655.4	99.70
655.6	99.12
655.8	98.51
656.0	97.70
656.2	96.91
656.4	95.71
656.6	95.78
656.8	94.79
657.0	93.47
657.2	91.84
657.4	90.81
657.6	90.18
657.8	90.30
658.0	90.00
658.2	90.18
658.4	89.98
658.6	89.44
658.8	89.45
659.0	89.74
659.2	88.61
659.4	87.71
659.6	86.31
659.8	84.02
660.0	83.65
660.2	84.60
660.4	84.78
660.6	84.36
660.8	83.51
661.0	82.52
661.2	81.96
661.4	81.97
661.6	81.68
661.8	81.54
662.0	80.20
662.2	78.92
662.4	78.19
662.6	76.60
662.8	76.49
663.0	76.52
663.2	75.09
663.4	74.46
663.6	74.67
663.8	74.05
664.0	74.59
664.2	73.91
664.4	72.56
664.6	72.04
664.8	71.96
665.0	72.04
665.2	71.95
665.4	70.91
665.6	69.93
665.8	71.01
666.0	71.88
666.2	71.72
666.4	71.18
666.6	69.45
666.8	68.53
667.0	68.32
667.2	67.69
667.4	65.92
667.6	65.12
667.8	65.00
668.0	65.64
668.2	66.54
668.4	66.45
668.6	65.91
668.8	64.48
669.0	64.16
669.2	63.18
669.4	62.97
669.6	61.57
669.8	61.91
670.0	61.16
670.2	62.20
670.4	62.62
670.6	62.11
670.8	61.57
671.0	61.01
671.2	59.88
671.4	58.90
671.6	58.29
671.8	57.31
672.0	57.92
672.2	57.98
672.4	57.55
672.6	56.02
672.8	54.95
673.0	54.07
673.2	54.43
673.4	55.18
673.6	55.06
673.8	54.86
674.0	54.59
674.2	53.80
674.4	53.91
674.6	53.27
674.8	52.04
675.0	51.33
675.2	51.60
675.4	51.66
675.6	52.57
675.8	52.66
676.0	51.83
676.2	51.22
676.4	50.48
676.6	49.33
676.8	48.84
677.0	48.87
677.2	48.66
677.4	49.36
677.6	48.76
677.8	48.17
678.0	47.99
678.2	47.00
678.4	45.83
678.6	46.18
678.8	45.87
679.0	46.31
679.2	46.78
679.4	46.29
679.6	45.22
679.8	44.42
680.0	44.75
680.2	45.11
680.4	44.95
680.6	44.96
680.8	44.00
681.0	42.86
681.2	43.60
681.4	44.16
681.6	44.07
681.8	43.40
682.0	42.64
682.2	41.71
682.4	40.92
682.6	40.28
682.8	39.76
683.0	39.14
683.2	39.34
683.4	39.76
683.6	40.18
683.8	39.53
684.0	39.55
684.2	39.12
684.4	38.47
684.6	38.02
684.8	37.76
685.0	37.36
685.2	37.53
685.4	37.75
685.6	37.47
685.8	37.07
686.0	36.48
686.2	36.29
686.4	35.47
686.6	35.28
686.8	35.23
687.0	34.90
687.2	35.11
687.4	35.12
687.6	34.50
687.8	34.30
688.0	34.00
688.2	33.41
688.4	33.52
688.6	33.18
688.8	33.13
689.0	33.21
689.2	33.36
689.4	33.27
689.6	32.49
689.8	31.94
690.0	31.68
690.2	31.74
690.4	32.71
690.6	32.39
690.8	31.32
691.0	31.08
691.2	31.14
691.4	30.89
691.6	31.85
691.8	31.32
692.0	30.25
692.2	30.09
692.4	30.27
692.6	29.54
692.8	30.36
693.0	30.12
693.2	29.57
693.4	29.03
693.6	29.02
693.8	28.91
694.0	29.16
694.2	28.96
694.4	28.07
694.6	27.71
694.8	27.65
695.0	27.64
695.2	27.20
695.4	26.83
695.6	26.30
695.8	26.55
696.0	26.49
696.2	26.45
696.4	26.00
696.6	26.17
696.8	26.82
697.0	26.89
697.2	27.06
697.4	26.88
697.6	25.98
697.8	26.36
698.0	26.18
698.2	25.83
698.4	25.52
698.6	24.83
698.8	24.08
699.0	24.49
699.2	24.40
699.4	24.61
699.6	24.47
699.8	24.42
700.0	24.53
700.2	24.08
700.4	24.00
700.6	24.23
700.8	24.44
701.0	24.33
701.2	24.28
701.4	23.09
701.6	22.51
701.8	22.53
702.0	22.79
702.2	22.63
702.4	23.05
702.6	23.04
702.8	23.42
703.0	23.62
703.2	23.53
703.4	22.92
703.6	22.57
703.8	22.25
704.0	21.95
704.2	21.30
704.4	20.86
704.6	20.81
704.8	20.88
705.0	20.97
705.2	20.74
705.4	20.78
705.6	21.02
705.8	21.15
706.0	20.84
706.2	20.33
706.4	19.93
706.6	19.82
706.8	20.06
707.0	19.74
707.2	19.73
707.4	19.75
707.6	19.76
707.8	19.67
708.0	19.97
708.2	19.60
708.4	19.65
708.6	19.32
708.8	19.15
709.0	19.04
709.2	18.84
709.4	18.73
709.6	18.64
709.8	18.73
710.0	19.10
710.2	19.06
710.4	18.61
710.6	18.54
710.8	17.75
