Sample:	'20211010A(EM)
File name:	G-NI 5.FDS
Run date:	'18:20:59, 06/19/2023
Operator:	Administrator
Comment:	'

Instrument
Model:	F-4700 FL Spectrophotometer
Serial number:	2019-001
ROM Version:	5J24010 00

Instrument parameters
Measurement type:	Wavelength scan
Scan mode:	Emission
Data mode:	Fluorescence
EX WL:	400.0 nm
EM  Start WL:	420.0 nm
EM  End WL:	800.0 nm
Scan speed:	1200 nm/min
Delay:	0.0 s
EX Slit:	10.0 nm
EM Slit:	10.0 nm
PMT Voltage:	500 V
Response:	0.002 s
Corrected spectra:	Off
Shutter control:	On

Processing performed
Savitsky-Golay smoothed
Smoothing order:	3
Number of points:	7
Number of times:	1

Peak integration
Integration method:	Rectangular
Sensitivity:	1
Threshold:	1.000

Peaks
No.	Start(nm)	Apex(nm)	End(nm)	Height(Data)	Valley(nm)	Valley(Data)
1	420.0	538.0	539.0	2453	539.0	2440
2	539.0	540.2	541.2	2463	541.2	2433
3	541.2	542.0	701.0	2453	701.0	55.19
4	701.0	702.0	728.4	57.13	728.4	23.14
5	728.4	729.0	756.2	24.41	756.2	8.239
6	756.2	757.2	775.6	9.671	775.6	5.067
7	775.6	776.6	782.2	6.147	782.2	4.112
8	782.2	783.0	800.0	5.124	800.0	3.848

Data points
nm	Data
420.0	1.475
420.2	1.498
420.4	1.573
420.6	1.651
420.8	1.606
421.0	1.666
421.2	1.564
421.4	1.534
421.6	1.479
421.8	1.476
422.0	1.534
422.2	1.667
422.4	1.722
422.6	1.818
422.8	1.932
423.0	1.875
423.2	1.826
423.4	1.667
423.6	1.521
423.8	1.437
424.0	1.607
424.2	1.575
424.4	1.533
424.6	1.464
424.8	1.530
425.0	1.456
425.2	1.703
425.4	1.643
425.6	1.556
425.8	1.559
426.0	1.521
426.2	1.490
426.4	1.601
426.6	1.491
426.8	1.457
427.0	1.496
427.2	1.373
427.4	1.390
427.6	1.558
427.8	1.696
428.0	1.841
428.2	1.801
428.4	1.592
428.6	1.691
428.8	1.786
429.0	1.881
429.2	1.859
429.4	1.805
429.6	1.615
429.8	1.743
430.0	1.650
430.2	1.792
430.4	1.801
430.6	1.668
430.8	1.480
431.0	1.327
431.2	1.265
431.4	1.427
431.6	1.702
431.8	1.749
432.0	1.827
432.2	1.733
432.4	1.736
432.6	1.579
432.8	1.640
433.0	1.630
433.2	1.645
433.4	1.616
433.6	1.525
433.8	1.463
434.0	1.531
434.2	1.559
434.4	1.582
434.6	1.625
434.8	1.477
435.0	1.548
435.2	1.583
435.4	1.596
435.6	1.695
435.8	1.725
436.0	1.722
436.2	1.758
436.4	1.715
436.6	1.618
436.8	1.714
437.0	1.712
437.2	1.892
437.4	1.801
437.6	1.859
437.8	1.732
438.0	1.646
438.2	1.524
438.4	1.659
438.6	1.529
438.8	1.614
439.0	1.717
439.2	1.714
439.4	1.675
439.6	1.566
439.8	1.348
440.0	1.388
440.2	1.592
440.4	1.779
440.6	1.864
440.8	1.738
441.0	1.585
441.2	1.505
441.4	1.394
441.6	1.427
441.8	1.527
442.0	1.667
442.2	1.729
442.4	1.779
442.6	1.674
442.8	1.698
443.0	1.730
443.2	1.645
443.4	1.530
443.6	1.478
443.8	1.440
444.0	1.534
444.2	1.685
444.4	1.625
444.6	1.731
444.8	1.617
445.0	1.596
445.2	1.675
445.4	1.755
445.6	1.644
445.8	1.640
446.0	1.519
446.2	1.414
446.4	1.497
446.6	1.504
446.8	1.550
447.0	1.640
447.2	1.787
447.4	1.774
447.6	1.840
447.8	1.810
448.0	1.949
448.2	1.914
448.4	1.970
448.6	1.871
448.8	1.657
449.0	1.443
449.2	1.688
449.4	1.770
449.6	1.978
449.8	1.977
450.0	1.796
450.2	1.690
450.4	1.835
450.6	1.989
450.8	2.134
451.0	2.124
451.2	2.032
451.4	2.037
451.6	1.931
451.8	1.969
452.0	1.949
452.2	1.869
452.4	1.846
452.6	1.835
452.8	1.780
453.0	1.815
453.2	1.737
453.4	1.760
453.6	1.805
453.8	1.897
454.0	1.883
454.2	1.857
454.4	1.874
454.6	1.967
454.8	1.874
455.0	1.951
455.2	1.879
455.4	1.799
455.6	2.019
455.8	2.170
456.0	2.340
456.2	2.341
456.4	2.185
456.6	2.083
456.8	2.051
457.0	1.971
457.2	2.118
457.4	2.023
457.6	1.973
457.8	1.958
458.0	1.859
458.2	1.760
458.4	1.867
458.6	1.934
458.8	2.128
459.0	2.218
459.2	2.073
459.4	1.997
459.6	2.096
459.8	2.116
460.0	2.130
460.2	2.140
460.4	2.079
460.6	2.085
460.8	2.283
461.0	2.343
461.2	2.482
461.4	2.449
461.6	2.404
461.8	2.225
462.0	2.204
462.2	2.289
462.4	2.469
462.6	2.553
462.8	2.621
463.0	2.500
463.2	2.447
463.4	2.577
463.6	2.425
463.8	2.671
464.0	2.912
464.2	2.786
464.4	2.852
464.6	2.890
464.8	2.663
465.0	2.884
465.2	3.111
465.4	3.205
465.6	3.192
465.8	3.208
466.0	3.196
466.2	3.360
466.4	3.435
466.6	3.613
466.8	3.570
467.0	3.594
467.2	3.638
467.4	3.590
467.6	3.659
467.8	4.151
468.0	4.144
468.2	4.129
468.4	4.122
468.6	4.164
468.8	4.577
469.0	5.036
469.2	5.033
469.4	5.032
469.6	4.950
469.8	5.108
470.0	5.324
470.2	5.426
470.4	5.804
470.6	5.968
470.8	5.900
471.0	6.126
471.2	6.395
471.4	6.659
471.6	6.857
471.8	7.187
472.0	7.342
472.2	7.638
472.4	7.603
472.6	7.938
472.8	7.992
473.0	8.592
473.2	9.134
473.4	9.630
473.6	9.407
473.8	9.750
474.0	10.20
474.2	11.17
474.4	11.95
474.6	12.72
474.8	12.73
475.0	12.59
475.2	12.67
475.4	12.96
475.6	13.54
475.8	13.91
476.0	14.73
476.2	15.49
476.4	15.90
476.6	16.10
476.8	16.44
477.0	16.27
477.2	17.09
477.4	18.25
477.6	18.98
477.8	19.49
478.0	20.55
478.2	21.12
478.4	21.92
478.6	23.01
478.8	23.73
479.0	23.59
479.2	24.91
479.4	25.85
479.6	27.04
479.8	28.36
480.0	29.56
480.2	29.92
480.4	31.29
480.6	33.16
480.8	34.69
481.0	36.27
481.2	37.36
481.4	38.08
481.6	38.77
481.8	40.51
482.0	41.99
482.2	43.45
482.4	45.24
482.6	46.93
482.8	48.24
483.0	49.13
483.2	49.97
483.4	51.28
483.6	53.61
483.8	56.23
484.0	58.08
484.2	59.34
484.4	62.27
484.6	65.20
484.8	68.41
485.0	70.77
485.2	71.89
485.4	73.81
485.6	77.44
485.8	80.19
486.0	83.74
486.2	85.14
486.4	86.72
486.6	88.83
486.8	90.66
487.0	94.71
487.2	98.40
487.4	101.6
487.6	106.2
487.8	109.9
488.0	112.8
488.2	117.6
488.4	120.9
488.6	123.9
488.8	129.1
489.0	133.0
489.2	136.5
489.4	140.2
489.6	144.7
489.8	149.2
490.0	154.0
490.2	158.1
490.4	162.1
490.6	166.8
490.8	171.3
491.0	177.0
491.2	181.3
491.4	186.3
491.6	192.1
491.8	198.5
492.0	204.1
492.2	208.6
492.4	213.5
492.6	218.3
492.8	224.8
493.0	232.7
493.2	241.2
493.4	247.4
493.6	253.0
493.8	258.6
494.0	264.8
494.2	272.2
494.4	278.2
494.6	285.8
494.8	292.7
495.0	300.9
495.2	310.7
495.4	318.0
495.6	324.3
495.8	333.7
496.0	342.4
496.2	350.1
496.4	362.2
496.6	369.1
496.8	376.6
497.0	384.0
497.2	392.9
497.4	400.8
497.6	413.4
497.8	424.2
498.0	433.7
498.2	441.0
498.4	450.8
498.6	459.7
498.8	470.5
499.0	483.3
499.2	493.7
499.4	502.5
499.6	513.8
499.8	525.4
500.0	536.7
500.2	550.8
500.4	562.9
500.6	574.6
500.8	587.3
501.0	599.4
501.2	612.1
501.4	624.4
501.6	635.9
501.8	648.6
502.0	659.4
502.2	669.3
502.4	679.4
502.6	689.7
502.8	700.4
503.0	716.2
503.2	731.4
503.4	745.7
503.6	754.1
503.8	766.6
504.0	779.7
504.2	795.4
504.4	811.4
504.6	826.0
504.8	836.6
505.0	851.9
505.2	867.2
505.4	881.4
505.6	895.6
505.8	912.0
506.0	924.7
506.2	940.8
506.4	954.4
506.6	967.9
506.8	982.2
507.0	997.5
507.2	1008
507.4	1025
507.6	1043
507.8	1055
508.0	1069
508.2	1081
508.4	1096
508.6	1115
508.8	1129
509.0	1137
509.2	1148
509.4	1162
509.6	1181
509.8	1202
510.0	1215
510.2	1232
510.4	1245
510.6	1259
510.8	1273
511.0	1288
511.2	1303
511.4	1321
511.6	1333
511.8	1349
512.0	1363
512.2	1382
512.4	1398
512.6	1411
512.8	1421
513.0	1434
513.2	1445
513.4	1459
513.6	1473
513.8	1491
514.0	1509
514.2	1525
514.4	1536
514.6	1550
514.8	1564
515.0	1577
515.2	1590
515.4	1602
515.6	1615
515.8	1636
516.0	1652
516.2	1668
516.4	1683
516.6	1699
516.8	1714
517.0	1731
517.2	1739
517.4	1748
517.6	1757
517.8	1768
518.0	1783
518.2	1798
518.4	1811
518.6	1825
518.8	1837
519.0	1847
519.2	1857
519.4	1866
519.6	1880
519.8	1896
520.0	1911
520.2	1924
520.4	1934
520.6	1946
520.8	1954
521.0	1962
521.2	1972
521.4	1983
521.6	1997
521.8	2014
522.0	2022
522.2	2028
522.4	2038
522.6	2043
522.8	2050
523.0	2061
523.2	2072
523.4	2089
523.6	2104
523.8	2111
524.0	2115
524.2	2122
524.4	2132
524.6	2143
524.8	2153
525.0	2162
525.2	2170
525.4	2177
525.6	2188
525.8	2192
526.0	2199
526.2	2209
526.4	2218
526.6	2220
526.8	2230
527.0	2239
527.2	2248
527.4	2257
527.6	2260
527.8	2265
528.0	2274
528.2	2284
528.4	2287
528.6	2287
528.8	2291
529.0	2300
529.2	2311
529.4	2317
529.6	2314
529.8	2316
530.0	2325
530.2	2334
530.4	2344
530.6	2349
530.8	2349
531.0	2351
531.2	2352
531.4	2357
531.6	2359
531.8	2363
532.0	2373
532.2	2378
532.4	2384
532.6	2387
532.8	2384
533.0	2382
533.2	2388
533.4	2394
533.6	2402
533.8	2404
534.0	2410
534.2	2417
534.4	2425
534.6	2433
534.8	2431
535.0	2421
535.2	2418
535.4	2417
535.6	2418
535.8	2426
536.0	2432
536.2	2430
536.4	2432
536.6	2439
536.8	2439
537.0	2444
537.2	2446
537.4	2447
537.6	2450
537.8	2452
538.0	2453
538.2	2452
538.4	2447
538.6	2443
538.8	2444
539.0	2440
539.2	2441
539.4	2444
539.6	2449
539.8	2452
540.0	2461
540.2	2463
540.4	2461
540.6	2456
540.8	2446
541.0	2437
541.2	2433
541.4	2439
541.6	2447
541.8	2449
542.0	2453
542.2	2450
542.4	2444
542.6	2442
542.8	2435
543.0	2428
543.2	2430
543.4	2429
543.6	2431
543.8	2427
544.0	2425
544.2	2421
544.4	2423
544.6	2426
544.8	2431
545.0	2427
545.2	2424
545.4	2418
545.6	2413
545.8	2412
546.0	2413
546.2	2408
546.4	2404
546.6	2396
546.8	2391
547.0	2383
547.2	2382
547.4	2377
547.6	2384
547.8	2384
548.0	2385
548.2	2382
548.4	2380
548.6	2376
548.8	2374
549.0	2368
549.2	2362
549.4	2356
549.6	2350
549.8	2342
550.0	2340
550.2	2342
550.4	2342
550.6	2342
550.8	2334
551.0	2323
551.2	2324
551.4	2320
551.6	2317
551.8	2321
552.0	2318
552.2	2315
552.4	2311
552.6	2308
552.8	2299
553.0	2288
553.2	2283
553.4	2275
553.6	2276
553.8	2281
554.0	2276
554.2	2273
554.4	2267
554.6	2257
554.8	2256
555.0	2254
555.2	2247
555.4	2245
555.6	2241
555.8	2234
556.0	2229
556.2	2220
556.4	2212
556.6	2207
556.8	2206
557.0	2200
557.2	2202
557.4	2198
557.6	2199
557.8	2197
558.0	2189
558.2	2175
558.4	2168
558.6	2155
558.8	2151
559.0	2152
559.2	2146
559.4	2146
559.6	2139
559.8	2134
560.0	2129
560.2	2124
560.4	2112
560.6	2110
560.8	2108
561.0	2110
561.2	2105
561.4	2095
561.6	2080
561.8	2075
562.0	2076
562.2	2083
562.4	2079
562.6	2070
562.8	2053
563.0	2041
563.2	2042
563.4	2048
563.6	2045
563.8	2037
564.0	2025
564.2	2013
564.4	2009
564.6	2006
564.8	2007
565.0	2005
565.2	2001
565.4	1989
565.6	1978
565.8	1971
566.0	1969
566.2	1969
566.4	1962
566.6	1952
566.8	1942
567.0	1941
567.2	1936
567.4	1937
567.6	1930
567.8	1923
568.0	1911
568.2	1907
568.4	1895
568.6	1889
568.8	1884
569.0	1880
569.2	1877
569.4	1874
569.6	1865
569.8	1857
570.0	1850
570.2	1845
570.4	1848
570.6	1842
570.8	1839
571.0	1832
571.2	1822
571.4	1808
571.6	1799
571.8	1791
572.0	1790
572.2	1786
572.4	1787
572.6	1780
572.8	1771
573.0	1762
573.2	1754
573.4	1747
573.6	1751
573.8	1752
574.0	1746
574.2	1735
574.4	1731
574.6	1724
574.8	1720
575.0	1715
575.2	1706
575.4	1695
575.6	1690
575.8	1680
576.0	1677
576.2	1671
576.4	1667
576.6	1659
576.8	1653
577.0	1647
577.2	1645
577.4	1640
577.6	1636
577.8	1628
578.0	1621
578.2	1618
578.4	1612
578.6	1605
578.8	1600
579.0	1591
579.2	1586
579.4	1583
579.6	1579
579.8	1572
580.0	1570
580.2	1558
580.4	1547
580.6	1538
580.8	1533
581.0	1531
581.2	1532
581.4	1530
581.6	1521
581.8	1514
582.0	1503
582.2	1496
582.4	1492
582.6	1487
582.8	1479
583.0	1474
583.2	1468
583.4	1462
583.6	1459
583.8	1453
584.0	1450
584.2	1446
584.4	1438
584.6	1433
584.8	1427
585.0	1416
585.2	1410
585.4	1400
585.6	1394
585.8	1394
586.0	1391
586.2	1388
586.4	1384
586.6	1378
586.8	1377
587.0	1373
587.2	1366
587.4	1358
587.6	1349
587.8	1344
588.0	1341
588.2	1337
588.4	1331
588.6	1324
588.8	1319
589.0	1314
589.2	1309
589.4	1300
589.6	1291
589.8	1285
590.0	1283
590.2	1279
590.4	1280
590.6	1275
590.8	1267
591.0	1259
591.2	1254
591.4	1248
591.6	1245
591.8	1237
592.0	1228
592.2	1221
592.4	1223
592.6	1225
592.8	1224
593.0	1215
593.2	1206
593.4	1192
593.6	1189
593.8	1183
594.0	1182
594.2	1178
594.4	1174
594.6	1164
594.8	1160
595.0	1153
595.2	1147
595.4	1144
595.6	1140
595.8	1131
596.0	1124
596.2	1120
596.4	1118
596.6	1116
596.8	1113
597.0	1108
597.2	1104
597.4	1097
597.6	1095
597.8	1091
598.0	1086
598.2	1081
598.4	1077
598.6	1067
598.8	1064
599.0	1061
599.2	1054
599.4	1051
599.6	1052
599.8	1048
600.0	1043
600.2	1035
600.4	1027
600.6	1022
600.8	1020
601.0	1014
601.2	1010
601.4	1004
601.6	1002
601.8	998.4
602.0	995.1
602.2	989.9
602.4	989.5
602.6	985.2
602.8	982.2
603.0	978.7
603.2	974.4
603.4	968.2
603.6	961.0
603.8	951.5
604.0	946.5
604.2	941.7
604.4	935.8
604.6	930.2
604.8	925.4
605.0	923.8
605.2	921.8
605.4	916.7
605.6	912.1
605.8	907.8
606.0	904.4
606.2	902.6
606.4	902.3
606.6	898.4
606.8	895.5
607.0	894.6
607.2	887.7
607.4	882.9
607.6	877.5
607.8	867.1
608.0	860.1
608.2	859.4
608.4	853.6
608.6	854.6
608.8	849.6
609.0	842.1
609.2	838.7
609.4	836.9
609.6	831.9
609.8	830.0
610.0	826.5
610.2	823.3
610.4	819.4
610.6	814.4
610.8	809.3
611.0	804.3
611.2	798.7
611.4	795.0
611.6	791.4
611.8	787.8
612.0	783.4
612.2	780.2
612.4	777.3
612.6	774.7
612.8	774.8
613.0	770.2
613.2	765.8
613.4	758.7
613.6	753.0
613.8	750.4
614.0	750.4
614.2	744.1
614.4	738.1
614.6	734.2
614.8	728.6
615.0	728.7
615.2	727.3
615.4	720.2
615.6	716.2
615.8	719.1
616.0	716.7
616.2	714.3
616.4	708.2
616.6	698.0
616.8	692.8
617.0	689.0
617.2	687.6
617.4	684.6
617.6	682.1
617.8	679.1
618.0	676.9
618.2	673.9
618.4	671.7
618.6	667.5
618.8	665.1
619.0	660.3
619.2	654.3
619.4	650.1
619.6	645.5
619.8	643.3
620.0	641.4
620.2	637.2
620.4	633.2
620.6	629.9
620.8	626.4
621.0	622.5
621.2	620.9
621.4	618.8
621.6	613.2
621.8	610.1
622.0	608.5
622.2	604.7
622.4	603.9
622.6	603.8
622.8	600.0
623.0	593.5
623.2	588.7
623.4	585.7
623.6	581.9
623.8	581.7
624.0	580.2
624.2	575.4
624.4	571.0
624.6	570.0
624.8	568.2
625.0	565.4
625.2	560.9
625.4	556.8
625.6	550.7
625.8	546.2
626.0	543.5
626.2	540.1
626.4	536.7
626.6	533.5
626.8	532.6
627.0	532.7
627.2	530.6
627.4	529.6
627.6	521.9
627.8	517.0
628.0	512.7
628.2	509.7
628.4	509.0
628.6	507.3
628.8	503.2
629.0	501.2
629.2	499.5
629.4	496.2
629.6	495.6
629.8	489.8
630.0	487.5
630.2	483.4
630.4	481.7
630.6	480.2
630.8	481.1
631.0	479.1
631.2	477.9
631.4	474.6
631.6	471.0
631.8	469.6
632.0	465.9
632.2	461.0
632.4	456.3
632.6	453.7
632.8	451.5
633.0	451.6
633.2	447.2
633.4	442.8
633.6	439.8
633.8	439.0
634.0	435.9
634.2	434.7
634.4	429.6
634.6	426.5
634.8	424.0
635.0	422.4
635.2	419.9
635.4	417.2
635.6	415.5
635.8	414.7
636.0	411.7
636.2	409.5
636.4	407.5
636.6	406.5
636.8	405.9
637.0	404.7
637.2	401.5
637.4	398.8
637.6	396.7
637.8	394.8
638.0	388.8
638.2	386.9
638.4	383.0
638.6	383.5
638.8	383.2
639.0	380.4
639.2	375.9
639.4	372.9
639.6	369.2
639.8	368.2
640.0	365.2
640.2	362.4
640.4	360.8
640.6	358.9
640.8	359.8
641.0	359.2
641.2	355.5
641.4	352.4
641.6	352.3
641.8	348.5
642.0	348.2
642.2	346.3
642.4	344.0
642.6	342.5
642.8	342.4
643.0	337.1
643.2	332.2
643.4	328.4
643.6	326.8
643.8	325.6
644.0	326.5
644.2	326.7
644.4	325.3
644.6	323.5
644.8	320.3
645.0	315.5
645.2	313.6
645.4	312.7
645.6	313.6
645.8	312.9
646.0	309.6
646.2	305.9
646.4	303.5
646.6	300.8
646.8	299.6
647.0	297.8
647.2	294.7
647.4	291.8
647.6	290.2
647.8	288.4
648.0	288.9
648.2	290.0
648.4	289.1
648.6	285.9
648.8	284.0
649.0	281.8
649.2	281.6
649.4	279.9
649.6	277.0
649.8	273.7
650.0	272.4
650.2	270.1
650.4	267.2
650.6	262.8
650.8	262.1
651.0	261.7
651.2	264.6
651.4	265.3
651.6	264.3
651.8	262.4
652.0	260.7
652.2	257.5
652.4	256.7
652.6	253.7
652.8	251.7
653.0	250.9
653.2	248.9
653.4	244.9
653.6	243.4
653.8	241.8
654.0	242.0
654.2	241.6
654.4	240.7
654.6	237.0
654.8	235.0
655.0	233.0
655.2	233.5
655.4	232.6
655.6	232.4
655.8	231.1
656.0	230.4
656.2	228.0
656.4	228.1
656.6	226.1
656.8	223.7
657.0	221.8
657.2	220.0
657.4	217.9
657.6	216.6
657.8	214.7
658.0	213.2
658.2	211.9
658.4	209.7
658.6	209.0
658.8	207.6
659.0	207.0
659.2	205.8
659.4	204.5
659.6	202.6
659.8	201.0
660.0	198.8
660.2	198.8
660.4	197.8
660.6	196.8
660.8	195.9
661.0	195.7
661.2	192.0
661.4	189.9
661.6	188.6
661.8	184.9
662.0	185.1
662.2	185.2
662.4	182.6
662.6	182.3
662.8	182.8
663.0	180.4
663.2	180.3
663.4	178.0
663.6	176.1
663.8	176.0
664.0	177.0
664.2	176.5
664.4	176.6
664.6	174.2
664.8	172.0
665.0	169.9
665.2	169.8
665.4	168.5
665.6	168.0
665.8	166.0
666.0	166.1
666.2	165.7
666.4	166.9
666.6	165.9
666.8	163.3
667.0	161.2
667.2	160.0
667.4	158.2
667.6	158.3
667.8	156.6
668.0	155.4
668.2	155.4
668.4	154.2
668.6	152.8
668.8	152.8
669.0	151.1
669.2	150.7
669.4	150.0
669.6	147.8
669.8	146.0
670.0	144.3
670.2	143.3
670.4	143.7
670.6	143.4
670.8	142.4
671.0	141.7
671.2	139.6
671.4	138.7
671.6	138.8
671.8	136.7
672.0	135.4
672.2	133.7
672.4	133.3
672.6	133.2
672.8	133.4
673.0	133.0
673.2	133.2
673.4	132.7
673.6	132.5
673.8	131.1
674.0	129.0
674.2	128.0
674.4	126.0
674.6	124.9
674.8	123.7
675.0	123.3
675.2	123.5
675.4	123.2
675.6	122.3
675.8	120.5
676.0	119.4
676.2	118.8
676.4	117.8
676.6	117.4
676.8	117.9
677.0	117.2
677.2	117.2
677.4	115.5
677.6	113.0
677.8	112.9
678.0	113.3
678.2	113.2
678.4	113.1
678.6	111.4
678.8	109.3
679.0	108.0
679.2	107.6
679.4	106.2
679.6	106.2
679.8	105.1
680.0	104.5
680.2	103.5
680.4	103.3
680.6	103.1
680.8	103.8
681.0	103.1
681.2	102.2
681.4	101.0
681.6	100.5
681.8	100.1
682.0	100.1
682.2	98.87
682.4	97.33
682.6	96.61
682.8	96.66
683.0	95.47
683.2	94.77
683.4	93.70
683.6	92.69
683.8	92.29
684.0	92.52
684.2	91.87
684.4	91.63
684.6	90.59
684.8	89.65
685.0	88.55
685.2	87.50
685.4	86.85
685.6	87.10
685.8	86.52
686.0	87.78
686.2	87.80
686.4	87.32
686.6	86.33
686.8	85.08
687.0	82.73
687.2	82.36
687.4	82.15
687.6	81.41
687.8	81.20
688.0	80.88
688.2	79.83
688.4	79.77
688.6	80.54
688.8	79.32
689.0	79.14
689.2	78.74
689.4	78.56
689.6	77.57
689.8	77.30
690.0	75.83
690.2	75.98
690.4	76.25
690.6	75.89
690.8	75.26
691.0	74.37
691.2	73.15
691.4	72.40
691.6	73.03
691.8	72.35
692.0	72.38
692.2	71.10
692.4	69.91
692.6	69.61
692.8	70.16
693.0	69.32
693.2	68.78
693.4	67.33
693.6	67.47
693.8	68.43
694.0	68.41
694.2	68.28
694.4	67.80
694.6	66.83
694.8	66.59
695.0	65.85
695.2	65.61
695.4	66.26
695.6	65.86
695.8	65.31
696.0	64.62
696.2	64.19
696.4	63.80
696.6	63.38
696.8	61.91
697.0	61.02
697.2	60.35
697.4	60.53
697.6	60.28
697.8	60.09
698.0	59.58
698.2	59.75
698.4	59.84
698.6	60.01
698.8	58.86
699.0	58.12
699.2	57.68
699.4	57.77
699.6	58.16
699.8	57.97
700.0	57.06
700.2	56.45
700.4	55.88
700.6	55.34
700.8	55.45
701.0	55.19
701.2	55.73
701.4	55.51
701.6	56.01
701.8	56.46
702.0	57.13
702.2	56.66
702.4	55.58
702.6	53.67
702.8	51.97
703.0	51.23
703.2	51.09
703.4	50.65
703.6	50.95
703.8	50.76
704.0	49.49
704.2	49.92
704.4	50.22
704.6	50.34
704.8	50.29
705.0	50.28
705.2	49.96
705.4	50.36
705.6	50.43
705.8	50.26
706.0	48.60
706.2	47.92
706.4	46.81
706.6	46.49
706.8	47.19
707.0	48.15
707.2	47.95
707.4	47.55
707.6	46.62
707.8	46.20
708.0	45.87
708.2	45.43
708.4	44.38
708.6	44.58
708.8	45.26
709.0	45.94
709.2	45.18
709.4	43.60
709.6	42.94
709.8	43.51
710.0	44.03
710.2	44.32
710.4	43.55
710.6	42.27
710.8	41.67
711.0	41.42
711.2	41.71
711.4	41.85
711.6	41.85
711.8	41.57
712.0	40.57
712.2	40.41
712.4	40.59
712.6	40.61
712.8	40.49
713.0	40.30
713.2	39.53
713.4	39.41
713.6	39.97
713.8	40.26
714.0	39.67
714.2	39.07
714.4	37.66
714.6	37.14
714.8	37.76
715.0	38.41
715.2	38.15
715.4	38.15
715.6	37.97
715.8	37.22
716.0	36.61
716.2	36.86
716.4	36.58
716.6	36.63
716.8	36.75
717.0	35.94
