Sample:	'20211010A(EM)
File name:	G-NI 1.FDS
Run date:	'18:05:29, 06/19/2023
Operator:	Administrator
Comment:	'

Instrument
Model:	F-4700 FL Spectrophotometer
Serial number:	2019-001
ROM Version:	5J24010 00

Instrument parameters
Measurement type:	Wavelength scan
Scan mode:	Emission
Data mode:	Fluorescence
EX WL:	400.0 nm
EM  Start WL:	420.0 nm
EM  End WL:	800.0 nm
Scan speed:	1200 nm/min
Delay:	0.0 s
EX Slit:	10.0 nm
EM Slit:	10.0 nm
PMT Voltage:	500 V
Response:	0.002 s
Corrected spectra:	Off
Shutter control:	On

Processing performed
Savitsky-Golay smoothed
Smoothing order:	3
Number of points:	7
Number of times:	1

Peak integration
Integration method:	Rectangular
Sensitivity:	1
Threshold:	1.000

Peaks
No.	Start(nm)	Apex(nm)	End(nm)	Height(Data)	Valley(nm)	Valley(Data)
1	420.0	530.4	531.2	518.1	531.2	514.7
2	531.2	533.0	533.8	528.0	533.8	522.9
3	533.8	536.6	538.4	540.5	538.4	534.1
4	538.4	539.2	540.8	539.1	540.8	534.7
5	540.8	541.4	542.0	539.9	542.0	531.4
6	542.0	542.8	546.0	537.6	546.0	521.5
7	546.0	546.8	646.0	531.2	646.0	66.19
8	646.0	647.4	679.0	67.46	679.0	22.79
9	679.0	680.6	684.6	24.22	684.6	18.79
10	684.6	685.4	694.8	19.93	694.8	13.58
11	694.8	695.6	697.4	15.05	697.4	12.38
12	697.4	698.2	702.0	13.73	702.0	10.90
13	702.0	703.6	706.2	12.03	706.2	9.050
14	706.2	707.4	717.2	10.69	717.2	6.886
15	717.2	718.2	800.0	7.951	800.0	1.855

Data points
nm	Data
420.0	0.618
420.2	0.565
420.4	0.530
420.6	0.532
420.8	0.613
421.0	0.769
421.2	0.781
421.4	0.771
421.6	0.704
421.8	0.655
422.0	0.606
422.2	0.625
422.4	0.548
422.6	0.592
422.8	0.596
423.0	0.682
423.2	0.690
423.4	0.763
423.6	0.668
423.8	0.653
424.0	0.629
424.2	0.574
424.4	0.516
424.6	0.530
424.8	0.499
425.0	0.573
425.2	0.629
425.4	0.651
425.6	0.678
425.8	0.694
426.0	0.676
426.2	0.715
426.4	0.581
426.6	0.570
426.8	0.546
427.0	0.498
427.2	0.496
427.4	0.627
427.6	0.693
427.8	0.799
428.0	0.777
428.2	0.675
428.4	0.486
428.6	0.482
428.8	0.480
429.0	0.565
429.2	0.647
429.4	0.766
429.6	0.748
429.8	0.812
430.0	0.736
430.2	0.698
430.4	0.584
430.6	0.525
430.8	0.535
431.0	0.592
431.2	0.712
431.4	0.798
431.6	0.819
431.8	0.695
432.0	0.619
432.2	0.555
432.4	0.611
432.6	0.647
432.8	0.666
433.0	0.607
433.2	0.560
433.4	0.569
433.6	0.586
433.8	0.599
434.0	0.521
434.2	0.512
434.4	0.499
434.6	0.515
434.8	0.611
435.0	0.707
435.2	0.776
435.4	0.818
435.6	0.778
435.8	0.673
436.0	0.651
436.2	0.551
436.4	0.565
436.6	0.498
436.8	0.513
437.0	0.505
437.2	0.558
437.4	0.589
437.6	0.545
437.8	0.531
438.0	0.567
438.2	0.690
438.4	0.814
438.6	0.931
438.8	0.786
439.0	0.772
439.2	0.627
439.4	0.660
439.6	0.727
439.8	0.794
440.0	0.798
440.2	0.760
440.4	0.726
440.6	0.684
440.8	0.673
441.0	0.653
441.2	0.681
441.4	0.642
441.6	0.694
441.8	0.651
442.0	0.617
442.2	0.561
442.4	0.571
442.6	0.546
442.8	0.622
443.0	0.623
443.2	0.590
443.4	0.542
443.6	0.487
443.8	0.509
444.0	0.651
444.2	0.690
444.4	0.669
444.6	0.600
444.8	0.610
445.0	0.639
445.2	0.642
445.4	0.620
445.6	0.594
445.8	0.633
446.0	0.804
446.2	0.858
446.4	0.752
446.6	0.644
446.8	0.542
447.0	0.573
447.2	0.622
447.4	0.622
447.6	0.520
447.8	0.600
448.0	0.646
448.2	0.674
448.4	0.678
448.6	0.649
448.8	0.574
449.0	0.691
449.2	0.792
449.4	0.792
449.6	0.754
449.8	0.747
450.0	0.692
450.2	0.659
450.4	0.732
450.6	0.812
450.8	0.816
451.0	0.855
451.2	0.718
451.4	0.640
451.6	0.609
451.8	0.643
452.0	0.692
452.2	0.807
452.4	0.699
452.6	0.758
452.8	0.718
453.0	0.599
453.2	0.598
453.4	0.655
453.6	0.636
453.8	0.672
454.0	0.729
454.2	0.732
454.4	0.718
454.6	0.641
454.8	0.584
455.0	0.554
455.2	0.544
455.4	0.607
455.6	0.634
455.8	0.781
456.0	0.907
456.2	0.972
456.4	0.859
456.6	0.798
456.8	0.705
457.0	0.669
457.2	0.700
457.4	0.708
457.6	0.666
457.8	0.705
458.0	0.790
458.2	0.869
458.4	0.989
458.6	0.934
458.8	0.789
459.0	0.670
459.2	0.789
459.4	0.854
459.6	0.784
459.8	0.780
460.0	0.719
460.2	0.808
460.4	0.896
460.6	0.919
460.8	0.760
461.0	0.827
461.2	0.782
461.4	0.916
461.6	0.960
461.8	1.043
462.0	0.913
462.2	1.007
462.4	0.851
462.6	0.759
462.8	0.716
463.0	0.670
463.2	0.707
463.4	0.995
463.6	0.977
463.8	1.000
464.0	0.985
464.2	0.831
464.4	0.886
464.6	1.005
464.8	0.932
465.0	1.099
465.2	1.140
465.4	1.036
465.6	1.091
465.8	1.141
466.0	1.073
466.2	1.104
466.4	1.143
466.6	1.145
466.8	1.293
467.0	1.427
467.2	1.422
467.4	1.309
467.6	1.323
467.8	1.189
468.0	1.148
468.2	1.185
468.4	1.175
468.6	1.156
468.8	1.147
469.0	1.152
469.2	1.103
469.4	1.250
469.6	1.378
469.8	1.421
470.0	1.509
470.2	1.664
470.4	1.612
470.6	1.717
470.8	1.693
471.0	1.636
471.2	1.763
471.4	1.899
471.6	1.794
471.8	1.834
472.0	1.930
472.2	2.043
472.4	2.327
472.6	2.555
472.8	2.522
473.0	2.477
473.2	2.518
473.4	2.502
473.6	2.471
473.8	2.552
474.0	2.550
474.2	2.590
474.4	2.681
474.6	2.671
474.8	2.585
475.0	2.787
475.2	3.000
475.4	3.381
475.6	3.593
475.8	3.689
476.0	3.672
476.2	3.678
476.4	3.753
476.6	3.838
476.8	3.982
477.0	4.223
477.2	4.402
477.4	4.493
477.6	4.876
477.8	4.979
478.0	5.429
478.2	5.426
478.4	5.539
478.6	5.515
478.8	5.741
479.0	5.788
479.2	6.014
479.4	6.151
479.6	6.305
479.8	6.655
480.0	6.815
480.2	7.065
480.4	7.384
480.6	7.701
480.8	7.645
481.0	8.128
481.2	8.255
481.4	8.717
481.6	9.236
481.8	9.677
482.0	10.05
482.2	10.17
482.4	10.44
482.6	10.69
482.8	10.98
483.0	11.37
483.2	12.04
483.4	12.02
483.6	12.74
483.8	13.17
484.0	13.79
484.2	14.04
484.4	14.90
484.6	14.52
484.8	14.69
485.0	14.98
485.2	16.00
485.4	16.92
485.6	18.28
485.8	18.85
486.0	19.54
486.2	19.81
486.4	20.10
486.6	20.38
486.8	20.77
487.0	21.65
487.2	23.32
487.4	23.97
487.6	24.73
487.8	25.44
488.0	25.26
488.2	25.53
488.4	26.59
488.6	27.97
488.8	29.47
489.0	30.70
489.2	31.49
489.4	31.43
489.6	31.42
489.8	32.26
490.0	33.10
490.2	34.37
490.4	35.87
490.6	37.15
490.8	38.59
491.0	39.67
491.2	41.21
491.4	42.32
491.6	43.12
491.8	44.39
492.0	45.67
492.2	46.68
492.4	47.79
492.6	49.46
492.8	51.27
493.0	53.67
493.2	54.91
493.4	55.72
493.6	56.03
493.8	57.55
494.0	59.07
494.2	61.44
494.4	63.09
494.6	64.93
494.8	66.58
495.0	67.78
495.2	69.91
495.4	72.06
495.6	73.93
495.8	75.86
496.0	78.28
496.2	79.01
496.4	80.92
496.6	82.31
496.8	83.88
497.0	85.39
497.2	87.94
497.4	89.76
497.6	91.55
497.8	93.77
498.0	96.39
498.2	98.20
498.4	100.7
498.6	102.9
498.8	104.4
499.0	106.5
499.2	108.5
499.4	110.4
499.6	113.8
499.8	117.1
500.0	119.0
500.2	121.5
500.4	123.5
500.6	125.2
500.8	128.4
501.0	131.2
501.2	134.1
501.4	137.2
501.6	140.2
501.8	142.9
502.0	144.6
502.2	146.4
502.4	150.3
502.6	153.9
502.8	158.0
503.0	161.2
503.2	163.0
503.4	164.3
503.6	166.1
503.8	168.4
504.0	172.2
504.2	175.9
504.4	179.9
504.6	182.8
504.8	185.4
505.0	189.8
505.2	194.1
505.4	197.8
505.6	200.2
505.8	202.7
506.0	205.7
506.2	208.4
506.4	211.6
506.6	214.1
506.8	216.1
507.0	219.2
507.2	224.6
507.4	227.4
507.6	231.3
507.8	236.3
508.0	239.1
508.2	241.9
508.4	245.7
508.6	247.8
508.8	250.1
509.0	254.9
509.2	256.4
509.4	258.6
509.6	262.1
509.8	266.1
510.0	269.3
510.2	274.2
510.4	276.7
510.6	278.7
510.8	283.0
511.0	287.9
511.2	290.2
511.4	293.5
511.6	296.3
511.8	297.9
512.0	302.1
512.2	306.0
512.4	308.8
512.6	310.2
512.8	311.6
513.0	314.2
513.2	317.2
513.4	319.8
513.6	322.2
513.8	328.4
514.0	334.1
514.2	339.3
514.4	342.0
514.6	344.2
514.8	344.1
515.0	348.1
515.2	351.8
515.4	355.3
515.6	356.9
515.8	359.3
516.0	360.9
516.2	363.7
516.4	368.7
516.6	373.4
516.8	376.3
517.0	377.4
517.2	379.0
517.4	383.5
517.6	389.4
517.8	392.8
518.0	396.7
518.2	398.4
518.4	400.1
518.6	402.9
518.8	405.7
519.0	409.9
519.2	413.6
519.4	417.0
519.6	416.9
519.8	416.2
520.0	416.6
520.2	420.3
520.4	424.8
520.6	429.5
520.8	431.6
521.0	431.6
521.2	434.7
521.4	437.5
521.6	439.1
521.8	440.4
522.0	441.7
522.2	441.1
522.4	445.4
522.6	449.0
522.8	450.4
523.0	455.1
523.2	456.2
523.4	458.1
523.6	459.8
523.8	461.8
524.0	463.4
524.2	467.9
524.4	468.3
524.6	470.3
524.8	470.4
525.0	473.9
525.2	478.4
525.4	482.4
525.6	483.5
525.8	482.2
526.0	482.2
526.2	483.0
526.4	487.2
526.6	491.5
526.8	491.5
527.0	492.9
527.2	495.3
527.4	496.1
527.6	499.4
527.8	502.3
528.0	500.2
528.2	500.1
528.4	499.7
528.6	499.1
528.8	501.0
529.0	506.7
529.2	510.2
529.4	510.9
529.6	511.6
529.8	510.2
530.0	511.7
530.2	516.3
530.4	518.1
530.6	517.1
530.8	515.8
531.0	514.8
531.2	514.7
531.4	516.0
531.6	515.6
531.8	515.6
532.0	518.4
532.2	520.1
532.4	521.8
532.6	523.9
532.8	527.1
533.0	528.0
533.2	527.8
533.4	526.3
533.6	524.9
533.8	522.9
534.0	526.9
534.2	525.5
534.4	524.2
534.6	527.4
534.8	529.2
535.0	530.9
535.2	535.4
535.4	534.7
535.6	537.1
535.8	539.3
536.0	539.3
536.2	538.0
536.4	539.3
536.6	540.5
536.8	539.8
537.0	538.4
537.2	537.0
537.4	536.9
537.6	537.9
537.8	538.9
538.0	537.6
538.2	535.1
538.4	534.1
538.6	535.3
538.8	535.0
539.0	536.9
539.2	539.1
539.4	538.3
539.6	538.5
539.8	537.6
540.0	537.3
540.2	538.2
540.4	537.1
540.6	536.2
540.8	534.7
541.0	535.5
541.2	538.0
541.4	539.9
541.6	537.3
541.8	534.3
542.0	531.4
542.2	532.4
542.4	535.0
542.6	537.3
542.8	537.6
543.0	534.8
543.2	533.7
543.4	533.2
543.6	534.1
543.8	534.1
544.0	534.2
544.2	531.4
544.4	531.0
544.6	529.3
544.8	528.3
545.0	528.9
545.2	527.7
545.4	524.9
545.6	524.0
545.8	522.4
546.0	521.5
546.2	525.2
546.4	528.7
546.6	529.9
546.8	531.2
547.0	529.2
547.2	524.6
547.4	523.4
547.6	522.8
547.8	522.9
548.0	524.3
548.2	525.8
548.4	524.3
548.6	523.1
548.8	521.9
549.0	518.7
549.2	518.6
549.4	520.6
549.6	520.2
549.8	517.6
550.0	515.4
550.2	512.1
550.4	512.5
550.6	510.9
550.8	509.8
551.0	506.2
551.2	503.1
551.4	504.3
551.6	506.5
551.8	505.3
552.0	507.0
552.2	504.0
552.4	501.2
552.6	501.0
552.8	501.1
553.0	501.1
553.2	502.4
553.4	500.2
553.6	496.8
553.8	494.7
554.0	494.0
554.2	495.2
554.4	496.7
554.6	497.5
554.8	495.4
555.0	491.8
555.2	488.4
555.4	486.7
555.6	487.7
555.8	489.8
556.0	489.1
556.2	488.3
556.4	486.8
556.6	484.9
556.8	484.5
557.0	485.2
557.2	484.4
557.4	485.9
557.6	484.2
557.8	482.0
558.0	478.6
558.2	475.5
558.4	474.5
558.6	473.8
558.8	471.5
559.0	471.9
559.2	471.9
559.4	468.9
559.6	469.7
559.8	469.2
560.0	466.3
560.2	466.6
560.4	466.5
560.6	461.8
560.8	460.1
561.0	459.0
561.2	456.8
561.4	458.3
561.6	457.9
561.8	455.6
562.0	454.3
562.2	453.4
562.4	451.5
562.6	452.8
562.8	452.6
563.0	449.7
563.2	450.1
563.4	448.3
563.6	445.7
563.8	444.8
564.0	443.4
564.2	439.1
564.4	441.3
564.6	440.5
564.8	440.6
565.0	439.4
565.2	435.6
565.4	432.2
565.6	431.0
565.8	431.7
566.0	430.6
566.2	429.2
566.4	424.9
566.6	424.8
566.8	425.4
567.0	428.9
567.2	426.9
567.4	424.1
567.6	420.9
567.8	419.2
568.0	417.7
568.2	417.4
568.4	415.5
568.6	413.0
568.8	411.9
569.0	411.2
569.2	410.6
569.4	411.0
569.6	410.1
569.8	408.7
570.0	406.1
570.2	405.4
570.4	404.4
570.6	401.6
570.8	398.6
571.0	395.8
571.2	394.1
571.4	395.4
571.6	395.6
571.8	394.3
572.0	390.8
572.2	387.4
572.4	386.6
572.6	386.7
572.8	387.2
573.0	385.7
573.2	384.4
573.4	383.2
573.6	383.8
573.8	383.0
574.0	382.5
574.2	380.1
574.4	376.0
574.6	372.5
574.8	370.9
575.0	368.1
575.2	368.1
575.4	369.8
575.6	368.4
575.8	367.4
576.0	366.2
576.2	362.5
576.4	363.1
576.6	362.4
576.8	362.7
577.0	360.4
577.2	357.7
577.4	355.8
577.6	355.9
577.8	353.5
578.0	354.1
578.2	351.7
578.4	349.9
578.6	350.3
578.8	347.8
579.0	345.0
579.2	344.2
579.4	341.5
579.6	341.9
579.8	341.8
580.0	339.2
580.2	336.8
580.4	336.7
580.6	335.0
580.8	335.9
581.0	335.2
581.2	333.7
581.4	333.4
581.6	333.1
581.8	328.9
582.0	327.5
582.2	325.1
582.4	324.0
582.6	324.1
582.8	321.8
583.0	317.5
583.2	316.8
583.4	316.0
583.6	316.9
583.8	316.1
584.0	314.9
584.2	315.1
584.4	314.3
584.6	313.9
584.8	314.3
585.0	312.1
585.2	308.8
585.4	307.2
585.6	303.6
585.8	300.6
586.0	302.9
586.2	303.5
586.4	302.4
586.6	302.2
586.8	300.3
587.0	296.2
587.2	295.7
587.4	293.7
587.6	292.0
587.8	291.2
588.0	291.3
588.2	291.3
588.4	290.4
588.6	289.2
588.8	286.8
589.0	284.3
589.2	283.1
589.4	282.5
589.6	280.9
589.8	280.1
590.0	279.8
590.2	277.0
590.4	274.6
590.6	270.7
590.8	269.0
591.0	269.8
591.2	271.5
591.4	270.7
591.6	270.4
591.8	268.5
592.0	268.3
592.2	270.2
592.4	269.8
592.6	268.0
592.8	265.0
593.0	262.7
593.2	259.3
593.4	259.5
593.6	258.4
593.8	257.4
594.0	256.5
594.2	255.6
594.4	253.4
594.6	253.4
594.8	253.3
595.0	252.6
595.2	252.4
595.4	249.7
595.6	246.9
595.8	246.3
596.0	246.0
596.2	245.3
596.4	245.0
596.6	243.3
596.8	242.4
597.0	241.7
597.2	239.5
597.4	238.9
597.6	238.5
597.8	238.9
598.0	237.4
598.2	234.3
598.4	230.5
598.6	228.6
598.8	227.6
599.0	229.3
599.2	229.8
599.4	230.6
599.6	229.1
599.8	228.1
600.0	226.4
600.2	226.4
600.4	224.1
600.6	223.2
600.8	221.0
601.0	220.7
601.2	219.5
601.4	217.7
601.6	216.0
601.8	215.8
602.0	216.4
602.2	216.1
602.4	214.7
602.6	211.0
602.8	209.2
603.0	207.3
603.2	207.1
603.4	209.0
603.6	210.5
603.8	210.0
604.0	207.4
604.2	204.3
604.4	202.0
604.6	201.5
604.8	200.6
605.0	200.5
605.2	198.9
605.4	199.0
605.6	198.2
605.8	197.4
606.0	196.9
606.2	197.2
606.4	197.5
606.6	197.0
606.8	195.6
607.0	193.1
607.2	190.6
607.4	189.4
607.6	188.6
607.8	186.3
608.0	186.6
608.2	186.9
608.4	186.2
608.6	186.5
608.8	185.3
609.0	182.7
609.2	181.2
609.4	181.2
609.6	179.7
609.8	178.8
610.0	177.0
610.2	176.4
610.4	175.5
610.6	175.5
610.8	177.4
611.0	177.2
611.2	175.7
611.4	174.6
611.6	172.9
611.8	170.9
612.0	171.0
612.2	169.2
612.4	167.5
612.6	165.6
612.8	167.3
613.0	167.6
613.2	167.2
613.4	165.1
613.6	163.0
613.8	162.2
614.0	161.8
614.2	160.2
614.4	158.9
614.6	157.6
614.8	156.7
615.0	158.1
615.2	157.7
615.4	157.0
615.6	157.0
615.8	156.9
616.0	155.9
616.2	155.5
616.4	154.9
616.6	153.4
616.8	152.6
617.0	151.8
617.2	150.0
617.4	147.8
617.6	146.9
617.8	146.0
618.0	145.1
618.2	145.2
618.4	143.8
618.6	141.9
618.8	141.4
619.0	141.1
619.2	140.1
619.4	139.5
619.6	139.2
619.8	139.2
620.0	140.3
620.2	139.4
620.4	137.9
620.6	135.4
620.8	134.9
621.0	135.1
621.2	134.6
621.4	133.7
621.6	133.5
621.8	132.1
622.0	132.1
622.2	131.4
622.4	128.9
622.6	129.0
622.8	129.8
623.0	128.8
623.2	127.5
623.4	126.8
623.6	126.3
623.8	127.1
624.0	127.5
624.2	126.0
624.4	124.2
624.6	123.7
624.8	123.0
625.0	121.9
625.2	121.9
625.4	121.2
625.6	121.4
625.8	121.0
626.0	119.6
626.2	118.3
626.4	117.1
626.6	116.0
626.8	117.2
627.0	116.0
627.2	114.7
627.4	113.9
627.6	112.0
627.8	110.9
628.0	111.4
628.2	110.6
628.4	110.1
628.6	110.4
628.8	109.8
629.0	109.3
629.2	108.8
629.4	107.9
629.6	108.6
629.8	108.6
630.0	107.6
630.2	106.6
630.4	105.9
630.6	105.1
630.8	105.2
631.0	104.4
631.2	102.8
631.4	101.4
631.6	100.2
631.8	98.74
632.0	97.77
632.2	98.31
632.4	99.35
632.6	100.7
632.8	100.3
633.0	99.54
633.2	97.47
633.4	96.72
633.6	96.04
633.8	96.49
634.0	96.55
634.2	95.82
634.4	94.38
634.6	93.32
634.8	91.61
635.0	91.82
635.2	92.50
635.4	91.60
635.6	91.44
635.8	90.31
636.0	89.04
636.2	87.46
636.4	87.21
636.6	87.42
636.8	87.27
637.0	87.49
637.2	86.66
637.4	85.30
637.6	85.18
637.8	85.33
638.0	84.86
638.2	85.07
638.4	84.44
638.6	83.70
638.8	83.58
639.0	83.54
639.2	82.36
639.4	81.23
639.6	80.02
639.8	79.10
640.0	79.70
640.2	80.04
640.4	79.06
640.6	79.56
640.8	79.03
641.0	78.47
641.2	77.42
641.4	76.29
641.6	75.03
641.8	75.49
642.0	74.73
642.2	74.14
642.4	73.39
642.6	73.52
642.8	73.43
643.0	73.36
643.2	72.80
643.4	73.11
643.6	72.44
643.8	71.14
644.0	71.58
644.2	70.94
644.4	70.36
644.6	70.02
644.8	68.66
645.0	67.08
645.2	67.69
645.4	67.15
645.6	66.50
645.8	66.45
646.0	66.19
646.2	66.39
646.4	66.45
646.6	66.27
646.8	67.14
647.0	67.28
647.2	67.23
647.4	67.46
647.6	65.80
647.8	64.49
648.0	64.26
648.2	62.97
648.4	62.68
648.6	62.89
648.8	61.81
649.0	61.57
649.2	61.01
649.4	60.16
649.6	59.73
649.8	59.52
650.0	59.59
650.2	59.87
650.4	59.14
650.6	59.26
650.8	58.57
651.0	57.77
651.2	57.38
651.4	56.95
651.6	55.67
651.8	55.10
652.0	54.28
652.2	54.11
652.4	54.36
652.6	55.06
652.8	55.34
653.0	53.84
653.2	53.20
653.4	53.59
653.6	53.97
653.8	54.00
654.0	54.21
654.2	52.79
654.4	51.37
654.6	51.43
654.8	51.55
655.0	51.54
655.2	51.76
655.4	50.92
655.6	48.96
655.8	47.98
656.0	48.23
656.2	48.49
656.4	48.68
656.6	48.42
656.8	47.51
657.0	46.73
657.2	46.26
657.4	46.72
657.6	47.11
657.8	47.62
658.0	47.85
658.2	47.28
658.4	45.94
658.6	45.95
658.8	45.04
659.0	44.43
659.2	44.11
659.4	43.56
659.6	43.35
659.8	43.48
660.0	43.27
660.2	42.56
660.4	42.42
660.6	42.15
660.8	42.73
661.0	42.26
661.2	42.16
661.4	41.26
661.6	40.53
661.8	40.27
662.0	40.40
662.2	39.73
662.4	39.78
662.6	39.66
662.8	39.39
663.0	39.16
663.2	39.11
663.4	39.21
663.6	39.52
663.8	38.82
664.0	38.12
664.2	36.71
664.4	36.68
664.6	37.11
664.8	37.34
665.0	37.66
665.2	37.64
665.4	37.53
665.6	37.51
665.8	37.08
666.0	35.79
666.2	35.65
666.4	34.84
666.6	34.91
666.8	34.90
667.0	35.07
667.2	34.46
667.4	34.13
667.6	33.50
667.8	33.76
668.0	33.86
668.2	33.71
668.4	32.96
668.6	32.39
668.8	31.40
669.0	31.47
669.2	31.43
669.4	31.49
669.6	31.59
669.8	31.61
670.0	30.98
670.2	31.00
670.4	30.60
670.6	30.32
670.8	30.48
671.0	30.82
671.2	30.55
671.4	31.02
671.6	30.68
671.8	30.02
672.0	30.02
672.2	29.71
672.4	29.07
672.6	29.26
672.8	29.46
673.0	29.01
673.2	28.29
673.4	27.53
673.6	27.54
673.8	28.30
674.0	28.53
674.2	28.00
674.4	27.24
674.6	26.90
674.8	26.78
675.0	27.76
675.2	27.12
675.4	26.70
675.6	26.30
675.8	26.02
676.0	25.47
676.2	25.79
676.4	25.82
676.6	25.68
676.8	25.69
677.0	25.64
677.2	25.04
677.4	25.19
677.6	25.60
677.8	25.20
678.0	25.43
678.2	25.18
678.4	24.34
678.6	23.85
678.8	23.13
679.0	22.79
679.2	23.08
679.4	23.32
679.6	23.48
679.8	23.36
680.0	23.71
680.2	23.89
680.4	23.94
680.6	24.22
680.8	23.48
681.0	22.53
681.2	22.20
681.4	21.64
681.6	21.66
681.8	22.06
682.0	22.14
682.2	21.92
682.4	21.93
682.6	21.59
682.8	21.62
683.0	21.25
683.2	20.85
683.4	20.19
683.6	19.79
683.8	19.50
684.0	19.53
684.2	19.38
684.4	19.08
684.6	18.79
684.8	19.16
685.0	19.53
685.2	19.62
685.4	19.93
685.6	19.56
685.8	19.06
686.0	19.26
686.2	19.22
686.4	18.88
686.6	18.85
686.8	18.67
687.0	17.92
687.2	17.62
687.4	17.29
687.6	17.09
687.8	17.41
688.0	17.68
688.2	17.34
688.4	17.19
688.6	16.79
688.8	16.90
689.0	17.40
689.2	17.23
689.4	17.07
689.6	16.82
689.8	16.72
690.0	16.53
690.2	16.56
690.4	16.61
690.6	16.39
690.8	16.33
691.0	16.53
691.2	16.02
691.4	15.95
691.6	16.38
691.8	16.49
692.0	16.78
692.2	16.68
692.4	15.92
692.6	15.36
692.8	15.06
693.0	15.03
693.2	15.18
693.4	15.17
693.6	15.12
693.8	15.03
694.0	14.93
694.2	14.88
694.4	14.66
694.6	13.91
694.8	13.58
695.0	14.03
695.2	14.41
695.4	14.81
695.6	15.05
695.8	14.40
696.0	13.97
696.2	13.52
696.4	13.26
696.6	13.14
696.8	13.12
697.0	12.88
697.2	12.52
697.4	12.38
697.6	12.96
697.8	13.21
698.0	13.59
698.2	13.73
698.4	13.35
698.6	13.19
698.8	13.09
699.0	12.45
699.2	12.49
699.4	12.78
699.6	12.84
699.8	12.99
700.0	12.98
700.2	12.50
700.4	12.26
700.6	11.88
700.8	11.69
701.0	11.89
701.2	11.87
701.4	12.03
701.6	11.80
701.8	11.22
702.0	10.90
702.2	11.04
702.4	11.52
702.6	11.95
702.8	12.01
703.0	11.94
703.2	11.87
703.4	11.74
703.6	12.03
703.8	11.65
704.0	11.40
704.2	11.19
704.4	10.86
704.6	10.41
704.8	10.22
705.0	10.36
705.2	10.71
705.4	11.11
