Sample:	'20211010A(EM)
File name:	G-NI 10.FDS
Run date:	'19:05:09, 06/19/2023
Operator:	Administrator
Comment:	'

Instrument
Model:	F-4700 FL Spectrophotometer
Serial number:	2019-001
ROM Version:	5J24010 00

Instrument parameters
Measurement type:	Wavelength scan
Scan mode:	Emission
Data mode:	Fluorescence
EX WL:	400.0 nm
EM  Start WL:	420.0 nm
EM  End WL:	800.0 nm
Scan speed:	1200 nm/min
Delay:	0.0 s
EX Slit:	10.0 nm
EM Slit:	10.0 nm
PMT Voltage:	500 V
Response:	0.002 s
Corrected spectra:	Off
Shutter control:	On

Processing performed
Savitsky-Golay smoothed
Smoothing order:	3
Number of points:	7
Number of times:	1

Peak integration
Integration method:	Rectangular
Sensitivity:	1
Threshold:	1.000

Peaks
No.	Start(nm)	Apex(nm)	End(nm)	Height(Data)	Valley(nm)	Valley(Data)
1	420.0	538.0	538.8	1990	538.8	1968
2	538.8	539.6	540.8	1987	540.8	1971
3	540.8	541.4	703.4	1980	703.4	39.89
4	703.4	703.8	715.0	41.61	715.0	27.71
5	715.0	716.4	721.6	29.04	721.6	22.21
6	721.6	722.6	724.2	23.93	724.2	20.05
7	724.2	724.6	765.8	21.05	765.8	5.050
8	765.8	766.4	800.0	6.144	800.0	2.914

Data points
nm	Data
420.0	1.290
420.2	1.363
420.4	1.422
420.6	1.457
420.8	1.458
421.0	1.418
421.2	1.366
421.4	1.174
421.6	1.316
421.8	1.413
422.0	1.509
422.2	1.509
422.4	1.397
422.6	1.233
422.8	1.217
423.0	1.227
423.2	1.381
423.4	1.415
423.6	1.522
423.8	1.485
424.0	1.457
424.2	1.376
424.4	1.346
424.6	1.162
424.8	1.101
425.0	1.119
425.2	1.238
425.4	1.427
425.6	1.487
425.8	1.389
426.0	1.323
426.2	1.454
426.4	1.527
426.6	1.578
426.8	1.481
427.0	1.307
427.2	1.169
427.4	1.129
427.6	1.095
427.8	1.144
428.0	1.141
428.2	1.284
428.4	1.327
428.6	1.376
428.8	1.409
429.0	1.470
429.2	1.429
429.4	1.504
429.6	1.577
429.8	1.637
430.0	1.756
430.2	1.639
430.4	1.557
430.6	1.488
430.8	1.585
431.0	1.510
431.2	1.613
431.4	1.516
431.6	1.596
431.8	1.572
432.0	1.527
432.2	1.418
432.4	1.308
432.6	1.187
432.8	1.296
433.0	1.323
433.2	1.378
433.4	1.618
433.6	1.710
433.8	1.606
434.0	1.492
434.2	1.430
434.4	1.509
434.6	1.633
434.8	1.618
435.0	1.436
435.2	1.269
435.4	1.228
435.6	1.370
435.8	1.451
436.0	1.431
436.2	1.420
436.4	1.340
436.6	1.197
436.8	1.288
437.0	1.209
437.2	1.173
437.4	1.256
437.6	1.247
437.8	1.410
438.0	1.705
438.2	1.747
438.4	1.855
438.6	1.684
438.8	1.379
439.0	1.399
439.2	1.352
439.4	1.315
439.6	1.375
439.8	1.317
440.0	1.211
440.2	1.321
440.4	1.321
440.6	1.351
440.8	1.352
441.0	1.452
441.2	1.529
441.4	1.537
441.6	1.600
441.8	1.488
442.0	1.461
442.2	1.464
442.4	1.551
442.6	1.474
442.8	1.452
443.0	1.369
443.2	1.509
443.4	1.457
443.6	1.583
443.8	1.526
444.0	1.305
444.2	1.383
444.4	1.366
444.6	1.230
444.8	1.315
445.0	1.221
445.2	1.244
445.4	1.395
445.6	1.469
445.8	1.560
446.0	1.583
446.2	1.448
446.4	1.520
446.6	1.501
446.8	1.598
447.0	1.641
447.2	1.530
447.4	1.414
447.6	1.467
447.8	1.441
448.0	1.508
448.2	1.520
448.4	1.448
448.6	1.428
448.8	1.503
449.0	1.443
449.2	1.615
449.4	1.704
449.6	1.831
449.8	1.719
450.0	1.532
450.2	1.454
450.4	1.453
450.6	1.493
450.8	1.596
451.0	1.549
451.2	1.478
451.4	1.533
451.6	1.426
451.8	1.578
452.0	1.643
452.2	1.759
452.4	1.725
452.6	1.769
452.8	1.582
453.0	1.511
453.2	1.447
453.4	1.517
453.6	1.584
453.8	1.756
454.0	1.770
454.2	1.565
454.4	1.569
454.6	1.541
454.8	1.631
455.0	1.608
455.2	1.746
455.4	1.648
455.6	1.786
455.8	1.768
456.0	1.893
456.2	1.828
456.4	1.853
456.6	1.700
456.8	1.661
457.0	1.555
457.2	1.707
457.4	1.904
457.6	2.104
457.8	2.156
458.0	2.024
458.2	1.815
458.4	1.716
458.6	1.656
458.8	1.728
459.0	1.804
459.2	1.819
459.4	1.963
459.6	2.060
459.8	2.089
460.0	2.268
460.2	2.222
460.4	2.195
460.6	2.195
460.8	2.083
461.0	1.965
461.2	2.132
461.4	2.064
461.6	2.131
461.8	2.120
462.0	2.037
462.2	1.894
462.4	2.099
462.6	2.088
462.8	2.133
463.0	2.352
463.2	2.527
463.4	2.511
463.6	2.699
463.8	2.547
464.0	2.406
464.2	2.661
464.4	2.758
464.6	2.665
464.8	2.621
465.0	2.496
465.2	2.431
465.4	2.560
465.6	2.660
465.8	2.678
466.0	2.792
466.2	3.155
466.4	3.367
466.6	3.603
466.8	3.687
467.0	3.648
467.2	3.600
467.4	3.836
467.6	3.835
467.8	3.870
468.0	3.915
468.2	4.043
468.4	3.830
468.6	3.853
468.8	3.810
469.0	3.942
469.2	4.037
469.4	4.399
469.6	4.472
469.8	4.621
470.0	4.815
470.2	4.888
470.4	4.901
470.6	5.158
470.8	5.292
471.0	5.460
471.2	5.482
471.4	5.677
471.6	6.075
471.8	6.490
472.0	6.776
472.2	7.052
472.4	6.770
472.6	6.853
472.8	6.901
473.0	7.156
473.2	7.634
473.4	8.329
473.6	8.581
473.8	9.127
474.0	9.305
474.2	9.370
474.4	9.480
474.6	9.676
474.8	9.670
475.0	10.05
475.2	10.63
475.4	11.08
475.6	11.58
475.8	12.04
476.0	12.30
476.2	12.76
476.4	13.58
476.6	14.17
476.8	14.24
477.0	14.83
477.2	15.48
477.4	16.15
477.6	17.09
477.8	18.22
478.0	18.22
478.2	18.86
478.4	19.45
478.6	19.87
478.8	20.03
479.0	20.64
479.2	21.35
479.4	22.11
479.6	22.88
479.8	23.94
480.0	24.45
480.2	25.48
480.4	27.75
480.6	29.33
480.8	30.36
481.0	31.60
481.2	32.35
481.4	32.69
481.6	33.74
481.8	34.72
482.0	35.83
482.2	37.11
482.4	38.02
482.6	38.64
482.8	39.48
483.0	40.80
483.2	43.47
483.4	45.75
483.6	48.11
483.8	49.96
484.0	50.67
484.2	52.07
484.4	54.07
484.6	55.02
484.8	57.59
485.0	59.25
485.2	60.90
485.4	64.05
485.6	66.52
485.8	68.61
486.0	70.91
486.2	72.95
486.4	74.37
486.6	77.28
486.8	80.24
487.0	82.59
487.2	85.11
487.4	88.29
487.6	89.65
487.8	92.40
488.0	95.12
488.2	97.78
488.4	100.9
488.6	104.4
488.8	107.3
489.0	111.3
489.2	114.7
489.4	118.6
489.6	121.6
489.8	125.1
490.0	128.5
490.2	133.5
490.4	137.5
490.6	141.7
490.8	147.0
491.0	150.4
491.2	154.7
491.4	158.6
491.6	163.0
491.8	168.2
492.0	174.5
492.2	178.6
492.4	183.3
492.6	186.3
492.8	189.7
493.0	194.1
493.2	200.7
493.4	208.3
493.6	215.4
493.8	222.1
494.0	226.2
494.2	231.4
494.4	238.8
494.6	246.0
494.8	251.7
495.0	259.3
495.2	264.2
495.4	271.2
495.6	278.4
495.8	284.1
496.0	288.3
496.2	294.7
496.4	301.0
496.6	307.9
496.8	315.5
497.0	324.4
497.2	330.7
497.4	338.4
497.6	346.8
497.8	353.8
498.0	361.7
498.2	370.9
498.4	379.1
498.6	391.4
498.8	402.0
499.0	410.9
499.2	416.5
499.4	421.1
499.6	427.9
499.8	440.4
500.0	452.5
500.2	463.6
500.4	474.2
500.6	481.4
500.8	491.2
501.0	501.4
501.2	509.8
501.4	517.9
501.6	529.1
501.8	539.0
502.0	552.3
502.2	562.7
502.4	572.5
502.6	582.4
502.8	591.3
503.0	600.2
503.2	610.0
503.4	620.8
503.6	630.7
503.8	642.7
504.0	655.7
504.2	667.7
504.4	676.6
504.6	690.3
504.8	701.0
505.0	712.3
505.2	725.7
505.4	735.2
505.6	741.6
505.8	756.6
506.0	771.5
506.2	782.6
506.4	795.6
506.6	804.0
506.8	814.4
507.0	826.1
507.2	837.9
507.4	850.1
507.6	863.9
507.8	879.2
508.0	893.6
508.2	902.8
508.4	912.7
508.6	919.4
508.8	927.1
509.0	939.6
509.2	950.2
509.4	966.9
509.6	983.6
509.8	999.6
510.0	1015
510.2	1026
510.4	1036
510.6	1049
510.8	1059
511.0	1074
511.2	1085
511.4	1098
511.6	1107
511.8	1118
512.0	1128
512.2	1141
512.4	1151
512.6	1165
512.8	1175
513.0	1190
513.2	1201
513.4	1213
513.6	1224
513.8	1238
514.0	1251
514.2	1262
514.4	1275
514.6	1285
514.8	1295
515.0	1305
515.2	1313
515.4	1321
515.6	1335
515.8	1350
516.0	1363
516.2	1375
516.4	1387
516.6	1393
516.8	1401
517.0	1412
517.2	1421
517.4	1435
517.6	1447
517.8	1456
518.0	1466
518.2	1475
518.4	1486
518.6	1501
518.8	1511
519.0	1522
519.2	1528
519.4	1533
519.6	1544
519.8	1553
520.0	1561
520.2	1572
520.4	1578
520.6	1592
520.8	1601
521.0	1608
521.2	1619
521.4	1632
521.6	1642
521.8	1654
522.0	1657
522.2	1661
522.4	1666
522.6	1675
522.8	1686
523.0	1696
523.2	1705
523.4	1716
523.6	1720
523.8	1727
524.0	1733
524.2	1741
524.4	1749
524.6	1756
524.8	1763
525.0	1771
525.2	1777
525.4	1782
525.6	1786
525.8	1790
526.0	1796
526.2	1807
526.4	1815
526.6	1823
526.8	1831
527.0	1839
527.2	1837
527.4	1835
527.6	1834
527.8	1834
528.0	1844
528.2	1851
528.4	1859
528.6	1864
528.8	1872
529.0	1881
529.2	1891
529.4	1891
529.6	1893
529.8	1892
530.0	1897
530.2	1905
530.4	1911
530.6	1912
530.8	1912
531.0	1907
531.2	1910
531.4	1919
531.6	1927
531.8	1934
532.0	1934
532.2	1932
532.4	1931
532.6	1938
532.8	1942
533.0	1950
533.2	1953
533.4	1961
533.6	1964
533.8	1963
534.0	1960
534.2	1958
534.4	1954
534.6	1962
534.8	1967
535.0	1968
535.2	1974
535.4	1974
535.6	1974
535.8	1977
536.0	1973
536.2	1973
536.4	1975
536.6	1978
536.8	1979
537.0	1979
537.2	1973
537.4	1972
537.6	1976
537.8	1986
538.0	1990
538.2	1986
538.4	1977
538.6	1969
538.8	1968
539.0	1972
539.2	1979
539.4	1982
539.6	1987
539.8	1987
540.0	1984
540.2	1978
540.4	1973
540.6	1971
540.8	1971
541.0	1973
541.2	1978
541.4	1980
541.6	1978
541.8	1975
542.0	1967
542.2	1967
542.4	1968
542.6	1967
542.8	1968
543.0	1967
543.2	1962
543.4	1962
543.6	1960
543.8	1956
544.0	1955
544.2	1961
544.4	1959
544.6	1958
544.8	1951
545.0	1944
545.2	1937
545.4	1936
545.6	1936
545.8	1935
546.0	1935
546.2	1936
546.4	1933
546.6	1928
546.8	1928
547.0	1924
547.2	1924
547.4	1925
547.6	1922
547.8	1919
548.0	1919
548.2	1914
548.4	1909
548.6	1900
548.8	1899
549.0	1900
549.2	1900
549.4	1896
549.6	1890
549.8	1883
550.0	1889
550.2	1892
550.4	1889
550.6	1880
550.8	1874
551.0	1869
551.2	1871
551.4	1870
551.6	1865
551.8	1861
552.0	1862
552.2	1859
552.4	1857
552.6	1849
552.8	1840
553.0	1836
553.2	1837
553.4	1834
553.6	1826
553.8	1815
554.0	1810
554.2	1808
554.4	1813
554.6	1813
554.8	1811
555.0	1808
555.2	1805
555.4	1800
555.6	1797
555.8	1792
556.0	1784
556.2	1777
556.4	1776
556.6	1774
556.8	1771
557.0	1764
557.2	1755
557.4	1747
557.6	1749
557.8	1752
558.0	1749
558.2	1742
558.4	1735
558.6	1728
558.8	1727
559.0	1726
559.2	1721
559.4	1715
559.6	1710
559.8	1707
560.0	1707
560.2	1697
560.4	1693
560.6	1690
560.8	1686
561.0	1686
561.2	1682
561.4	1674
561.6	1673
561.8	1673
562.0	1664
562.2	1660
562.4	1651
562.6	1653
562.8	1649
563.0	1644
563.2	1634
563.4	1632
563.6	1628
563.8	1622
564.0	1613
564.2	1605
564.4	1601
564.6	1604
564.8	1609
565.0	1606
565.2	1603
565.4	1592
565.6	1581
565.8	1572
566.0	1571
566.2	1565
566.4	1564
566.6	1558
566.8	1554
567.0	1550
567.2	1546
567.4	1537
567.6	1531
567.8	1525
568.0	1521
568.2	1517
568.4	1512
568.6	1511
568.8	1505
569.0	1500
569.2	1493
569.4	1489
569.6	1485
569.8	1485
570.0	1474
570.2	1469
570.4	1460
570.6	1461
570.8	1458
571.0	1455
571.2	1449
571.4	1448
571.6	1441
571.8	1438
572.0	1432
572.2	1426
572.4	1420
572.6	1416
572.8	1412
573.0	1410
573.2	1403
573.4	1395
573.6	1386
573.8	1377
574.0	1373
574.2	1375
574.4	1374
574.6	1373
574.8	1368
575.0	1363
575.2	1354
575.4	1350
575.6	1341
575.8	1336
576.0	1332
576.2	1330
576.4	1325
576.6	1322
576.8	1311
577.0	1308
577.2	1305
577.4	1301
577.6	1298
577.8	1294
578.0	1287
578.2	1287
578.4	1280
578.6	1273
578.8	1268
579.0	1261
579.2	1258
579.4	1253
579.6	1246
579.8	1235
580.0	1228
580.2	1223
580.4	1222
580.6	1222
580.8	1224
581.0	1221
581.2	1214
581.4	1206
581.6	1200
581.8	1195
582.0	1191
582.2	1191
582.4	1184
582.6	1178
582.8	1170
583.0	1167
583.2	1166
583.4	1166
583.6	1156
583.8	1152
584.0	1141
584.2	1136
584.4	1130
584.6	1125
584.8	1116
585.0	1114
585.2	1113
585.4	1114
585.6	1113
585.8	1112
586.0	1105
586.2	1097
586.4	1090
586.6	1084
586.8	1079
587.0	1076
587.2	1072
587.4	1067
587.6	1064
587.8	1060
588.0	1057
588.2	1050
588.4	1042
588.6	1037
588.8	1036
589.0	1032
589.2	1031
589.4	1024
589.6	1017
589.8	1011
590.0	1009
590.2	1009
590.4	1010
590.6	1006
590.8	1001
591.0	991.4
591.2	985.2
591.4	988.9
591.6	989.4
591.8	985.2
592.0	978.9
592.2	970.5
592.4	960.3
592.6	960.7
592.8	955.7
593.0	953.6
593.2	950.0
593.4	941.9
593.6	935.0
593.8	935.3
594.0	928.8
594.2	929.1
594.4	925.8
594.6	920.9
594.8	918.4
595.0	914.4
595.2	906.9
595.4	904.9
595.6	902.9
595.8	901.7
596.0	900.9
596.2	894.7
596.4	889.4
596.6	882.7
596.8	879.9
597.0	878.3
597.2	875.5
597.4	867.8
597.6	860.7
597.8	854.8
598.0	851.3
598.2	852.2
598.4	848.4
598.6	841.5
598.8	838.3
599.0	836.5
599.2	834.7
599.4	833.9
599.6	828.1
599.8	821.7
600.0	817.6
600.2	808.9
600.4	806.2
600.6	803.5
600.8	803.3
601.0	802.7
601.2	799.0
601.4	789.9
601.6	784.9
601.8	783.0
602.0	782.1
602.2	781.5
602.4	778.3
602.6	773.7
602.8	768.2
603.0	764.0
603.2	760.1
603.4	757.7
603.6	756.6
603.8	753.3
604.0	746.7
604.2	739.7
604.4	739.1
604.6	736.1
604.8	734.7
605.0	729.4
605.2	726.6
605.4	718.9
605.6	716.9
605.8	711.6
606.0	711.2
606.2	707.6
606.4	709.1
606.6	703.8
606.8	701.8
607.0	696.1
607.2	693.4
607.4	688.0
607.6	686.2
607.8	683.5
608.0	683.0
608.2	680.0
608.4	676.4
608.6	675.8
608.8	673.5
609.0	672.2
609.2	668.8
609.4	660.3
609.6	650.6
609.8	649.6
610.0	648.2
610.2	648.9
610.4	644.5
610.6	639.0
610.8	635.3
611.0	634.6
611.2	632.9
611.4	630.5
611.6	625.0
611.8	623.0
612.0	622.2
612.2	616.9
612.4	611.0
612.6	608.2
612.8	606.5
613.0	605.1
613.2	604.9
613.4	600.8
613.6	594.3
613.8	590.2
614.0	585.5
614.2	581.5
614.4	581.5
614.6	581.5
614.8	579.4
615.0	578.0
615.2	569.8
615.4	564.3
615.6	559.6
615.8	556.9
616.0	555.2
616.2	555.1
616.4	553.9
616.6	554.3
616.8	552.3
617.0	548.6
617.2	543.9
617.4	539.5
617.6	536.3
617.8	533.4
618.0	530.9
618.2	526.6
618.4	524.5
618.6	523.5
618.8	520.8
619.0	518.4
619.2	516.6
619.4	512.6
619.6	512.4
619.8	510.4
620.0	508.5
620.2	506.7
620.4	503.4
620.6	498.0
620.8	494.4
621.0	489.4
621.2	485.6
621.4	483.5
621.6	481.0
621.8	481.0
622.0	481.5
622.2	479.5
622.4	474.4
622.6	471.2
622.8	465.9
623.0	465.3
623.2	465.2
623.4	461.2
623.6	458.2
623.8	457.9
624.0	457.3
624.2	454.9
624.4	453.4
624.6	447.1
624.8	442.6
625.0	440.4
625.2	439.1
625.4	435.6
625.6	434.1
625.8	429.6
626.0	425.0
626.2	421.8
626.4	418.8
626.6	419.1
626.8	419.2
627.0	420.1
627.2	416.7
627.4	414.2
627.6	410.0
627.8	407.4
628.0	406.0
628.2	404.2
628.4	398.9
628.6	397.2
628.8	396.0
629.0	394.0
629.2	393.1
629.4	390.1
629.6	385.9
629.8	385.5
630.0	384.4
630.2	382.0
630.4	380.1
630.6	376.2
630.8	373.5
631.0	372.3
631.2	368.9
631.4	367.9
631.6	365.0
631.8	363.4
632.0	361.8
632.2	360.2
632.4	360.1
632.6	359.4
632.8	354.7
633.0	351.4
633.2	347.5
633.4	345.3
633.6	344.5
633.8	343.2
634.0	340.4
634.2	338.1
634.4	336.8
634.6	336.6
634.8	334.1
635.0	331.0
635.2	329.0
635.4	326.6
635.6	325.8
635.8	324.9
636.0	322.2
636.2	320.7
636.4	321.4
636.6	320.8
636.8	319.6
637.0	317.0
637.2	311.7
637.4	308.1
637.6	305.6
637.8	304.4
638.0	302.5
638.2	303.5
638.4	301.8
638.6	299.0
638.8	297.8
639.0	297.6
639.2	297.1
639.4	296.7
639.6	294.6
639.8	291.6
640.0	289.0
640.2	288.4
640.4	286.2
640.6	283.4
640.8	280.0
641.0	277.5
641.2	274.7
641.4	274.7
641.6	274.7
641.8	273.5
642.0	271.2
642.2	270.3
642.4	268.8
642.6	268.1
642.8	268.0
643.0	265.3
643.2	262.8
643.4	261.0
643.6	257.7
643.8	256.8
644.0	255.6
644.2	255.3
644.4	254.4
644.6	253.2
644.8	250.1
645.0	248.7
645.2	246.0
645.4	245.9
645.6	244.6
645.8	241.8
646.0	241.0
646.2	239.0
646.4	238.4
646.6	238.7
646.8	237.7
647.0	234.7
647.2	232.6
647.4	229.3
647.6	227.8
647.8	227.8
648.0	228.0
648.2	226.4
648.4	225.2
648.6	221.4
648.8	219.2
649.0	218.8
649.2	218.1
649.4	216.5
649.6	217.7
649.8	216.3
650.0	216.0
650.2	215.5
650.4	214.0
650.6	212.2
650.8	210.7
651.0	207.4
651.2	205.2
651.4	204.5
651.6	204.6
651.8	204.0
652.0	204.8
652.2	202.2
652.4	199.8
652.6	196.6
652.8	194.3
653.0	192.7
653.2	193.3
653.4	193.6
653.6	192.9
653.8	191.4
654.0	190.4
654.2	188.7
654.4	185.8
654.6	184.2
654.8	181.8
655.0	183.0
655.2	183.7
655.4	183.1
655.6	181.6
655.8	180.1
656.0	178.3
656.2	178.5
656.4	176.4
656.6	174.7
656.8	171.6
657.0	169.5
657.2	168.9
657.4	168.6
657.6	168.3
657.8	168.7
658.0	167.1
658.2	165.1
658.4	163.2
658.6	161.7
658.8	160.5
659.0	160.0
659.2	159.3
659.4	158.6
659.6	158.3
659.8	158.0
660.0	157.5
660.2	155.7
660.4	153.9
660.6	152.1
660.8	151.1
661.0	150.0
661.2	150.3
661.4	149.2
661.6	149.0
661.8	147.8
662.0	147.0
662.2	146.7
662.4	146.6
662.6	145.0
662.8	145.2
663.0	143.5
663.2	142.2
663.4	141.0
663.6	139.7
663.8	138.0
664.0	137.5
664.2	137.1
664.4	136.2
664.6	134.2
664.8	133.3
665.0	132.3
665.2	131.5
665.4	131.5
665.6	130.6
665.8	129.2
666.0	128.9
666.2	128.1
666.4	127.9
666.6	128.4
666.8	128.3
667.0	127.7
667.2	125.4
667.4	123.0
667.6	120.6
667.8	120.6
668.0	120.6
668.2	122.1
668.4	120.8
668.6	120.5
668.8	119.6
669.0	118.0
669.2	116.7
669.4	117.6
669.6	116.6
669.8	117.1
670.0	116.6
670.2	115.2
670.4	114.3
670.6	113.6
670.8	112.2
671.0	111.1
671.2	110.0
671.4	109.5
671.6	109.4
671.8	109.1
672.0	108.4
672.2	106.6
672.4	104.8
672.6	103.5
672.8	102.8
673.0	102.8
673.2	102.4
673.4	100.5
673.6	99.50
673.8	99.89
674.0	99.31
674.2	100.0
674.4	99.47
674.6	98.00
674.8	97.63
675.0	97.68
675.2	95.30
675.4	95.86
675.6	95.73
675.8	96.31
676.0	96.23
676.2	95.95
676.4	93.15
676.6	93.37
676.8	91.49
677.0	90.79
677.2	89.58
677.4	89.36
677.6	88.61
677.8	89.13
678.0	88.82
678.2	88.76
678.4	87.60
678.6	86.77
678.8	85.54
679.0	84.44
679.2	84.21
679.4	83.85
679.6	82.00
679.8	81.27
680.0	81.06
680.2	80.98
680.4	81.77
680.6	81.46
680.8	79.97
681.0	78.76
681.2	78.53
681.4	78.15
681.6	78.63
681.8	78.45
682.0	78.62
682.2	76.52
682.4	76.15
682.6	75.06
682.8	74.32
683.0	74.62
683.2	74.86
683.4	73.90
683.6	73.68
683.8	73.01
684.0	72.25
684.2	71.34
684.4	70.99
684.6	71.08
684.8	70.91
685.0	71.03
685.2	71.44
685.4	69.31
685.6	67.99
685.8	67.82
686.0	67.15
686.2	66.01
686.4	65.71
686.6	64.33
686.8	64.11
687.0	65.77
687.2	65.79
687.4	65.18
687.6	64.14
687.8	62.72
688.0	62.41
688.2	62.63
688.4	62.12
688.6	62.38
688.8	62.77
689.0	61.31
689.2	60.40
689.4	59.31
689.6	58.26
689.8	58.46
690.0	59.40
690.2	58.84
690.4	58.35
690.6	57.78
690.8	57.54
691.0	57.75
691.2	57.79
691.4	57.59
691.6	57.24
691.8	56.33
692.0	55.47
692.2	55.33
692.4	54.90
692.6	55.64
692.8	55.87
693.0	55.28
693.2	54.87
693.4	54.74
693.6	53.98
693.8	53.18
694.0	52.59
694.2	51.69
694.4	52.33
694.6	52.22
694.8	51.99
695.0	50.19
695.2	49.76
695.4	49.22
695.6	50.13
695.8	49.94
696.0	50.53
696.2	49.65
696.4	49.24
696.6	48.83
696.8	48.13
697.0	47.04
697.2	47.44
697.4	47.35
697.6	47.24
697.8	47.43
698.0	46.96
698.2	46.76
698.4	46.47
698.6	46.15
698.8	46.42
699.0	46.38
699.2	46.21
699.4	46.05
699.6	45.32
699.8	44.97
700.0	45.29
700.2	44.91
700.4	45.36
700.6	45.64
700.8	45.78
701.0	45.44
701.2	45.20
701.4	43.98
701.6	43.51
701.8	42.76
702.0	41.99
702.2	41.08
702.4	40.76
702.6	40.73
702.8	40.47
703.0	40.07
703.2	40.08
703.4	39.89
703.6	40.41
703.8	41.61
704.0	41.13
704.2	40.09
704.4	39.98
704.6	39.14
704.8	39.70
705.0	40.36
705.2	40.03
705.4	38.84
705.6	38.86
705.8	37.09
706.0	36.84
706.2	36.87
706.4	36.99
706.6	36.63
706.8	37.35
707.0	36.60
707.2	36.44
707.4	35.86
707.6	35.49
707.8	34.92
708.0	35.44
708.2	35.37
708.4	35.13
708.6	34.51
708.8	33.90
709.0	34.02
709.2	34.45
709.4	34.61
709.6	34.70
709.8	34.48
710.0	34.43
710.2	34.41
710.4	33.21
710.6	32.57
710.8	31.78
711.0	31.89
711.2	32.55
711.4	32.60
711.6	31.92
711.8	31.74
712.0	31.50
712.2	32.05
712.4	32.19
712.6	31.98
712.8	31.74
713.0	30.81
713.2	29.89
713.4	29.02
713.6	28.80
713.8	29.21
714.0	30.01
714.2	29.97
714.4	29.12
714.6	28.21
714.8	27.81
715.0	27.71
715.2	28.25
715.4	28.19
715.6	27.87
715.8	27.81
716.0	27.85
