Sample:	'20211010A(EM)
File name:	G-NI 8 800.FDS
Run date:	'18:58:43, 06/19/2023
Operator:	Administrator
Comment:	'

Instrument
Model:	F-4700 FL Spectrophotometer
Serial number:	2019-001
ROM Version:	5J24010 00

Instrument parameters
Measurement type:	Wavelength scan
Scan mode:	Emission
Data mode:	Fluorescence
EX WL:	400.0 nm
EM  Start WL:	420.0 nm
EM  End WL:	800.0 nm
Scan speed:	1200 nm/min
Delay:	0.0 s
EX Slit:	10.0 nm
EM Slit:	10.0 nm
PMT Voltage:	500 V
Response:	0.002 s
Corrected spectra:	Off
Shutter control:	On

Processing performed
Savitsky-Golay smoothed
Smoothing order:	3
Number of points:	7
Number of times:	1

Peak integration
Integration method:	Rectangular
Sensitivity:	1
Threshold:	1.000

Peaks
No.	Start(nm)	Apex(nm)	End(nm)	Height(Data)	Valley(nm)	Valley(Data)
1	420.0	558.0	560.2	3195	560.2	3184
2	560.2	560.8	561.4	3193	561.4	3180
3	561.4	562.2	768.8	3196	768.8	9.026
4	768.8	769.4	778.2	10.07	778.2	6.742
5	778.2	779.0	783.4	8.466	783.4	6.481

Data points
nm	Data
420.0	1.477
420.2	1.661
420.4	1.613
420.6	1.476
420.8	1.552
421.0	1.616
421.2	1.573
421.4	1.416
421.6	1.339
421.8	1.194
422.0	1.312
422.2	1.336
422.4	1.358
422.6	1.470
422.8	1.452
423.0	1.420
423.2	1.433
423.4	1.407
423.6	1.380
423.8	1.523
424.0	1.500
424.2	1.374
424.4	1.229
424.6	1.115
424.8	0.971
425.0	1.171
425.2	1.473
425.4	1.501
425.6	1.461
425.8	1.434
426.0	1.499
426.2	1.527
426.4	1.641
426.6	1.478
426.8	1.213
427.0	1.218
427.2	1.429
427.4	1.414
427.6	1.492
427.8	1.451
428.0	1.299
428.2	1.361
428.4	1.473
428.6	1.518
428.8	1.560
429.0	1.459
429.2	1.437
429.4	1.380
429.6	1.246
429.8	1.241
430.0	1.329
430.2	1.349
430.4	1.407
430.6	1.423
430.8	1.201
431.0	1.181
431.2	1.386
431.4	1.617
431.6	1.782
431.8	1.829
432.0	1.690
432.2	1.556
432.4	1.388
432.6	1.236
432.8	1.207
433.0	1.194
433.2	1.349
433.4	1.455
433.6	1.528
433.8	1.508
434.0	1.412
434.2	1.308
434.4	1.452
434.6	1.550
434.8	1.669
435.0	1.751
435.2	1.699
435.4	1.539
435.6	1.532
435.8	1.483
436.0	1.404
436.2	1.487
436.4	1.583
436.6	1.494
436.8	1.417
437.0	1.458
437.2	1.510
437.4	1.529
437.6	1.572
437.8	1.600
438.0	1.476
438.2	1.543
438.4	1.729
438.6	1.725
438.8	1.627
439.0	1.605
439.2	1.492
439.4	1.468
439.6	1.519
439.8	1.471
440.0	1.389
440.2	1.421
440.4	1.554
440.6	1.680
440.8	1.737
441.0	1.822
441.2	1.741
441.4	1.667
441.6	1.576
441.8	1.606
442.0	1.653
442.2	1.762
442.4	1.599
442.6	1.480
442.8	1.389
443.0	1.471
443.2	1.490
443.4	1.496
443.6	1.525
443.8	1.579
444.0	1.584
444.2	1.648
444.4	1.598
444.6	1.489
444.8	1.541
445.0	1.665
445.2	1.530
445.4	1.442
445.6	1.425
445.8	1.525
446.0	1.659
446.2	1.722
446.4	1.739
446.6	1.636
446.8	1.613
447.0	1.653
447.2	1.649
447.4	1.556
447.6	1.755
447.8	1.802
448.0	1.830
448.2	1.875
448.4	1.797
448.6	1.685
448.8	1.624
449.0	1.726
449.2	1.737
449.4	1.878
449.6	1.810
449.8	1.773
450.0	1.605
450.2	1.698
450.4	1.661
450.6	1.783
450.8	1.821
451.0	1.843
451.2	1.831
451.4	1.918
451.6	1.888
451.8	2.102
452.0	2.147
452.2	1.971
452.4	1.832
452.6	1.850
452.8	1.770
453.0	1.867
453.2	1.945
453.4	1.919
453.6	2.208
453.8	2.355
454.0	2.260
454.2	1.992
454.4	1.973
454.6	1.812
454.8	2.057
455.0	2.184
455.2	2.192
455.4	2.174
455.6	2.260
455.8	2.035
456.0	1.904
456.2	1.890
456.4	1.967
456.6	2.120
456.8	2.059
457.0	1.959
457.2	1.769
457.4	1.804
457.6	1.950
457.8	2.095
458.0	2.056
458.2	2.011
458.4	1.958
458.6	2.006
458.8	1.945
459.0	1.962
459.2	2.066
459.4	2.231
459.6	2.447
459.8	2.331
460.0	2.198
460.2	2.145
460.4	2.199
460.6	2.371
460.8	2.336
461.0	2.267
461.2	2.186
461.4	2.215
461.6	2.369
461.8	2.713
462.0	2.645
462.2	2.591
462.4	2.431
462.6	2.194
462.8	2.121
463.0	2.486
463.2	2.497
463.4	2.521
463.6	2.588
463.8	2.443
464.0	2.455
464.2	2.601
464.4	2.464
464.6	2.396
464.8	2.427
465.0	2.527
465.2	2.858
465.4	3.048
465.6	3.015
465.8	3.029
466.0	2.831
466.2	2.787
466.4	2.847
466.6	2.825
466.8	2.626
467.0	2.767
467.2	2.587
467.4	2.623
467.6	2.825
467.8	2.887
468.0	2.728
468.2	2.907
468.4	2.973
468.6	2.879
468.8	2.960
469.0	2.935
469.2	3.036
469.4	3.239
469.6	3.525
469.8	3.539
470.0	3.466
470.2	3.381
470.4	3.344
470.6	3.245
470.8	3.573
471.0	3.704
471.2	3.582
471.4	3.508
471.6	3.233
471.8	3.431
472.0	3.899
472.2	4.063
472.4	4.178
472.6	4.387
472.8	4.127
473.0	4.111
473.2	3.994
473.4	4.087
473.6	4.336
473.8	4.804
474.0	4.591
474.2	4.425
474.4	4.154
474.6	4.083
474.8	4.194
475.0	4.274
475.2	4.179
475.4	4.505
475.6	4.723
475.8	4.995
476.0	5.437
476.2	5.539
476.4	5.725
476.6	5.750
476.8	5.738
477.0	5.788
477.2	6.109
477.4	6.285
477.6	6.409
477.8	6.338
478.0	6.418
478.2	6.605
478.4	6.804
478.6	6.906
478.8	6.930
479.0	7.318
479.2	7.375
479.4	8.004
479.6	8.417
479.8	8.522
480.0	8.529
480.2	8.566
480.4	7.928
480.6	8.178
480.8	8.416
481.0	8.783
481.2	9.473
481.4	9.888
481.6	9.996
481.8	10.22
482.0	10.29
482.2	10.63
482.4	11.57
482.6	12.06
482.8	12.55
483.0	12.68
483.2	13.08
483.4	13.86
483.6	14.31
483.8	14.42
484.0	14.52
484.2	14.58
484.4	15.24
484.6	16.30
484.8	16.38
485.0	16.90
485.2	17.16
485.4	17.51
485.6	18.68
485.8	19.40
486.0	19.65
486.2	20.80
486.4	21.54
486.6	21.80
486.8	22.90
487.0	23.42
487.2	23.47
487.4	24.24
487.6	24.93
487.8	25.37
488.0	27.04
488.2	28.58
488.4	29.06
488.6	29.86
488.8	30.78
489.0	32.06
489.2	33.53
489.4	34.69
489.6	35.38
489.8	36.45
490.0	38.17
490.2	39.45
490.4	40.35
490.6	42.27
490.8	43.74
491.0	46.25
491.2	48.22
491.4	49.54
491.6	51.57
491.8	53.68
492.0	54.80
492.2	56.01
492.4	57.81
492.6	59.59
492.8	62.63
493.0	65.91
493.2	67.25
493.4	67.29
493.6	69.72
493.8	72.19
494.0	75.13
494.2	79.36
494.4	81.00
494.6	82.49
494.8	86.52
495.0	90.17
495.2	93.44
495.4	96.77
495.6	98.20
495.8	101.2
496.0	105.6
496.2	109.5
496.4	112.8
496.6	115.4
496.8	117.8
497.0	120.1
497.2	123.3
497.4	126.8
497.6	130.7
497.8	134.9
498.0	139.3
498.2	141.9
498.4	144.8
498.6	148.4
498.8	153.0
499.0	158.9
499.2	163.7
499.4	169.1
499.6	174.1
499.8	179.7
500.0	185.1
500.2	189.9
500.4	195.3
500.6	201.2
500.8	206.3
501.0	211.0
501.2	217.4
501.4	221.1
501.6	228.9
501.8	233.9
502.0	238.4
502.2	243.1
502.4	248.9
502.6	253.8
502.8	261.5
503.0	268.3
503.2	275.1
503.4	280.3
503.6	285.3
503.8	291.8
504.0	297.9
504.2	306.0
504.4	315.6
504.6	322.4
504.8	329.9
505.0	340.1
505.2	347.9
505.4	354.2
505.6	360.9
505.8	364.9
506.0	371.1
506.2	381.5
506.4	392.0
506.6	401.2
506.8	409.5
507.0	417.0
507.2	424.8
507.4	435.8
507.6	445.1
507.8	451.6
508.0	456.6
508.2	462.1
508.4	469.5
508.6	482.0
508.8	494.1
509.0	503.7
509.2	511.7
509.4	520.1
509.6	529.9
509.8	542.5
510.0	553.3
510.2	563.0
510.4	570.8
510.6	582.4
510.8	592.7
511.0	603.0
511.2	613.3
511.4	625.6
511.6	637.5
511.8	651.2
512.0	661.7
512.2	668.8
512.4	675.9
512.6	687.5
512.8	699.9
513.0	714.6
513.2	725.2
513.4	735.1
513.6	746.1
513.8	757.1
514.0	770.1
514.2	783.2
514.4	791.5
514.6	803.3
514.8	819.2
515.0	832.4
515.2	847.9
515.4	858.7
515.6	868.0
515.8	875.6
516.0	889.9
516.2	903.5
516.4	917.9
516.6	930.9
516.8	945.3
517.0	956.2
517.2	971.5
517.4	983.9
517.6	997.9
517.8	1006
518.0	1017
518.2	1028
518.4	1040
518.6	1055
518.8	1071
519.0	1080
519.2	1091
519.4	1107
519.6	1125
519.8	1139
520.0	1154
520.2	1165
520.4	1176
520.6	1194
520.8	1208
521.0	1222
521.2	1235
521.4	1248
521.6	1260
521.8	1275
522.0	1288
522.2	1307
522.4	1321
522.6	1336
522.8	1348
523.0	1360
523.2	1371
523.4	1384
523.6	1398
523.8	1415
524.0	1430
524.2	1450
524.4	1465
524.6	1481
524.8	1494
525.0	1511
525.2	1523
525.4	1540
525.6	1554
525.8	1568
526.0	1577
526.2	1590
526.4	1604
526.6	1619
526.8	1636
527.0	1655
527.2	1673
527.4	1686
527.6	1700
527.8	1708
528.0	1719
528.2	1735
528.4	1752
528.6	1767
528.8	1784
529.0	1796
529.2	1811
529.4	1825
529.6	1842
529.8	1855
530.0	1871
530.2	1882
530.4	1897
530.6	1908
530.8	1923
531.0	1942
531.2	1958
531.4	1978
531.6	1999
531.8	2013
532.0	2023
532.2	2032
532.4	2039
532.6	2056
532.8	2070
533.0	2085
533.2	2099
533.4	2111
533.6	2129
533.8	2149
534.0	2160
534.2	2171
534.4	2184
534.6	2192
534.8	2207
535.0	2228
535.2	2243
535.4	2257
535.6	2272
535.8	2279
536.0	2293
536.2	2314
536.4	2327
536.6	2338
536.8	2348
537.0	2357
537.2	2376
537.4	2392
537.6	2405
537.8	2418
538.0	2426
538.2	2434
538.4	2449
538.6	2463
538.8	2475
539.0	2484
539.2	2495
539.4	2509
539.6	2528
539.8	2543
540.0	2556
540.2	2565
540.4	2573
540.6	2581
540.8	2593
541.0	2601
541.2	2624
541.4	2648
541.6	2663
541.8	2670
542.0	2677
542.2	2681
542.4	2694
542.6	2706
542.8	2717
543.0	2727
543.2	2737
543.4	2750
543.6	2766
543.8	2771
544.0	2780
544.2	2790
544.4	2801
544.6	2815
544.8	2826
545.0	2834
545.2	2842
545.4	2855
545.6	2864
545.8	2869
546.0	2872
546.2	2886
546.4	2901
546.6	2921
546.8	2929
547.0	2931
547.2	2926
547.4	2935
547.6	2945
547.8	2954
548.0	2960
548.2	2969
548.4	2972
548.6	2980
548.8	2994
549.0	2999
549.2	3011
549.4	3019
549.6	3026
549.8	3034
550.0	3041
550.2	3042
550.4	3050
550.6	3055
550.8	3059
551.0	3070
551.2	3073
551.4	3079
551.6	3082
551.8	3089
552.0	3096
552.2	3100
552.4	3104
552.6	3108
552.8	3110
553.0	3119
553.2	3126
553.4	3136
553.6	3141
553.8	3145
554.0	3152
554.2	3151
554.4	3151
554.6	3153
554.8	3147
555.0	3152
555.2	3157
555.4	3156
555.6	3164
555.8	3172
556.0	3176
556.2	3184
556.4	3181
556.6	3176
556.8	3175
557.0	3180
557.2	3183
557.4	3183
557.6	3184
557.8	3187
558.0	3195
558.2	3193
558.4	3188
558.6	3187
558.8	3194
559.0	3193
559.2	3194
559.4	3186
559.6	3186
559.8	3187
560.0	3188
560.2	3184
560.4	3186
560.6	3191
560.8	3193
561.0	3188
561.2	3181
561.4	3180
561.6	3183
561.8	3189
562.0	3191
562.2	3196
562.4	3192
562.6	3185
562.8	3173
563.0	3166
563.2	3160
563.4	3158
563.6	3160
563.8	3161
564.0	3158
564.2	3155
564.4	3152
564.6	3145
564.8	3151
565.0	3146
565.2	3144
565.4	3137
565.6	3136
565.8	3124
566.0	3114
566.2	3107
566.4	3109
566.6	3110
566.8	3117
567.0	3109
567.2	3098
567.4	3090
567.6	3081
567.8	3073
568.0	3069
568.2	3065
568.4	3069
568.6	3067
568.8	3066
569.0	3058
569.2	3045
569.4	3033
569.6	3035
569.8	3031
570.0	3028
570.2	3022
570.4	3016
570.6	3014
570.8	3007
571.0	3002
571.2	2991
571.4	2982
571.6	2982
571.8	2977
572.0	2965
572.2	2961
572.4	2947
572.6	2944
572.8	2942
573.0	2938
573.2	2928
573.4	2921
573.6	2911
573.8	2912
574.0	2906
574.2	2904
574.4	2892
574.6	2883
574.8	2868
575.0	2862
575.2	2859
575.4	2856
575.6	2851
575.8	2846
576.0	2834
576.2	2829
576.4	2821
576.6	2812
576.8	2805
577.0	2795
577.2	2793
577.4	2787
577.6	2778
577.8	2774
578.0	2767
578.2	2754
578.4	2747
578.6	2734
578.8	2724
579.0	2718
579.2	2706
579.4	2697
579.6	2688
579.8	2681
580.0	2678
580.2	2671
580.4	2664
580.6	2656
580.8	2649
581.0	2641
581.2	2629
581.4	2614
581.6	2602
581.8	2592
582.0	2589
582.2	2586
582.4	2578
582.6	2572
582.8	2566
583.0	2558
583.2	2548
583.4	2536
583.6	2527
583.8	2521
584.0	2519
584.2	2513
584.4	2504
584.6	2496
584.8	2484
585.0	2471
585.2	2464
585.4	2458
585.6	2456
585.8	2448
586.0	2433
586.2	2418
586.4	2414
586.6	2415
586.8	2410
587.0	2405
587.2	2392
587.4	2378
587.6	2367
587.8	2359
588.0	2350
588.2	2346
588.4	2337
588.6	2329
588.8	2316
589.0	2311
589.2	2308
589.4	2298
589.6	2288
589.8	2279
590.0	2271
590.2	2268
590.4	2256
590.6	2245
590.8	2228
591.0	2217
591.2	2213
591.4	2210
591.6	2197
591.8	2191
592.0	2178
592.2	2169
592.4	2169
592.6	2167
592.8	2155
593.0	2148
593.2	2142
593.4	2134
593.6	2128
593.8	2113
594.0	2103
594.2	2096
594.4	2090
594.6	2078
594.8	2067
595.0	2057
595.2	2054
595.4	2049
595.6	2037
595.8	2025
596.0	2019
596.2	2019
596.4	2019
596.6	2012
596.8	2000
597.0	1987
597.2	1975
597.4	1969
597.6	1964
597.8	1959
598.0	1953
598.2	1942
598.4	1938
598.6	1929
598.8	1915
599.0	1905
599.2	1897
599.4	1888
599.6	1885
599.8	1880
600.0	1866
600.2	1855
600.4	1845
600.6	1836
600.8	1833
601.0	1827
601.2	1816
601.4	1807
601.6	1800
601.8	1791
602.0	1791
602.2	1782
602.4	1775
602.6	1770
602.8	1762
603.0	1749
603.2	1743
603.4	1731
603.6	1724
603.8	1718
604.0	1711
604.2	1703
604.4	1698
604.6	1688
604.8	1684
605.0	1674
605.2	1666
605.4	1656
605.6	1648
605.8	1639
606.0	1632
606.2	1624
606.4	1618
606.6	1613
606.8	1606
607.0	1602
607.2	1594
607.4	1585
607.6	1576
607.8	1567
608.0	1559
608.2	1556
608.4	1549
608.6	1545
608.8	1534
609.0	1524
609.2	1515
609.4	1508
609.6	1500
609.8	1494
610.0	1482
610.2	1477
610.4	1470
610.6	1466
610.8	1457
611.0	1449
611.2	1441
611.4	1434
611.6	1430
611.8	1423
612.0	1414
612.2	1407
612.4	1400
612.6	1396
612.8	1392
613.0	1384
613.2	1378
613.4	1368
613.6	1361
613.8	1356
614.0	1349
614.2	1344
614.4	1334
614.6	1326
614.8	1321
615.0	1314
615.2	1309
615.4	1303
615.6	1295
615.8	1290
616.0	1286
616.2	1277
616.4	1274
616.6	1267
616.8	1259
617.0	1256
617.2	1251
617.4	1242
617.6	1238
617.8	1226
618.0	1213
618.2	1205
618.4	1200
618.6	1197
618.8	1194
619.0	1190
619.2	1183
619.4	1174
619.6	1171
619.8	1165
620.0	1158
620.2	1152
620.4	1146
620.6	1138
620.8	1136
621.0	1129
621.2	1121
621.4	1111
621.6	1100
621.8	1091
622.0	1091
622.2	1088
622.4	1087
622.6	1082
622.8	1074
623.0	1065
623.2	1061
623.4	1055
623.6	1050
623.8	1044
624.0	1041
624.2	1034
624.4	1029
624.6	1023
624.8	1016
625.0	1009
625.2	1007
625.4	1002
625.6	999.6
625.8	992.1
626.0	983.5
626.2	974.7
626.4	967.7
626.6	963.2
626.8	959.9
627.0	953.5
627.2	948.1
627.4	941.5
627.6	937.8
627.8	936.9
628.0	930.7
628.2	920.6
628.4	913.0
628.6	903.3
628.8	902.6
629.0	901.6
629.2	896.1
629.4	890.8
629.6	887.3
629.8	882.3
630.0	880.1
630.2	877.4
630.4	869.9
630.6	862.8
630.8	856.8
631.0	852.1
631.2	847.3
631.4	842.2
631.6	833.4
631.8	826.3
632.0	821.9
632.2	818.2
632.4	815.8
632.6	811.0
632.8	807.4
633.0	805.3
633.2	802.2
633.4	796.4
633.6	789.8
633.8	782.2
634.0	777.2
634.2	773.5
634.4	771.0
634.6	769.4
634.8	766.0
635.0	759.4
635.2	752.1
635.4	744.4
635.6	740.6
635.8	738.9
636.0	735.7
636.2	729.8
636.4	726.3
636.6	725.9
636.8	724.1
637.0	720.9
637.2	711.3
637.4	702.4
637.6	695.4
637.8	694.4
638.0	692.4
638.2	691.4
638.4	688.2
638.6	685.8
638.8	683.4
639.0	679.3
639.2	671.5
639.4	665.6
639.6	660.7
639.8	656.7
640.0	655.0
640.2	652.5
640.4	644.6
640.6	640.2
640.8	634.7
641.0	632.1
641.2	631.3
641.4	630.8
641.6	625.9
641.8	620.7
642.0	614.2
642.2	608.3
642.4	603.9
642.6	599.3
642.8	595.7
643.0	591.7
643.2	589.8
643.4	589.6
643.6	589.8
643.8	588.2
644.0	581.0
644.2	576.1
644.4	569.3
644.6	564.2
644.8	563.3
645.0	563.5
645.2	557.8
645.4	555.5
645.6	550.8
645.8	544.4
646.0	543.6
646.2	540.2
646.4	535.7
646.6	531.4
646.8	527.7
647.0	522.9
647.2	522.2
647.4	515.4
647.6	514.7
647.8	515.2
648.0	514.5
648.2	510.6
648.4	507.7
648.6	500.5
648.8	495.3
649.0	491.8
649.2	488.1
649.4	486.7
649.6	485.3
649.8	482.5
650.0	480.4
650.2	476.3
650.4	472.6
650.6	471.7
650.8	468.8
651.0	464.7
651.2	462.1
651.4	459.4
651.6	456.9
651.8	456.1
652.0	452.3
652.2	449.7
652.4	445.6
652.6	444.7
652.8	443.5
653.0	440.5
653.2	435.0
653.4	432.6
653.6	428.9
653.8	427.5
654.0	426.7
654.2	423.1
654.4	421.3
654.6	420.7
654.8	419.4
655.0	415.7
655.2	410.9
655.4	407.3
655.6	405.7
655.8	403.3
656.0	401.1
656.2	397.0
656.4	394.3
656.6	392.1
656.8	390.0
657.0	385.5
657.2	381.7
657.4	378.6
657.6	377.3
657.8	374.1
658.0	374.3
658.2	371.1
658.4	368.2
658.6	366.0
658.8	364.4
659.0	360.5
659.2	360.8
659.4	359.1
659.6	356.8
659.8	353.9
660.0	352.6
660.2	348.7
660.4	344.6
660.6	342.2
660.8	338.3
661.0	335.9
661.2	336.5
661.4	334.9
661.6	333.0
661.8	331.6
662.0	328.6
662.2	327.6
662.4	325.1
662.6	322.2
662.8	320.2
663.0	319.6
663.2	318.9
663.4	316.9
663.6	311.6
663.8	308.5
664.0	307.2
664.2	306.4
664.4	304.5
664.6	302.7
664.8	297.8
665.0	294.2
665.2	292.5
665.4	292.5
665.6	292.0
665.8	293.5
666.0	291.7
666.2	289.9
666.4	286.0
666.6	283.0
666.8	279.3
667.0	275.5
667.2	275.8
667.4	277.2
667.6	275.6
667.8	272.4
668.0	270.7
668.2	268.4
668.4	269.3
668.6	269.8
668.8	267.6
669.0	263.1
669.2	260.8
669.4	259.3
669.6	255.5
669.8	255.3
670.0	255.0
670.2	253.9
670.4	253.5
670.6	252.3
670.8	248.7
671.0	247.7
671.2	246.5
671.4	244.9
671.6	242.2
671.8	238.7
672.0	236.1
672.2	236.3
672.4	234.0
672.6	232.7
672.8	230.5
673.0	229.8
673.2	228.8
673.4	227.9
673.6	224.8
673.8	223.0
674.0	222.2
674.2	221.5
674.4	221.1
674.6	219.9
674.8	218.2
675.0	216.4
675.2	215.1
675.4	210.8
675.6	207.9
675.8	207.1
676.0	208.1
676.2	207.8
676.4	207.6
676.6	204.5
676.8	200.4
677.0	197.8
677.2	198.4
677.4	197.0
677.6	198.1
677.8	196.8
678.0	194.9
678.2	193.4
678.4	194.0
678.6	191.6
678.8	191.7
679.0	189.1
679.2	187.8
679.4	186.1
679.6	184.1
679.8	182.4
680.0	182.4
680.2	180.9
680.4	181.0
680.6	178.9
680.8	176.1
681.0	174.9
681.2	174.0
681.4	171.9
681.6	170.5
681.8	168.7
682.0	168.2
682.2	168.3
682.4	169.0
682.6	168.3
682.8	166.6
683.0	164.3
683.2	162.3
683.4	162.0
683.6	161.9
683.8	161.5
684.0	160.9
684.2	158.1
684.4	155.1
684.6	154.1
684.8	153.8
685.0	154.2
685.2	153.5
685.4	152.7
685.6	150.5
685.8	149.6
686.0	149.7
686.2	149.5
686.4	148.5
686.6	148.0
686.8	146.2
687.0	145.9
687.2	145.7
687.4	144.6
687.6	142.6
687.8	139.6
688.0	138.3
688.2	138.0
688.4	136.6
688.6	135.6
688.8	135.7
689.0	134.5
689.2	134.6
689.4	133.7
689.6	131.4
689.8	129.8
690.0	130.0
690.2	128.5
690.4	127.8
690.6	127.0
690.8	126.2
691.0	125.9
691.2	125.0
691.4	123.1
691.6	121.5
691.8	120.6
692.0	120.0
692.2	120.0
692.4	121.6
692.6	121.7
692.8	120.2
693.0	118.2
693.2	115.5
693.4	114.1
693.6	114.3
693.8	115.7
694.0	115.7
694.2	115.0
694.4	114.0
694.6	113.3
694.8	111.2
695.0	110.8
695.2	110.5
695.4	109.2
695.6	109.1
695.8	109.4
696.0	108.6
696.2	108.0
696.4	107.3
696.6	105.8
696.8	103.9
697.0	104.0
697.2	103.3
697.4	103.9
697.6	103.7
697.8	102.4
698.0	100.6
698.2	99.18
698.4	98.29
698.6	98.39
698.8	98.74
699.0	98.29
699.2	98.15
699.4	97.67
699.6	96.57
699.8	94.94
700.0	94.39
700.2	94.46
700.4	94.21
700.6	94.41
700.8	92.42
701.0	91.52
701.2	91.38
701.4	91.38
701.6	90.60
701.8	90.72
702.0	90.64
702.2	89.98
702.4	89.47
702.6	89.10
702.8	87.60
703.0	86.31
703.2	86.04
703.4	85.10
703.6	85.91
703.8	86.33
704.0	86.59
704.2	85.13
704.4	83.84
704.6	82.78
704.8	83.25
705.0	82.68
705.2	82.88
705.4	82.48
705.6	80.84
705.8	80.58
706.0	80.56
706.2	80.22
706.4	78.69
706.6	77.48
706.8	77.31
707.0	78.59
707.2	78.44
707.4	77.96
707.6	76.54
707.8	75.05
708.0	75.42
708.2	76.10
708.4	75.67
708.6	74.72
708.8	73.54
709.0	72.81
709.2	72.46
709.4	72.47
709.6	71.77
709.8	70.67
710.0	69.94
710.2	69.88
710.4	69.83
710.6	69.59
710.8	69.52
711.0	69.24
711.2	68.75
711.4	68.45
711.6	68.60
711.8	68.49
712.0	68.48
712.2	68.12
712.4	66.71
712.6	65.82
712.8	65.68
713.0	64.98
713.2	64.25
713.4	64.58
713.6	64.15
713.8	63.91
714.0	64.23
714.2	64.22
714.4	63.50
714.6	62.20
714.8	60.69
715.0	59.88
715.2	58.65
715.4	59.37
715.6	59.94
715.8	59.75
716.0	59.87
716.2	59.29
716.4	58.18
716.6	58.11
716.8	57.49
717.0	57.85
717.2	58.17
717.4	57.74
717.6	57.47
717.8	57.04
718.0	56.52
718.2	56.93
718.4	56.52
718.6	55.31
718.8	54.16
719.0	53.04
719.2	52.60
719.4	52.22
719.6	51.87
719.8	51.23
