Sample:	'20211010A(EM)
File name:	G-NI 3.FDS
Run date:	'18:14:34, 06/19/2023
Operator:	Administrator
Comment:	'

Instrument
Model:	F-4700 FL Spectrophotometer
Serial number:	2019-001
ROM Version:	5J24010 00

Instrument parameters
Measurement type:	Wavelength scan
Scan mode:	Emission
Data mode:	Fluorescence
EX WL:	400.0 nm
EM  Start WL:	420.0 nm
EM  End WL:	800.0 nm
Scan speed:	1200 nm/min
Delay:	0.0 s
EX Slit:	10.0 nm
EM Slit:	10.0 nm
PMT Voltage:	500 V
Response:	0.002 s
Corrected spectra:	Off
Shutter control:	On

Processing performed
Savitsky-Golay smoothed
Smoothing order:	3
Number of points:	7
Number of times:	1

Peak integration
Integration method:	Rectangular
Sensitivity:	1
Threshold:	1.000

Peaks
No.	Start(nm)	Apex(nm)	End(nm)	Height(Data)	Valley(nm)	Valley(Data)
1	420.0	537.0	539.2	2282	539.2	2268
2	539.2	540.0	542.2	2287	542.2	2253
3	542.2	543.0	545.2	2273	545.2	2231
4	545.2	546.0	694.8	2240	694.8	59.06
5	694.8	695.8	696.6	60.93	696.6	54.71
6	696.6	697.6	706.0	56.06	706.0	43.79
7	706.0	706.4	720.2	45.06	720.2	28.73
8	720.2	720.6	760.6	29.95	760.6	6.943
9	760.6	761.4	789.4	7.945	789.4	3.385
10	789.4	790.4	800.0	4.456	800.0	3.857

Data points
nm	Data
420.0	1.564
420.2	1.640
420.4	1.569
420.6	1.429
420.8	1.410
421.0	1.212
421.2	1.365
421.4	1.406
421.6	1.381
421.8	1.301
422.0	1.330
422.2	1.354
422.4	1.487
422.6	1.491
422.8	1.373
423.0	1.323
423.2	1.341
423.4	1.322
423.6	1.366
423.8	1.266
424.0	1.273
424.2	1.372
424.4	1.316
424.6	1.374
424.8	1.339
425.0	1.302
425.2	1.395
425.4	1.464
425.6	1.344
425.8	1.473
426.0	1.418
426.2	1.463
426.4	1.376
426.6	1.430
426.8	1.542
427.0	1.621
427.2	1.480
427.4	1.491
427.6	1.336
427.8	1.438
428.0	1.543
428.2	1.556
428.4	1.439
428.6	1.482
428.8	1.516
429.0	1.482
429.2	1.543
429.4	1.633
429.6	1.568
429.8	1.521
430.0	1.455
430.2	1.284
430.4	1.317
430.6	1.413
430.8	1.435
431.0	1.462
431.2	1.376
431.4	1.362
431.6	1.344
431.8	1.438
432.0	1.553
432.2	1.730
432.4	1.671
432.6	1.731
432.8	1.595
433.0	1.595
433.2	1.650
433.4	1.730
433.6	1.562
433.8	1.550
434.0	1.371
434.2	1.411
434.4	1.395
434.6	1.423
434.8	1.641
435.0	1.706
435.2	1.671
435.4	1.675
435.6	1.353
435.8	1.353
436.0	1.491
436.2	1.515
436.4	1.597
436.6	1.573
436.8	1.388
437.0	1.534
437.2	1.614
437.4	1.629
437.6	1.719
437.8	1.629
438.0	1.434
438.2	1.400
438.4	1.468
438.6	1.437
438.8	1.540
439.0	1.485
439.2	1.358
439.4	1.313
439.6	1.442
439.8	1.545
440.0	1.669
440.2	1.546
440.4	1.466
440.6	1.505
440.8	1.574
441.0	1.653
441.2	1.655
441.4	1.549
441.6	1.422
441.8	1.655
442.0	1.677
442.2	1.704
442.4	1.786
442.6	1.780
442.8	1.619
443.0	1.487
443.2	1.436
443.4	1.408
443.6	1.557
443.8	1.696
444.0	1.853
444.2	1.801
444.4	1.769
444.6	1.647
444.8	1.421
445.0	1.405
445.2	1.503
445.4	1.565
445.6	1.492
445.8	1.456
446.0	1.522
446.2	1.697
446.4	1.754
446.6	1.696
446.8	1.631
447.0	1.600
447.2	1.649
447.4	1.696
447.6	1.654
447.8	1.615
448.0	1.639
448.2	1.794
448.4	1.726
448.6	1.791
448.8	1.795
449.0	1.686
449.2	1.669
449.4	1.714
449.6	1.705
449.8	1.848
450.0	1.804
450.2	1.696
450.4	1.648
450.6	1.537
450.8	1.484
451.0	1.579
451.2	1.493
451.4	1.595
451.6	1.634
451.8	1.661
452.0	1.694
452.2	1.714
452.4	1.575
452.6	1.593
452.8	1.669
453.0	1.740
453.2	1.782
453.4	1.710
453.6	1.519
453.8	1.539
454.0	1.671
454.2	1.704
454.4	1.642
454.6	1.580
454.8	1.576
455.0	1.611
455.2	1.743
455.4	1.758
455.6	1.622
455.8	1.567
456.0	1.566
456.2	1.693
456.4	1.902
456.6	2.049
456.8	2.009
457.0	1.895
457.2	1.728
457.4	1.846
457.6	1.962
457.8	1.885
458.0	1.888
458.2	1.804
458.4	1.883
458.6	1.961
458.8	2.152
459.0	2.055
459.2	2.107
459.4	2.012
459.6	1.944
459.8	1.754
460.0	1.802
460.2	2.045
460.4	2.306
460.6	2.361
460.8	2.317
461.0	2.290
461.2	2.277
461.4	2.381
461.6	2.450
461.8	2.308
462.0	2.291
462.2	2.251
462.4	2.290
462.6	2.394
462.8	2.509
463.0	2.519
463.2	2.641
463.4	2.438
463.6	2.504
463.8	2.534
464.0	2.358
464.2	2.427
464.4	2.625
464.6	2.725
464.8	2.997
465.0	3.137
465.2	3.023
465.4	3.020
465.6	2.881
465.8	2.993
466.0	3.077
466.2	3.299
466.4	3.512
466.6	3.760
466.8	3.656
467.0	3.696
467.2	3.740
467.4	3.798
467.6	3.926
467.8	4.105
468.0	4.077
468.2	4.057
468.4	4.060
468.6	4.029
468.8	4.057
469.0	4.322
469.2	4.485
469.4	4.697
469.6	4.838
469.8	5.132
470.0	5.441
470.2	5.756
470.4	5.817
470.6	5.690
470.8	5.341
471.0	5.445
471.2	5.690
471.4	6.031
471.6	6.443
471.8	6.807
472.0	6.875
472.2	7.188
472.4	7.443
472.6	7.725
472.8	8.144
473.0	8.408
473.2	8.475
473.4	8.783
473.6	8.633
473.8	8.776
474.0	9.515
474.2	10.31
474.4	10.75
474.6	11.60
474.8	11.43
475.0	11.45
475.2	11.89
475.4	12.30
475.6	12.87
475.8	13.62
476.0	14.20
476.2	14.90
476.4	15.41
476.6	15.41
476.8	15.59
477.0	15.72
477.2	16.16
477.4	16.44
477.6	17.18
477.8	17.74
478.0	18.48
478.2	19.36
478.4	20.36
478.6	21.01
478.8	22.03
479.0	22.33
479.2	22.94
479.4	24.04
479.6	25.17
479.8	26.23
480.0	27.50
480.2	28.27
480.4	29.82
480.6	31.19
480.8	32.04
481.0	33.66
481.2	35.02
481.4	36.57
481.6	38.11
481.8	38.74
482.0	39.54
482.2	40.60
482.4	42.34
482.6	43.93
482.8	45.12
483.0	46.59
483.2	47.86
483.4	49.73
483.6	52.27
483.8	54.14
484.0	56.09
484.2	58.08
484.4	59.58
484.6	61.60
484.8	63.34
485.0	65.60
485.2	67.94
485.4	71.56
485.6	74.73
485.8	76.92
486.0	78.80
486.2	79.58
486.4	81.38
486.6	84.69
486.8	87.54
487.0	89.45
487.2	91.53
487.4	94.20
487.6	98.89
487.8	103.2
488.0	106.6
488.2	109.7
488.4	113.2
488.6	118.2
488.8	122.2
489.0	125.0
489.2	127.6
489.4	130.3
489.6	133.8
489.8	139.3
490.0	145.0
490.2	150.1
490.4	155.2
490.6	158.9
490.8	161.8
491.0	166.2
491.2	172.1
491.4	177.7
491.6	184.0
491.8	190.1
492.0	195.5
492.2	201.1
492.4	205.1
492.6	210.5
492.8	215.9
493.0	221.5
493.2	228.3
493.4	233.9
493.6	239.7
493.8	247.1
494.0	253.6
494.2	258.9
494.4	266.1
494.6	271.4
494.8	279.6
495.0	288.0
495.2	295.2
495.4	301.9
495.6	309.9
495.8	315.2
496.0	324.8
496.2	335.5
496.4	345.6
496.6	353.4
496.8	361.4
497.0	365.4
497.2	371.0
497.4	380.1
497.6	390.3
497.8	401.9
498.0	413.5
498.2	421.8
498.4	428.8
498.6	437.9
498.8	446.9
499.0	459.4
499.2	469.0
499.4	478.6
499.6	488.8
499.8	499.2
500.0	510.0
500.2	520.4
500.4	530.0
500.6	542.0
500.8	554.5
501.0	569.8
501.2	583.0
501.4	592.7
501.6	602.8
501.8	613.5
502.0	624.6
502.2	637.7
502.4	650.0
502.6	663.6
502.8	677.5
503.0	690.1
503.2	702.2
503.4	712.9
503.6	721.4
503.8	733.0
504.0	743.6
504.2	757.6
504.4	772.4
504.6	787.3
504.8	798.9
505.0	811.6
505.2	826.5
505.4	841.5
505.6	854.6
505.8	867.6
506.0	877.6
506.2	887.6
506.4	906.9
506.6	921.2
506.8	930.9
507.0	946.1
507.2	957.0
507.4	968.5
507.6	986.2
507.8	1001
508.0	1010
508.2	1026
508.4	1040
508.6	1053
508.8	1067
509.0	1081
509.2	1094
509.4	1107
509.6	1121
509.8	1133
510.0	1148
510.2	1162
510.4	1177
510.6	1196
510.8	1215
511.0	1227
511.2	1244
511.4	1255
511.6	1258
511.8	1273
512.0	1288
512.2	1300
512.4	1320
512.6	1336
512.8	1347
513.0	1364
513.2	1376
513.4	1390
513.6	1404
513.8	1418
514.0	1433
514.2	1448
514.4	1460
514.6	1474
514.8	1484
515.0	1491
515.2	1501
515.4	1513
515.6	1528
515.8	1546
516.0	1564
516.2	1579
516.4	1593
516.6	1604
516.8	1615
517.0	1631
517.2	1645
517.4	1659
517.6	1670
517.8	1674
518.0	1676
518.2	1682
518.4	1690
518.6	1706
518.8	1723
519.0	1741
519.2	1756
519.4	1769
519.6	1778
519.8	1785
520.0	1793
520.2	1799
520.4	1813
520.6	1827
520.8	1838
521.0	1851
521.2	1867
521.4	1874
521.6	1884
521.8	1895
522.0	1905
522.2	1920
522.4	1934
522.6	1945
522.8	1953
523.0	1959
523.2	1970
523.4	1975
523.6	1979
523.8	1985
524.0	1991
524.2	1997
524.4	2011
524.6	2019
524.8	2027
525.0	2027
525.2	2035
525.4	2045
525.6	2062
525.8	2072
526.0	2075
526.2	2072
526.4	2071
526.6	2081
526.8	2093
527.0	2104
527.2	2109
527.4	2117
527.6	2117
527.8	2125
528.0	2127
528.2	2131
528.4	2132
528.6	2137
528.8	2144
529.0	2153
529.2	2155
529.4	2161
529.6	2169
529.8	2169
530.0	2180
530.2	2189
530.4	2197
530.6	2201
530.8	2202
531.0	2204
531.2	2209
531.4	2212
531.6	2215
531.8	2215
532.0	2219
532.2	2226
532.4	2232
532.6	2237
532.8	2235
533.0	2234
533.2	2234
533.4	2235
533.6	2241
533.8	2246
534.0	2250
534.2	2255
534.4	2255
534.6	2259
534.8	2262
535.0	2262
535.2	2263
535.4	2265
535.6	2259
535.8	2262
536.0	2263
536.2	2266
536.4	2273
536.6	2277
536.8	2277
537.0	2282
537.2	2280
537.4	2276
537.6	2274
537.8	2276
538.0	2274
538.2	2277
538.4	2276
538.6	2278
538.8	2276
539.0	2273
539.2	2268
539.4	2269
539.6	2276
539.8	2284
540.0	2287
540.2	2280
540.4	2274
540.6	2267
540.8	2268
541.0	2271
541.2	2276
541.4	2275
541.6	2268
541.8	2259
542.0	2254
542.2	2253
542.4	2261
542.6	2269
542.8	2271
543.0	2273
543.2	2271
543.4	2265
543.6	2262
543.8	2260
544.0	2256
544.2	2255
544.4	2250
544.6	2241
544.8	2234
545.0	2231
545.2	2231
545.4	2234
545.6	2237
545.8	2239
546.0	2240
546.2	2237
546.4	2233
546.6	2228
546.8	2218
547.0	2212
547.2	2211
547.4	2213
547.6	2216
547.8	2217
548.0	2211
548.2	2207
548.4	2204
548.6	2200
548.8	2195
549.0	2192
549.2	2188
549.4	2188
549.6	2189
549.8	2184
550.0	2176
550.2	2170
550.4	2165
550.6	2167
550.8	2168
551.0	2172
551.2	2169
551.4	2165
551.6	2159
551.8	2148
552.0	2142
552.2	2137
552.4	2131
552.6	2132
552.8	2128
553.0	2122
553.2	2123
553.4	2115
553.6	2106
553.8	2104
554.0	2103
554.2	2102
554.4	2099
554.6	2097
554.8	2092
555.0	2086
555.2	2083
555.4	2076
555.6	2071
555.8	2073
556.0	2070
556.2	2062
556.4	2056
556.6	2053
556.8	2052
557.0	2052
557.2	2048
557.4	2038
557.6	2030
557.8	2025
558.0	2018
558.2	2012
558.4	2012
558.6	2013
558.8	2011
559.0	2005
559.2	2002
559.4	1995
559.6	1991
559.8	1987
560.0	1983
560.2	1973
560.4	1968
560.6	1958
560.8	1952
561.0	1945
561.2	1947
561.4	1943
561.6	1941
561.8	1933
562.0	1923
562.2	1918
562.4	1916
562.6	1908
562.8	1905
563.0	1900
563.2	1894
563.4	1889
563.6	1884
563.8	1877
564.0	1874
564.2	1872
564.4	1862
564.6	1854
564.8	1848
565.0	1849
565.2	1846
565.4	1842
565.6	1829
565.8	1825
566.0	1822
566.2	1824
566.4	1823
566.6	1814
566.8	1803
567.0	1796
567.2	1790
567.4	1780
567.6	1771
567.8	1768
568.0	1763
568.2	1760
568.4	1758
568.6	1751
568.8	1742
569.0	1741
569.2	1731
569.4	1722
569.6	1714
569.8	1710
570.0	1707
570.2	1706
570.4	1701
570.6	1693
570.8	1686
571.0	1680
571.2	1676
571.4	1673
571.6	1673
571.8	1669
572.0	1667
572.2	1658
572.4	1648
572.6	1645
572.8	1640
573.0	1634
573.2	1625
573.4	1613
573.6	1606
573.8	1608
574.0	1603
574.2	1601
574.4	1591
574.6	1585
574.8	1581
575.0	1577
575.2	1569
575.4	1558
575.6	1552
575.8	1551
576.0	1549
576.2	1542
576.4	1535
576.6	1525
576.8	1522
577.0	1522
577.2	1523
577.4	1515
577.6	1507
577.8	1496
578.0	1488
578.2	1478
578.4	1479
578.6	1474
578.8	1471
579.0	1466
579.2	1464
579.4	1452
579.6	1450
579.8	1442
580.0	1439
580.2	1436
580.4	1431
580.6	1419
580.8	1416
581.0	1409
581.2	1406
581.4	1399
581.6	1391
581.8	1379
582.0	1376
582.2	1374
582.4	1371
582.6	1366
582.8	1360
583.0	1353
583.2	1347
583.4	1341
583.6	1335
583.8	1332
584.0	1329
584.2	1324
584.4	1318
584.6	1312
584.8	1309
585.0	1307
585.2	1303
585.4	1297
585.6	1290
585.8	1285
586.0	1283
586.2	1279
586.4	1277
586.6	1272
586.8	1266
587.0	1261
587.2	1253
587.4	1245
587.6	1242
587.8	1233
588.0	1225
588.2	1223
588.4	1218
588.6	1214
588.8	1211
589.0	1205
589.2	1199
589.4	1196
589.6	1189
589.8	1184
590.0	1177
590.2	1171
590.4	1172
590.6	1170
590.8	1164
591.0	1158
591.2	1150
591.4	1146
591.6	1145
591.8	1137
592.0	1130
592.2	1123
592.4	1120
592.6	1119
592.8	1116
593.0	1109
593.2	1105
593.4	1099
593.6	1094
593.8	1084
594.0	1081
594.2	1076
594.4	1073
594.6	1070
594.8	1065
595.0	1060
595.2	1061
595.4	1059
595.6	1056
595.8	1050
596.0	1043
596.2	1034
596.4	1025
596.6	1020
596.8	1016
597.0	1012
597.2	1009
597.4	1002
597.6	1002
597.8	1000
598.0	999.1
598.2	994.8
598.4	987.5
598.6	980.7
598.8	979.8
599.0	975.9
599.2	969.4
599.4	962.1
599.6	953.5
599.8	947.2
600.0	945.4
600.2	947.7
600.4	948.5
600.6	948.3
600.8	943.0
601.0	936.3
601.2	930.4
601.4	927.3
601.6	924.6
601.8	921.8
602.0	917.7
602.2	910.8
602.4	908.1
602.6	905.7
602.8	901.9
603.0	898.6
603.2	893.2
603.4	884.3
603.6	880.4
603.8	875.1
604.0	871.7
604.2	866.5
604.4	862.2
604.6	856.4
604.8	851.0
605.0	846.2
605.2	842.2
605.4	838.6
605.6	837.4
605.8	834.7
606.0	831.2
606.2	826.7
606.4	821.2
606.6	819.0
606.8	817.1
607.0	815.1
607.2	811.9
607.4	806.0
607.6	802.0
607.8	798.0
608.0	795.3
608.2	791.4
608.4	783.9
608.6	779.5
608.8	774.7
609.0	769.6
609.2	766.4
609.4	767.2
609.6	763.3
609.8	760.2
610.0	756.1
610.2	751.2
610.4	747.7
610.6	750.7
610.8	747.0
611.0	740.0
611.2	733.7
611.4	727.4
611.6	724.3
611.8	722.2
612.0	721.9
612.2	721.0
612.4	718.6
612.6	715.0
612.8	711.0
613.0	704.2
613.2	699.5
613.4	695.6
613.6	695.1
613.8	691.0
614.0	690.0
614.2	686.9
614.4	683.5
614.6	678.4
614.8	672.9
615.0	666.3
615.2	664.8
615.4	665.1
615.6	664.4
615.8	660.6
616.0	654.5
616.2	648.9
616.4	645.3
616.6	646.4
616.8	642.5
617.0	638.7
617.2	635.9
617.4	635.8
617.6	634.6
617.8	634.1
618.0	628.5
618.2	622.1
618.4	617.3
618.6	614.3
618.8	611.5
619.0	608.7
619.2	604.7
619.4	599.0
619.6	595.1
619.8	589.5
620.0	586.6
620.2	583.3
620.4	580.3
620.6	578.2
620.8	577.5
621.0	576.4
621.2	572.0
621.4	569.9
621.6	566.4
621.8	562.7
622.0	558.1
622.2	555.2
622.4	550.4
622.6	551.2
622.8	550.1
623.0	545.1
623.2	543.1
623.4	541.4
623.6	538.6
623.8	535.0
624.0	530.5
624.2	525.0
624.4	523.9
624.6	523.1
624.8	520.4
625.0	516.4
625.2	512.9
625.4	509.1
625.6	506.6
625.8	505.5
626.0	504.0
626.2	501.9
626.4	498.8
626.6	496.0
626.8	494.1
627.0	491.4
627.2	486.8
627.4	482.9
627.6	478.0
627.8	475.4
628.0	472.9
628.2	471.6
628.4	469.1
628.6	468.2
628.8	466.6
629.0	462.1
629.2	459.4
629.4	455.3
629.6	451.5
629.8	450.1
630.0	448.7
630.2	446.9
630.4	446.7
630.6	442.0
630.8	438.4
631.0	437.0
631.2	435.1
631.4	433.9
631.6	431.3
631.8	427.1
632.0	421.4
632.2	418.3
632.4	416.7
632.6	415.5
632.8	415.3
633.0	415.0
633.2	410.2
633.4	408.5
633.6	407.1
633.8	406.3
634.0	402.7
634.2	398.4
634.4	394.8
634.6	392.9
634.8	392.9
635.0	393.2
635.2	390.0
635.4	386.1
635.6	384.5
635.8	380.3
636.0	377.8
636.2	375.0
636.4	373.6
636.6	372.6
636.8	372.1
637.0	368.9
637.2	364.9
637.4	362.1
637.6	361.7
637.8	360.1
638.0	359.3
638.2	357.5
638.4	354.1
638.6	350.1
638.8	348.9
639.0	345.0
639.2	345.5
639.4	345.4
639.6	345.2
639.8	343.1
640.0	342.4
640.2	337.3
640.4	334.8
640.6	330.4
640.8	325.8
641.0	325.9
641.2	326.3
641.4	325.9
641.6	324.9
641.8	322.9
642.0	318.6
642.2	316.0
642.4	313.1
642.6	310.3
642.8	308.4
643.0	308.0
643.2	307.5
643.4	306.2
643.6	304.4
643.8	299.0
644.0	296.7
644.2	295.7
644.4	295.8
644.6	296.4
644.8	293.6
645.0	289.6
645.2	287.1
645.4	286.5
645.6	285.7
645.8	283.3
646.0	280.4
646.2	280.1
646.4	278.8
646.6	279.5
646.8	278.6
647.0	276.6
647.2	274.3
647.4	273.5
647.6	270.1
647.8	269.2
648.0	267.1
648.2	265.5
648.4	263.3
648.6	262.4
648.8	261.7
649.0	261.2
649.2	258.6
649.4	254.9
649.6	252.4
649.8	249.9
650.0	248.9
650.2	247.0
650.4	245.5
650.6	244.5
650.8	244.0
651.0	242.7
651.2	241.1
651.4	238.6
651.6	237.8
651.8	238.8
652.0	237.7
652.2	236.0
652.4	233.9
652.6	232.1
652.8	230.5
653.0	228.7
653.2	226.5
653.4	224.6
653.6	223.9
653.8	224.8
654.0	224.4
654.2	222.1
654.4	218.6
654.6	216.7
654.8	215.0
655.0	213.9
655.2	213.5
655.4	211.7
655.6	209.3
655.8	208.0
656.0	207.9
656.2	208.6
656.4	207.3
656.6	203.6
656.8	200.0
657.0	196.9
657.2	196.9
657.4	197.8
657.6	197.3
657.8	196.1
658.0	195.1
658.2	195.0
658.4	194.3
658.6	192.0
658.8	189.8
659.0	188.1
659.2	186.7
659.4	186.1
659.6	186.1
659.8	185.1
660.0	184.6
660.2	183.7
660.4	182.1
660.6	180.4
660.8	177.9
661.0	176.9
661.2	176.8
661.4	175.3
661.6	175.2
661.8	174.1
662.0	172.7
662.2	171.0
662.4	170.3
662.6	167.6
662.8	167.3
663.0	167.2
663.2	168.5
663.4	166.9
663.6	165.8
663.8	163.0
664.0	161.1
664.2	160.6
664.4	160.0
664.6	159.3
664.8	158.8
665.0	157.6
665.2	156.4
665.4	155.9
665.6	154.6
665.8	153.9
666.0	153.2
666.2	151.1
666.4	149.2
666.6	147.1
666.8	146.2
667.0	146.6
667.2	147.5
667.4	146.2
667.6	145.9
667.8	144.5
668.0	143.8
668.2	142.4
668.4	142.0
668.6	140.5
668.8	139.3
669.0	139.9
669.2	139.3
669.4	137.1
669.6	136.2
669.8	134.2
670.0	132.1
670.2	130.5
670.4	130.8
670.6	130.5
670.8	131.5
671.0	130.9
671.2	129.0
671.4	127.2
671.6	126.7
671.8	126.3
672.0	125.9
672.2	125.3
672.4	123.2
672.6	123.1
672.8	121.6
673.0	121.5
673.2	121.2
673.4	120.8
673.6	119.9
673.8	118.1
674.0	115.4
674.2	114.8
674.4	115.4
674.6	115.1
674.8	116.9
675.0	115.7
675.2	114.2
675.4	113.1
675.6	112.0
675.8	110.2
676.0	110.4
676.2	109.1
676.4	108.7
676.6	108.7
676.8	108.7
677.0	107.8
677.2	106.5
677.4	105.4
677.6	104.3
677.8	104.6
678.0	104.1
678.2	103.2
678.4	102.3
678.6	100.7
678.8	98.47
679.0	97.94
679.2	98.00
679.4	98.63
679.6	98.38
679.8	97.73
680.0	96.20
680.2	95.40
680.4	94.70
680.6	93.65
680.8	92.38
681.0	92.09
681.2	91.33
681.4	90.49
681.6	91.10
681.8	91.73
682.0	91.61
682.2	90.98
682.4	89.93
682.6	88.38
682.8	87.67
683.0	87.72
683.2	85.64
683.4	85.86
683.6	86.05
683.8	86.14
684.0	85.65
684.2	85.58
684.4	83.23
684.6	82.58
684.8	81.94
685.0	81.10
685.2	80.85
685.4	81.37
685.6	80.97
685.8	81.90
686.0	82.06
686.2	80.30
686.4	79.23
686.6	79.06
686.8	78.28
687.0	78.71
687.2	77.66
687.4	75.86
687.6	75.04
687.8	75.17
688.0	75.58
688.2	75.12
688.4	73.89
688.6	72.79
688.8	71.76
689.0	71.76
689.2	72.08
689.4	71.49
689.6	70.95
689.8	70.33
690.0	69.68
690.2	69.21
690.4	69.67
690.6	69.47
690.8	68.91
691.0	67.60
691.2	66.31
691.4	65.48
691.6	65.63
691.8	66.33
692.0	66.02
692.2	65.65
692.4	65.24
692.6	65.30
692.8	65.30
693.0	65.29
693.2	64.60
693.4	64.32
693.6	63.26
693.8	62.71
694.0	61.96
694.2	60.18
694.4	60.00
694.6	60.04
694.8	59.06
695.0	59.20
695.2	59.11
695.4	59.27
695.6	60.74
695.8	60.93
696.0	59.23
696.2	57.30
696.4	55.84
696.6	54.71
696.8	55.06
697.0	55.52
697.2	55.99
697.4	55.64
697.6	56.06
697.8	55.64
698.0	55.14
698.2	55.13
698.4	54.93
698.6	54.67
698.8	54.65
699.0	55.07
699.2	54.76
699.4	54.72
699.6	54.13
699.8	53.17
700.0	52.35
700.2	51.55
700.4	50.96
700.6	51.68
700.8	52.21
701.0	51.65
701.2	52.15
701.4	51.41
701.6	50.98
701.8	51.04
702.0	50.24
702.2	48.77
702.4	48.34
702.6	47.74
702.8	47.75
703.0	48.25
703.2	48.73
703.4	48.90
703.6	48.59
703.8	47.22
704.0	45.88
704.2	45.55
704.4	45.80
704.6	46.61
704.8	46.55
705.0	45.91
705.2	45.07
705.4	44.59
705.6	44.24
705.8	44.06
706.0	43.79
706.2	44.36
706.4	45.06
706.6	44.93
706.8	44.69
707.0	44.07
707.2	43.53
707.4	43.16
707.6	42.86
707.8	42.19
708.0	41.69
708.2	42.03
708.4	42.17
708.6	41.41
708.8	40.44
709.0	40.23
709.2	40.20
709.4	40.08
709.6	40.06
709.8	39.34
710.0	38.67
710.2	38.68
710.4	39.18
710.6	38.91
710.8	38.77
711.0	38.77
711.2	37.91
711.4	37.59
711.6	37.90
711.8	37.85
712.0	38.03
712.2	38.37
712.4	38.11
712.6	37.58
712.8	37.06
713.0	36.61
713.2	36.49
713.4	36.62
713.6	36.61
713.8	35.90
714.0	35.20
714.2	34.67
714.4	34.41
714.6	34.60
714.8	34.72
715.0	34.44
715.2	34.39
715.4	33.75
