Sample:	'20211010A(EM)
File name:	G-NI 2 (1).FDS
Run date:	'18:10:56, 06/19/2023
Operator:	Administrator
Comment:	'

Instrument
Model:	F-4700 FL Spectrophotometer
Serial number:	2019-001
ROM Version:	5J24010 00

Instrument parameters
Measurement type:	Wavelength scan
Scan mode:	Emission
Data mode:	Fluorescence
EX WL:	400.0 nm
EM  Start WL:	420.0 nm
EM  End WL:	800.0 nm
Scan speed:	1200 nm/min
Delay:	0.0 s
EX Slit:	10.0 nm
EM Slit:	10.0 nm
PMT Voltage:	500 V
Response:	0.002 s
Corrected spectra:	Off
Shutter control:	On

Processing performed
Savitsky-Golay smoothed
Smoothing order:	3
Number of points:	7
Number of times:	1

Peak integration
Integration method:	Rectangular
Sensitivity:	1
Threshold:	1.000

Peaks
No.	Start(nm)	Apex(nm)	End(nm)	Height(Data)	Valley(nm)	Valley(Data)
1	420.0	536.6	537.2	409.3	537.2	405.2
2	537.2	540.0	541.2	409.9	541.2	402.1
3	541.2	542.0	544.2	408.8	544.2	399.1
4	544.2	545.0	547.6	405.4	547.6	392.2
5	547.6	549.0	635.8	394.8	635.8	67.51
6	635.8	636.4	663.6	69.22	663.6	27.61
7	663.6	665.0	666.4	29.78	666.4	24.89
8	666.4	667.2	699.2	27.05	699.2	8.895
9	699.2	700.2	778.2	10.23	778.2	0.870

Data points
nm	Data
420.0	0.579
420.2	0.533
420.4	0.524
420.6	0.530
420.8	0.528
421.0	0.459
421.2	0.397
421.4	0.313
421.6	0.418
421.8	0.521
422.0	0.583
422.2	0.581
422.4	0.554
422.6	0.503
422.8	0.565
423.0	0.730
423.2	0.666
423.4	0.562
423.6	0.461
423.8	0.430
424.0	0.386
424.2	0.422
424.4	0.426
424.6	0.419
424.8	0.504
425.0	0.588
425.2	0.540
425.4	0.467
425.6	0.517
425.8	0.465
426.0	0.528
426.2	0.529
426.4	0.548
426.6	0.489
426.8	0.543
427.0	0.468
427.2	0.395
427.4	0.360
427.6	0.455
427.8	0.514
428.0	0.627
428.2	0.525
428.4	0.502
428.6	0.494
428.8	0.509
429.0	0.632
429.2	0.710
429.4	0.661
429.6	0.586
429.8	0.437
430.0	0.424
430.2	0.526
430.4	0.569
430.6	0.575
430.8	0.502
431.0	0.513
431.2	0.575
431.4	0.685
431.6	0.652
431.8	0.604
432.0	0.513
432.2	0.457
432.4	0.317
432.6	0.345
432.8	0.370
433.0	0.409
433.2	0.498
433.4	0.531
433.6	0.482
433.8	0.482
434.0	0.378
434.2	0.352
434.4	0.448
434.6	0.520
434.8	0.531
435.0	0.540
435.2	0.469
435.4	0.464
435.6	0.536
435.8	0.578
436.0	0.593
436.2	0.544
436.4	0.491
436.6	0.437
436.8	0.508
437.0	0.495
437.2	0.600
437.4	0.674
437.6	0.666
437.8	0.641
438.0	0.533
438.2	0.523
438.4	0.569
438.6	0.727
438.8	0.667
439.0	0.690
439.2	0.650
439.4	0.655
439.6	0.595
439.8	0.596
440.0	0.509
440.2	0.527
440.4	0.536
440.6	0.521
440.8	0.535
441.0	0.597
441.2	0.594
441.4	0.545
441.6	0.515
441.8	0.521
442.0	0.513
442.2	0.562
442.4	0.469
442.6	0.366
442.8	0.317
443.0	0.215
443.2	0.283
443.4	0.369
443.6	0.398
443.8	0.452
444.0	0.528
444.2	0.484
444.4	0.468
444.6	0.495
444.8	0.523
445.0	0.562
445.2	0.671
445.4	0.601
445.6	0.489
445.8	0.522
446.0	0.500
446.2	0.409
446.4	0.452
446.6	0.499
446.8	0.596
447.0	0.658
447.2	0.624
447.4	0.458
447.6	0.390
447.8	0.548
448.0	0.580
448.2	0.670
448.4	0.655
448.6	0.474
448.8	0.408
449.0	0.526
449.2	0.514
449.4	0.643
449.6	0.653
449.8	0.529
450.0	0.430
450.2	0.427
450.4	0.422
450.6	0.537
450.8	0.635
451.0	0.682
451.2	0.662
451.4	0.607
451.6	0.582
451.8	0.537
452.0	0.512
452.2	0.422
452.4	0.427
452.6	0.473
452.8	0.632
453.0	0.711
453.2	0.726
453.4	0.583
453.6	0.426
453.8	0.409
454.0	0.456
454.2	0.528
454.4	0.625
454.6	0.607
454.8	0.527
455.0	0.513
455.2	0.448
455.4	0.402
455.6	0.499
455.8	0.584
456.0	0.639
456.2	0.643
456.4	0.575
456.6	0.496
456.8	0.568
457.0	0.724
457.2	0.741
457.4	0.639
457.6	0.518
457.8	0.441
458.0	0.375
458.2	0.463
458.4	0.486
458.6	0.503
458.8	0.519
459.0	0.529
459.2	0.435
459.4	0.447
459.6	0.516
459.8	0.549
460.0	0.570
460.2	0.630
460.4	0.568
460.6	0.535
460.8	0.580
461.0	0.534
461.2	0.438
461.4	0.534
461.6	0.622
461.8	0.759
462.0	0.866
462.2	0.956
462.4	0.784
462.6	0.735
462.8	0.593
463.0	0.619
463.2	0.560
463.4	0.707
463.6	0.746
463.8	0.857
464.0	0.707
464.2	0.731
464.4	0.683
464.6	0.827
464.8	0.927
465.0	0.996
465.2	0.914
465.4	0.787
465.6	0.712
465.8	0.674
466.0	0.698
466.2	0.727
466.4	0.779
466.6	0.789
466.8	0.867
467.0	0.867
467.2	0.918
467.4	0.915
467.6	0.842
467.8	0.755
468.0	0.745
468.2	0.796
468.4	0.771
468.6	0.816
468.8	0.910
469.0	0.858
469.2	0.996
469.4	1.083
469.6	1.121
469.8	1.166
470.0	1.277
470.2	1.250
470.4	1.300
470.6	1.252
470.8	1.331
471.0	1.238
471.2	1.151
471.4	1.178
471.6	1.315
471.8	1.352
472.0	1.404
472.2	1.529
472.4	1.365
472.6	1.416
472.8	1.492
473.0	1.449
473.2	1.574
473.4	1.885
473.6	2.009
473.8	2.120
474.0	2.040
474.2	2.008
474.4	1.957
474.6	1.957
474.8	2.159
475.0	2.179
475.2	2.207
475.4	2.481
475.6	2.414
475.8	2.500
476.0	2.620
476.2	2.545
476.4	2.513
476.6	2.944
476.8	3.144
477.0	3.296
477.2	3.275
477.4	3.108
477.6	2.885
477.8	3.235
478.0	3.573
478.2	3.732
478.4	3.873
478.6	3.933
478.8	4.107
479.0	4.233
479.2	4.432
479.4	4.450
479.6	4.437
479.8	4.669
480.0	5.038
480.2	5.236
480.4	5.533
480.6	5.833
480.8	5.943
481.0	6.249
481.2	6.506
481.4	6.586
481.6	6.743
481.8	6.901
482.0	7.001
482.2	7.207
482.4	7.427
482.6	7.487
482.8	7.922
483.0	7.871
483.2	8.059
483.4	8.636
483.6	9.029
483.8	9.469
484.0	9.719
484.2	10.02
484.4	10.26
484.6	10.91
484.8	11.28
485.0	11.90
485.2	11.97
485.4	12.54
485.6	12.55
485.8	12.94
486.0	13.38
486.2	13.78
486.4	14.23
486.6	14.94
486.8	15.18
487.0	15.78
487.2	16.36
487.4	16.96
487.6	17.81
487.8	18.37
488.0	18.91
488.2	19.21
488.4	19.82
488.6	20.44
488.8	21.11
489.0	21.50
489.2	22.51
489.4	23.08
489.6	23.87
489.8	24.67
490.0	25.52
490.2	26.14
490.4	27.15
490.6	27.87
490.8	28.83
491.0	29.60
491.2	29.86
491.4	30.17
491.6	30.86
491.8	31.83
492.0	33.43
492.2	34.50
492.4	35.48
492.6	36.46
492.8	37.06
493.0	38.17
493.2	39.36
493.4	40.69
493.6	42.16
493.8	43.12
494.0	43.82
494.2	45.09
494.4	46.07
494.6	46.92
494.8	48.77
495.0	50.33
495.2	51.64
495.4	53.01
495.6	53.90
495.8	54.34
496.0	55.66
496.2	56.63
496.4	58.07
496.6	60.34
496.8	62.85
497.0	65.25
497.2	66.76
497.4	67.04
497.6	68.00
497.8	70.21
498.0	72.28
498.2	74.10
498.4	75.59
498.6	76.20
498.8	77.76
499.0	80.53
499.2	82.85
499.4	84.58
499.6	86.05
499.8	87.42
500.0	90.13
500.2	90.92
500.4	93.29
500.6	95.02
500.8	96.46
501.0	98.50
501.2	101.1
501.4	103.0
501.6	105.8
501.8	107.9
502.0	109.3
502.2	110.0
502.4	112.1
502.6	114.8
502.8	117.8
503.0	119.8
503.2	122.1
503.4	123.4
503.6	126.5
503.8	128.7
504.0	131.7
504.2	133.0
504.4	134.7
504.6	137.2
504.8	139.9
505.0	142.4
505.2	143.5
505.4	144.3
505.6	146.2
505.8	149.9
506.0	152.0
506.2	155.8
506.4	158.2
506.6	161.4
506.8	166.1
507.0	169.2
507.2	169.2
507.4	171.0
507.6	171.4
507.8	174.2
508.0	178.3
508.2	181.5
508.4	184.9
508.6	188.3
508.8	189.5
509.0	190.6
509.2	193.4
509.4	196.5
509.6	198.9
509.8	202.9
510.0	207.2
510.2	208.5
510.4	210.9
510.6	213.5
510.8	215.4
511.0	219.1
511.2	222.6
511.4	223.9
511.6	224.1
511.8	226.5
512.0	230.9
512.2	234.1
512.4	235.2
512.6	238.1
512.8	241.4
513.0	245.1
513.2	247.9
513.4	249.2
513.6	247.9
513.8	248.3
514.0	251.3
514.2	255.6
514.4	259.1
514.6	263.2
514.8	265.0
515.0	266.2
515.2	268.4
515.4	273.2
515.6	276.5
515.8	279.3
516.0	279.7
516.2	281.0
516.4	281.3
516.6	285.0
516.8	287.2
517.0	289.4
517.2	291.5
517.4	294.3
517.6	294.0
517.8	296.5
518.0	297.9
518.2	300.9
518.4	305.3
518.6	309.0
518.8	310.0
519.0	310.7
519.2	311.1
519.4	309.9
519.6	311.9
519.8	316.0
520.0	320.0
520.2	322.9
520.4	326.1
520.6	324.7
520.8	325.9
521.0	329.6
521.2	332.9
521.4	335.9
521.6	337.5
521.8	337.1
522.0	338.2
522.2	339.6
522.4	342.2
522.6	345.6
522.8	345.9
523.0	346.9
523.2	348.8
523.4	349.5
523.6	351.8
523.8	354.1
524.0	356.4
524.2	358.7
524.4	360.1
524.6	359.9
524.8	360.0
525.0	359.8
525.2	359.9
525.4	361.1
525.6	364.0
525.8	365.7
526.0	369.5
526.2	372.2
526.4	372.1
526.6	374.2
526.8	375.5
527.0	376.5
527.2	377.4
527.4	379.0
527.6	380.9
527.8	382.0
528.0	383.0
528.2	383.9
528.4	385.1
528.6	387.4
528.8	388.2
529.0	387.6
529.2	386.4
529.4	384.5
529.6	386.0
529.8	388.2
530.0	390.1
530.2	391.7
530.4	394.4
530.6	397.4
530.8	400.3
531.0	400.5
531.2	397.8
531.4	394.6
531.6	395.8
531.8	397.6
532.0	398.6
532.2	397.8
532.4	398.1
532.6	398.3
532.8	398.0
533.0	399.6
533.2	400.4
533.4	399.9
533.6	401.8
533.8	402.0
534.0	400.0
534.2	399.4
534.4	401.3
534.6	401.1
534.8	402.3
535.0	405.2
535.2	405.4
535.4	405.8
535.6	406.2
535.8	406.2
536.0	405.7
536.2	407.2
536.4	407.5
536.6	409.3
536.8	407.8
537.0	406.7
537.2	405.2
537.4	406.6
537.6	406.6
537.8	406.4
538.0	406.8
538.2	406.3
538.4	407.2
538.6	409.2
538.8	410.1
539.0	409.1
539.2	409.2
539.4	409.7
539.6	409.9
539.8	409.3
540.0	409.9
540.2	409.3
540.4	408.2
540.6	407.2
540.8	406.1
541.0	402.7
541.2	402.1
541.4	403.4
541.6	405.8
541.8	406.9
542.0	408.8
542.2	407.6
542.4	406.4
542.6	404.1
542.8	402.4
543.0	400.9
543.2	403.5
543.4	405.4
543.6	404.3
543.8	402.8
544.0	401.6
544.2	399.1
544.4	401.8
544.6	403.4
544.8	405.0
545.0	405.4
545.2	403.6
545.4	400.4
545.6	399.5
545.8	399.0
546.0	400.2
546.2	400.2
546.4	399.4
546.6	397.5
546.8	395.9
547.0	395.8
547.2	393.8
547.4	393.5
547.6	392.2
547.8	392.6
548.0	393.6
548.2	393.6
548.4	393.1
548.6	394.0
548.8	392.7
549.0	394.8
549.2	394.6
549.4	392.8
549.6	393.0
549.8	393.8
550.0	392.5
550.2	392.9
550.4	392.3
550.6	389.9
550.8	388.5
551.0	385.9
551.2	384.2
551.4	385.0
551.6	386.1
551.8	385.7
552.0	385.6
552.2	381.6
552.4	380.3
552.6	380.0
552.8	379.5
553.0	381.4
553.2	383.4
553.4	382.2
553.6	380.4
553.8	379.3
554.0	377.7
554.2	376.5
554.4	376.2
554.6	374.7
554.8	372.5
555.0	372.4
555.2	370.9
555.4	370.9
555.6	370.5
555.8	370.4
556.0	372.2
556.2	372.7
556.4	371.8
556.6	369.7
556.8	366.6
557.0	364.7
557.2	364.6
557.4	365.1
557.6	364.8
557.8	362.3
558.0	361.0
558.2	359.3
558.4	358.4
558.6	357.8
558.8	357.6
559.0	356.3
559.2	355.7
559.4	354.6
559.6	353.2
559.8	351.5
560.0	353.4
560.2	354.4
560.4	355.3
560.6	354.6
560.8	350.3
561.0	347.4
561.2	346.0
561.4	346.3
561.6	347.9
561.8	348.9
562.0	347.8
562.2	346.9
562.4	343.8
562.6	340.0
562.8	338.8
563.0	338.7
563.2	339.8
563.4	340.8
563.6	338.7
563.8	335.9
564.0	333.2
564.2	331.0
564.4	329.7
564.6	331.5
564.8	331.9
565.0	333.7
565.2	332.8
565.4	332.8
565.6	330.8
565.8	328.8
566.0	326.9
566.2	325.5
566.4	323.2
566.6	322.4
566.8	320.6
567.0	318.0
567.2	316.2
567.4	315.8
567.6	315.1
567.8	314.9
568.0	316.0
568.2	316.4
568.4	316.2
568.6	316.0
568.8	314.9
569.0	314.0
569.2	313.9
569.4	313.5
569.6	311.6
569.8	309.1
570.0	309.2
570.2	308.5
570.4	306.8
570.6	306.3
570.8	303.7
571.0	301.7
571.2	302.2
571.4	302.4
571.6	301.1
571.8	299.9
572.0	297.1
572.2	293.5
572.4	291.8
572.6	292.3
572.8	292.6
573.0	291.2
573.2	290.5
573.4	289.7
573.6	290.6
573.8	292.1
574.0	290.0
574.2	288.0
574.4	286.5
574.6	285.3
574.8	285.0
575.0	283.5
575.2	283.1
575.4	283.1
575.6	282.7
575.8	280.6
576.0	279.1
576.2	275.2
576.4	275.0
576.6	273.4
576.8	274.0
577.0	274.6
577.2	275.3
577.4	273.5
577.6	272.3
577.8	270.2
578.0	268.9
578.2	267.8
578.4	266.3
578.6	264.6
578.8	263.6
579.0	263.6
579.2	262.9
579.4	262.3
579.6	262.8
579.8	261.5
580.0	260.8
580.2	260.6
580.4	258.8
580.6	257.9
580.8	256.6
581.0	254.0
581.2	252.1
581.4	249.6
581.6	248.4
581.8	248.5
582.0	248.8
582.2	248.7
582.4	249.3
582.6	248.4
582.8	248.7
583.0	246.3
583.2	245.0
583.4	241.5
583.6	241.5
583.8	241.2
584.0	240.8
584.2	237.4
584.4	236.6
584.6	235.9
584.8	236.2
585.0	237.3
585.2	235.9
585.4	234.2
585.6	234.3
585.8	234.8
586.0	232.1
586.2	231.2
586.4	228.0
586.6	225.8
586.8	225.4
587.0	225.4
587.2	225.6
587.4	226.6
587.6	225.5
587.8	223.7
588.0	223.6
588.2	223.0
588.4	221.6
588.6	220.2
588.8	217.5
589.0	215.1
589.2	214.1
589.4	213.9
589.6	213.0
589.8	212.0
590.0	210.4
590.2	210.2
590.4	209.2
590.6	209.7
590.8	210.2
591.0	211.2
591.2	210.1
591.4	209.9
591.6	207.1
591.8	204.4
592.0	201.9
592.2	202.0
592.4	200.4
592.6	201.0
592.8	199.9
593.0	200.0
593.2	198.4
593.4	198.2
593.6	195.4
593.8	194.7
594.0	192.7
594.2	191.4
594.4	189.8
594.6	189.6
594.8	189.5
595.0	190.4
595.2	190.5
595.4	190.3
595.6	190.0
595.8	187.5
596.0	185.9
596.2	184.8
596.4	183.2
596.6	183.0
596.8	183.6
597.0	182.7
597.2	181.7
597.4	181.0
597.6	179.6
597.8	178.3
598.0	178.8
598.2	179.7
598.4	179.7
598.6	178.6
598.8	177.4
599.0	175.5
599.2	174.4
599.4	173.8
599.6	172.2
599.8	170.6
600.0	170.0
600.2	169.6
600.4	169.7
600.6	168.4
600.8	167.7
601.0	167.0
601.2	165.2
601.4	164.4
601.6	165.3
601.8	164.9
602.0	164.2
602.2	164.0
602.4	161.6
602.6	161.0
602.8	160.0
603.0	159.8
603.2	156.9
603.4	155.7
603.6	155.0
603.8	156.1
604.0	155.9
604.2	156.1
604.4	154.4
604.6	152.8
604.8	152.1
605.0	152.1
605.2	151.9
605.4	151.1
605.6	151.2
605.8	151.0
606.0	149.8
606.2	149.1
606.4	147.8
606.6	146.7
606.8	146.7
607.0	145.6
607.2	143.6
607.4	143.6
607.6	142.2
607.8	141.4
608.0	141.7
608.2	140.9
608.4	139.8
608.6	139.7
608.8	139.3
609.0	139.0
609.2	139.8
609.4	139.2
609.6	139.1
609.8	137.9
610.0	136.3
610.2	134.4
610.4	133.6
610.6	132.1
610.8	133.0
611.0	133.4
611.2	132.4
611.4	130.9
611.6	130.9
611.8	129.8
612.0	129.3
612.2	128.8
612.4	127.5
612.6	125.9
612.8	125.5
613.0	124.5
613.2	124.3
613.4	124.9
613.6	125.1
613.8	123.7
614.0	122.4
614.2	120.9
614.4	120.8
614.6	120.8
614.8	120.9
615.0	119.5
615.2	119.0
615.4	118.0
615.6	116.8
615.8	116.5
616.0	115.8
616.2	113.9
616.4	114.1
616.6	114.4
616.8	113.3
617.0	114.2
617.2	113.6
617.4	112.9
617.6	113.6
617.8	113.4
618.0	112.5
618.2	111.5
618.4	111.5
618.6	111.3
618.8	110.0
619.0	107.8
619.2	106.4
619.4	104.9
619.6	106.4
619.8	107.9
620.0	107.8
620.2	106.5
620.4	104.7
620.6	102.6
620.8	102.2
621.0	102.7
621.2	102.6
621.4	102.2
621.6	101.0
621.8	100.3
622.0	99.59
622.2	98.86
622.4	99.24
622.6	99.93
622.8	99.69
623.0	99.74
623.2	97.90
623.4	96.11
623.6	94.22
623.8	93.85
624.0	94.04
624.2	93.98
624.4	92.80
624.6	92.67
624.8	91.29
625.0	90.28
625.2	89.98
625.4	89.58
625.6	89.48
625.8	90.87
626.0	90.81
626.2	89.71
626.4	89.10
626.6	88.12
626.8	87.67
627.0	87.44
627.2	86.24
627.4	86.54
627.6	86.93
627.8	86.35
628.0	85.26
628.2	84.79
628.4	83.40
628.6	83.54
628.8	84.04
629.0	84.46
629.2	83.36
629.4	82.93
629.6	81.37
629.8	80.66
630.0	80.56
630.2	81.53
630.4	81.54
630.6	81.16
630.8	80.93
631.0	79.67
631.2	77.91
631.4	76.67
631.6	76.21
631.8	75.84
632.0	76.88
632.2	77.16
632.4	77.18
632.6	76.92
632.8	77.05
633.0	74.99
633.2	73.83
633.4	72.90
633.6	71.73
633.8	71.64
634.0	72.34
634.2	71.76
634.4	72.31
634.6	71.96
634.8	71.14
635.0	70.20
635.2	69.04
635.4	68.03
635.6	67.83
635.8	67.51
636.0	67.85
636.2	68.96
636.4	69.22
636.6	68.81
636.8	68.39
637.0	67.79
637.2	66.97
637.4	66.68
637.6	65.33
637.8	63.68
638.0	63.33
638.2	63.12
638.4	64.41
638.6	64.66
638.8	63.85
639.0	62.54
639.2	61.15
639.4	60.42
639.6	60.77
639.8	60.10
640.0	60.08
640.2	59.95
640.4	59.31
640.6	59.72
640.8	59.18
641.0	57.73
641.2	57.37
641.4	57.63
641.6	57.68
641.8	58.07
642.0	57.41
642.2	56.49
642.4	56.08
642.6	56.42
642.8	55.90
643.0	56.22
643.2	55.76
643.4	55.14
643.6	54.85
643.8	54.91
644.0	54.58
644.2	54.98
644.4	54.12
644.6	52.81
644.8	52.28
645.0	51.83
645.2	51.81
645.4	52.06
645.6	51.98
645.8	52.55
646.0	52.71
646.2	52.35
646.4	51.20
646.6	50.93
646.8	50.50
647.0	50.42
647.2	50.02
647.4	48.92
647.6	48.22
647.8	47.79
648.0	47.14
648.2	46.76
648.4	46.70
648.6	46.64
648.8	47.37
649.0	47.18
649.2	46.47
649.4	45.97
649.6	45.63
649.8	46.10
650.0	45.60
650.2	45.08
650.4	43.82
650.6	42.92
650.8	43.31
651.0	44.38
651.2	44.54
651.4	44.62
651.6	43.60
651.8	42.53
652.0	42.87
652.2	42.71
652.4	42.54
652.6	42.11
652.8	41.21
653.0	40.46
653.2	40.43
653.4	40.15
653.6	39.98
653.8	40.25
654.0	40.00
654.2	39.19
654.4	38.48
654.6	38.12
654.8	38.05
655.0	38.41
655.2	38.25
655.4	38.02
655.6	37.69
655.8	37.48
656.0	37.76
656.2	37.61
656.4	36.78
656.6	36.45
656.8	35.98
657.0	36.40
657.2	36.69
657.4	36.26
657.6	35.65
657.8	35.47
658.0	35.49
658.2	35.58
658.4	34.77
658.6	33.95
658.8	34.02
659.0	33.67
659.2	34.15
659.4	34.00
659.6	33.40
659.8	33.45
660.0	33.60
660.2	33.47
660.4	33.15
660.6	32.11
660.8	31.37
661.0	31.12
661.2	31.15
661.4	31.47
661.6	31.46
661.8	30.80
662.0	31.15
662.2	31.24
662.4	31.11
662.6	31.05
662.8	31.03
663.0	30.16
663.2	29.39
663.4	28.53
663.6	27.61
663.8	27.81
664.0	28.23
664.2	28.42
664.4	28.66
664.6	29.60
664.8	29.60
665.0	29.78
665.2	29.19
665.4	28.47
665.6	27.80
665.8	26.96
666.0	25.68
666.2	25.21
666.4	24.89
666.6	25.79
666.8	26.80
667.0	26.75
667.2	27.05
667.4	26.76
667.6	25.99
667.8	26.03
668.0	25.99
668.2	25.69
668.4	25.98
668.6	25.94
668.8	25.45
669.0	25.78
669.2	25.61
669.4	25.00
669.6	24.52
669.8	24.35
670.0	24.17
670.2	24.30
670.4	24.21
670.6	23.14
670.8	22.91
671.0	22.98
671.2	22.89
671.4	22.78
671.6	23.03
671.8	22.27
672.0	22.57
672.2	22.67
672.4	22.27
672.6	22.18
672.8	22.35
673.0	22.02
673.2	21.81
673.4	21.57
673.6	21.62
673.8	21.44
674.0	21.26
674.2	20.97
674.4	20.64
674.6	20.49
674.8	20.90
675.0	20.91
675.2	20.62
675.4	20.33
675.6	20.40
675.8	19.79
676.0	19.90
676.2	19.57
676.4	19.47
676.6	19.65
676.8	19.73
677.0	19.45
677.2	19.33
677.4	18.68
677.6	18.86
677.8	19.21
678.0	18.88
678.2	18.62
678.4	18.40
678.6	18.33
678.8	18.32
679.0	17.94
679.2	17.53
679.4	17.18
679.6	17.17
679.8	17.48
680.0	17.56
680.2	17.53
680.4	17.42
680.6	17.51
680.8	17.49
681.0	17.42
681.2	17.32
681.4	17.33
681.6	16.87
681.8	16.47
682.0	15.88
682.2	15.74
682.4	15.71
682.6	15.48
682.8	15.14
683.0	14.90
683.2	14.85
683.4	15.20
683.6	15.36
683.8	15.22
684.0	15.09
684.2	14.59
684.4	14.59
684.6	14.72
684.8	14.82
685.0	15.00
685.2	14.93
685.4	14.10
685.6	13.84
685.8	14.02
686.0	14.35
686.2	14.59
686.4	14.62
686.6	14.31
686.8	14.02
687.0	14.01
687.2	13.92
687.4	14.03
687.6	13.92
687.8	13.78
688.0	13.39
688.2	13.27
688.4	12.79
688.6	12.97
688.8	13.02
689.0	13.09
689.2	12.89
689.4	12.46
689.6	12.31
689.8	12.35
690.0	12.19
690.2	12.20
690.4	12.35
690.6	12.34
690.8	12.79
691.0	12.39
691.2	11.88
691.4	11.54
691.6	11.61
691.8	11.39
692.0	11.68
692.2	11.72
692.4	11.66
692.6	11.75
692.8	11.74
693.0	11.13
693.2	10.95
693.4	11.15
693.6	11.14
693.8	11.57
694.0	11.75
694.2	11.53
694.4	11.40
694.6	11.45
694.8	11.22
695.0	11.21
695.2	10.98
695.4	10.62
695.6	10.59
695.8	10.44
696.0	10.03
696.2	10.13
696.4	10.16
696.6	10.41
696.8	10.47
697.0	9.941
697.2	9.699
697.4	9.722
697.6	9.953
697.8	10.31
698.0	10.52
698.2	10.35
698.4	10.38
698.6	9.807
698.8	9.500
699.0	8.936
699.2	8.895
699.4	9.037
699.6	9.383
699.8	9.691
700.0	10.04
700.2	10.23
700.4	9.991
700.6	9.601
700.8	9.095
701.0	8.986
701.2	9.183
701.4	9.415
701.6	9.232
701.8	9.200
702.0	9.018
702.2	8.620
702.4	8.509
702.6	8.517
702.8	8.690
703.0	8.877
703.2	8.894
703.4	8.581
703.6	8.379
703.8	8.442
704.0	8.574
704.2	8.321
704.4	8.487
704.6	8.756
704.8	8.543
705.0	8.323
705.2	7.960
705.4	7.675
705.6	8.169
705.8	8.377
706.0	8.388
706.2	8.230
706.4	8.109
706.6	7.969
706.8	7.958
707.0	7.673
707.2	7.567
707.4	7.558
707.6	7.846
707.8	8.012
708.0	8.001
708.2	8.007
708.4	7.805
708.6	7.595
708.8	7.278
709.0	6.953
