Sample:	'20211010A(EM)
File name:	G-CDs 1 100.FDS
Run date:	'14:54:09, 06/10/2023
Operator:	Administrator
Comment:	'

Instrument
Model:	F-4700 FL Spectrophotometer
Serial number:	2019-001
ROM Version:	5J24010 00

Instrument parameters
Measurement type:	Wavelength scan
Scan mode:	Emission
Data mode:	Fluorescence
EX WL:	400.0 nm
EM  Start WL:	420.0 nm
EM  End WL:	800.0 nm
Scan speed:	1200 nm/min
Delay:	0.0 s
EX Slit:	10.0 nm
EM Slit:	10.0 nm
PMT Voltage:	460 V
Response:	0.002 s
Corrected spectra:	Off
Shutter control:	On

Processing performed
Savitsky-Golay smoothed
Smoothing order:	3
Number of points:	7
Number of times:	1

Peak integration
Integration method:	Rectangular
Sensitivity:	1
Threshold:	1.000

Peaks
No.	Start(nm)	Apex(nm)	End(nm)	Height(Data)	Valley(nm)	Valley(Data)
1	420.0	543.2	544.0	7927	544.0	7886
2	544.0	545.4	778.6	7914	778.6	8.213

Data points
nm	Data
420.0	107.5
420.2	107.4
420.4	108.1
420.6	109.2
420.8	109.3
421.0	109.4
421.2	110.0
421.4	110.4
421.6	111.3
421.8	112.2
422.0	112.5
422.2	112.4
422.4	112.6
422.6	113.0
422.8	113.5
423.0	112.9
423.2	113.4
423.4	113.8
423.6	114.8
423.8	116.0
424.0	116.9
424.2	116.7
424.4	117.0
424.6	117.6
424.8	117.6
425.0	117.4
425.2	118.1
425.4	118.8
425.6	119.7
425.8	121.0
426.0	121.4
426.2	121.2
426.4	121.2
426.6	121.0
426.8	120.9
427.0	121.6
427.2	122.5
427.4	122.6
427.6	122.7
427.8	123.2
428.0	123.4
428.2	124.0
428.4	125.2
428.6	125.8
428.8	126.4
429.0	127.4
429.2	127.4
429.4	126.8
429.6	127.0
429.8	127.5
430.0	127.3
430.2	128.3
430.4	128.3
430.6	128.5
430.8	129.1
431.0	130.0
431.2	130.8
431.4	132.0
431.6	132.8
431.8	133.4
432.0	133.0
432.2	132.6
432.4	132.6
432.6	132.8
432.8	132.8
433.0	134.4
433.2	135.2
433.4	136.4
433.6	136.7
433.8	136.4
434.0	136.3
434.2	137.8
434.4	139.0
434.6	139.9
434.8	140.5
435.0	140.2
435.2	140.0
435.4	141.5
435.6	144.0
435.8	145.5
436.0	146.2
436.2	145.9
436.4	145.1
436.6	146.8
436.8	148.5
437.0	149.9
437.2	149.4
437.4	149.3
437.6	149.8
437.8	151.6
438.0	152.9
438.2	155.4
438.4	155.7
438.6	155.8
438.8	156.3
439.0	157.6
439.2	158.6
439.4	160.3
439.6	161.7
439.8	162.8
440.0	163.9
440.2	165.9
440.4	167.2
440.6	167.4
440.8	169.4
441.0	170.3
441.2	171.6
441.4	173.6
441.6	175.0
441.8	175.9
442.0	177.6
442.2	178.7
442.4	180.8
442.6	182.6
442.8	184.4
443.0	185.7
443.2	186.7
443.4	187.7
443.6	188.8
443.8	190.7
444.0	193.0
444.2	194.1
444.4	195.8
444.6	196.4
444.8	197.2
445.0	200.8
445.2	204.7
445.4	207.4
445.6	209.6
445.8	210.5
446.0	211.8
446.2	213.9
446.4	215.7
446.6	217.8
446.8	218.7
447.0	220.6
447.2	222.3
447.4	224.8
447.6	227.3
447.8	229.7
448.0	231.2
448.2	232.6
448.4	232.9
448.6	234.2
448.8	235.3
449.0	237.2
449.2	239.2
449.4	240.7
449.6	242.4
449.8	243.4
450.0	245.0
450.2	246.7
450.4	248.7
450.6	249.4
450.8	251.2
451.0	252.4
451.2	253.5
451.4	255.5
451.6	256.1
451.8	256.0
452.0	257.4
452.2	258.8
452.4	261.1
452.6	264.2
452.8	265.4
453.0	266.2
453.2	266.2
453.4	267.5
453.6	268.6
453.8	268.2
454.0	269.0
454.2	269.8
454.4	270.6
454.6	273.3
454.8	275.8
455.0	276.0
455.2	276.3
455.4	275.6
455.6	275.0
455.8	275.1
456.0	277.3
456.2	278.4
456.4	279.4
456.6	279.8
456.8	280.1
457.0	280.1
457.2	281.2
457.4	280.9
457.6	280.2
457.8	280.7
458.0	281.2
458.2	282.0
458.4	282.6
458.6	283.5
458.8	284.6
459.0	285.8
459.2	287.0
459.4	287.3
459.6	287.0
459.8	287.9
460.0	287.6
460.2	287.3
460.4	287.3
460.6	285.7
460.8	286.6
461.0	289.1
461.2	290.3
461.4	292.2
461.6	293.5
461.8	292.8
462.0	293.9
462.2	295.2
462.4	295.8
462.6	295.2
462.8	295.6
463.0	296.3
463.2	297.9
463.4	299.2
463.6	301.5
463.8	302.4
464.0	305.2
464.2	307.6
464.4	308.9
464.6	309.6
464.8	310.6
465.0	312.0
465.2	313.8
465.4	314.8
465.6	316.8
465.8	319.2
466.0	321.4
466.2	325.5
466.4	327.7
466.6	329.7
466.8	333.0
467.0	335.8
467.2	337.7
467.4	340.3
467.6	342.2
467.8	343.8
468.0	347.3
468.2	352.1
468.4	355.7
468.6	358.0
468.8	360.8
469.0	363.6
469.2	368.1
469.4	374.0
469.6	378.5
469.8	382.3
470.0	384.6
470.2	388.4
470.4	392.3
470.6	398.6
470.8	403.7
471.0	409.9
471.2	414.2
471.4	419.1
471.6	423.9
471.8	430.8
472.0	434.4
472.2	439.4
472.4	445.1
472.6	451.2
472.8	458.0
473.0	465.3
473.2	469.7
473.4	473.2
473.6	477.4
473.8	483.1
474.0	490.5
474.2	498.9
474.4	508.1
474.6	515.1
474.8	521.3
475.0	528.4
475.2	535.9
475.4	543.8
475.6	553.5
475.8	560.1
476.0	567.2
476.2	575.3
476.4	583.1
476.6	591.7
476.8	599.8
477.0	606.3
477.2	614.8
477.4	624.2
477.6	632.2
477.8	641.7
478.0	651.0
478.2	659.7
478.4	669.4
478.6	679.0
478.8	686.9
479.0	697.5
479.2	708.8
479.4	717.8
479.6	726.1
479.8	735.1
480.0	742.2
480.2	752.5
480.4	763.8
480.6	774.4
480.8	786.0
481.0	799.0
481.2	809.4
481.4	821.6
481.6	832.2
481.8	843.4
482.0	854.5
482.2	865.9
482.4	876.1
482.6	885.6
482.8	894.6
483.0	905.7
483.2	916.7
483.4	928.1
483.6	940.2
483.8	950.6
484.0	962.3
484.2	975.7
484.4	989.7
484.6	1001
484.8	1013
485.0	1024
485.2	1036
485.4	1051
485.6	1065
485.8	1079
486.0	1094
486.2	1106
486.4	1116
486.6	1127
486.8	1137
487.0	1151
487.2	1166
487.4	1181
487.6	1195
487.8	1210
488.0	1224
488.2	1236
488.4	1246
488.6	1261
488.8	1277
489.0	1293
489.2	1310
489.4	1324
489.6	1337
489.8	1353
490.0	1370
490.2	1387
490.4	1402
490.6	1417
490.8	1430
491.0	1446
491.2	1465
491.4	1485
491.6	1502
491.8	1520
492.0	1536
492.2	1551
492.4	1566
492.6	1585
492.8	1602
493.0	1625
493.2	1646
493.4	1663
493.6	1680
493.8	1701
494.0	1719
494.2	1740
494.4	1759
494.6	1780
494.8	1802
495.0	1821
495.2	1839
495.4	1858
495.6	1880
495.8	1903
496.0	1928
496.2	1948
496.4	1967
496.6	1990
496.8	2009
497.0	2030
497.2	2053
497.4	2078
497.6	2103
497.8	2128
498.0	2148
498.2	2170
498.4	2191
498.6	2221
498.8	2246
499.0	2273
499.2	2299
499.4	2326
499.6	2354
499.8	2385
500.0	2411
500.2	2440
500.4	2468
500.6	2493
500.8	2521
501.0	2549
501.2	2578
501.4	2607
501.6	2636
501.8	2659
502.0	2687
502.2	2717
502.4	2741
502.6	2771
502.8	2801
503.0	2827
503.2	2854
503.4	2878
503.6	2903
503.8	2943
504.0	2984
504.2	3019
504.4	3049
504.6	3077
504.8	3108
505.0	3145
505.2	3184
505.4	3217
505.6	3248
505.8	3280
506.0	3308
506.2	3346
506.4	3383
506.6	3413
506.8	3450
507.0	3483
507.2	3514
507.4	3557
507.6	3600
507.8	3629
508.0	3661
508.2	3693
508.4	3725
508.6	3765
508.8	3798
509.0	3834
509.2	3864
509.4	3903
509.6	3941
509.8	3978
510.0	4008
510.2	4045
510.4	4076
510.6	4116
510.8	4155
511.0	4192
511.2	4231
511.4	4267
511.6	4297
511.8	4337
512.0	4374
512.2	4416
512.4	4456
512.6	4491
512.8	4524
513.0	4553
513.2	4581
513.4	4619
513.6	4653
513.8	4688
514.0	4725
514.2	4762
514.4	4800
514.6	4841
514.8	4880
515.0	4909
515.2	4943
515.4	4982
515.6	5026
515.8	5071
516.0	5107
516.2	5134
516.4	5154
516.6	5185
516.8	5232
517.0	5273
517.2	5311
517.4	5347
517.6	5374
517.8	5410
518.0	5446
518.2	5476
518.4	5506
518.6	5538
518.8	5583
519.0	5619
519.2	5655
519.4	5684
519.6	5708
519.8	5736
520.0	5765
520.2	5797
520.4	5835
520.6	5869
520.8	5911
521.0	5952
521.2	5980
521.4	6021
521.6	6050
521.8	6078
522.0	6103
522.2	6128
522.4	6153
522.6	6186
522.8	6214
523.0	6240
523.2	6261
523.4	6291
523.6	6329
523.8	6372
524.0	6413
524.2	6442
524.4	6464
524.6	6485
524.8	6512
525.0	6538
525.2	6560
525.4	6585
525.6	6610
525.8	6640
526.0	6682
526.2	6711
526.4	6733
526.6	6757
526.8	6775
527.0	6800
527.2	6827
527.4	6860
527.6	6885
527.8	6909
528.0	6930
528.2	6952
528.4	6965
528.6	6983
528.8	7005
529.0	7037
529.2	7062
529.4	7092
529.6	7115
529.8	7126
530.0	7144
530.2	7160
530.4	7176
530.6	7204
530.8	7231
531.0	7255
531.2	7270
531.4	7284
531.6	7302
531.8	7326
532.0	7343
532.2	7367
532.4	7382
532.6	7395
532.8	7406
533.0	7423
533.2	7435
533.4	7455
533.6	7469
533.8	7481
534.0	7500
534.2	7520
534.4	7545
534.6	7567
534.8	7573
535.0	7581
535.2	7586
535.4	7601
535.6	7621
535.8	7627
536.0	7635
536.2	7654
536.4	7670
536.6	7702
536.8	7721
537.0	7734
537.2	7746
537.4	7756
537.6	7755
537.8	7757
538.0	7759
538.2	7774
538.4	7784
538.6	7790
538.8	7791
539.0	7798
539.2	7798
539.4	7805
539.6	7814
539.8	7820
540.0	7831
540.2	7836
540.4	7837
540.6	7841
540.8	7844
541.0	7857
541.2	7870
541.4	7875
541.6	7887
541.8	7888
542.0	7885
542.2	7884
542.4	7889
542.6	7895
542.8	7904
543.0	7915
543.2	7927
543.4	7912
543.6	7900
543.8	7888
544.0	7886
544.2	7903
544.4	7913
544.6	7910
544.8	7905
545.0	7907
545.2	7910
545.4	7914
545.6	7905
545.8	7891
546.0	7886
546.2	7890
546.4	7894
546.6	7897
546.8	7892
547.0	7884
547.2	7880
547.4	7878
547.6	7875
547.8	7863
548.0	7856
548.2	7858
548.4	7848
548.6	7858
548.8	7861
549.0	7861
549.2	7854
549.4	7850
549.6	7835
549.8	7833
550.0	7825
550.2	7821
550.4	7811
550.6	7804
550.8	7794
551.0	7783
551.2	7773
551.4	7761
551.6	7763
551.8	7760
552.0	7759
552.2	7756
552.4	7741
552.6	7725
552.8	7718
553.0	7705
553.2	7705
553.4	7696
553.6	7675
553.8	7656
554.0	7645
554.2	7629
554.4	7627
554.6	7627
554.8	7616
555.0	7595
555.2	7585
555.4	7565
555.6	7546
555.8	7541
556.0	7534
556.2	7524
556.4	7516
556.6	7504
556.8	7486
557.0	7471
557.2	7469
557.4	7461
557.6	7437
557.8	7418
558.0	7400
558.2	7389
558.4	7384
558.6	7380
558.8	7361
559.0	7342
559.2	7322
559.4	7310
559.6	7291
559.8	7277
560.0	7259
560.2	7244
560.4	7224
560.6	7212
560.8	7199
561.0	7182
561.2	7167
561.4	7160
561.6	7144
561.8	7129
562.0	7111
562.2	7091
562.4	7074
562.6	7063
562.8	7044
563.0	7027
563.2	7004
563.4	6985
563.6	6969
563.8	6954
564.0	6932
564.2	6917
564.4	6894
564.6	6879
564.8	6862
565.0	6841
565.2	6819
565.4	6796
565.6	6782
565.8	6774
566.0	6757
566.2	6734
566.4	6705
566.6	6667
566.8	6647
567.0	6636
567.2	6626
567.4	6612
567.6	6592
567.8	6566
568.0	6542
568.2	6527
568.4	6511
568.6	6493
568.8	6470
569.0	6449
569.2	6431
569.4	6410
569.6	6394
569.8	6376
570.0	6351
570.2	6330
570.4	6315
570.6	6297
570.8	6284
571.0	6261
571.2	6237
571.4	6217
571.6	6197
571.8	6175
572.0	6162
572.2	6139
572.4	6121
572.6	6102
572.8	6081
573.0	6053
573.2	6039
573.4	6026
573.6	6005
573.8	5988
574.0	5969
574.2	5940
574.4	5912
574.6	5886
574.8	5864
575.0	5848
575.2	5830
575.4	5816
575.6	5798
575.8	5779
576.0	5766
576.2	5741
576.4	5715
576.6	5688
576.8	5659
577.0	5638
577.2	5618
577.4	5595
577.6	5577
577.8	5558
578.0	5540
578.2	5519
578.4	5502
578.6	5477
578.8	5466
579.0	5449
579.2	5423
579.4	5393
579.6	5373
579.8	5351
580.0	5344
580.2	5328
580.4	5304
580.6	5278
580.8	5256
581.0	5236
581.2	5215
581.4	5196
581.6	5180
581.8	5164
582.0	5145
582.2	5126
582.4	5102
582.6	5083
582.8	5067
583.0	5049
583.2	5028
583.4	5006
583.6	4986
583.8	4957
584.0	4935
584.2	4909
584.4	4888
584.6	4873
584.8	4856
585.0	4843
585.2	4830
585.4	4813
585.6	4794
585.8	4770
586.0	4755
586.2	4744
586.4	4724
586.6	4704
586.8	4682
587.0	4651
587.2	4639
587.4	4619
587.6	4600
587.8	4580
588.0	4562
588.2	4535
588.4	4516
588.6	4501
588.8	4486
589.0	4477
589.2	4466
589.4	4443
589.6	4415
589.8	4390
590.0	4366
590.2	4346
590.4	4330
590.6	4317
590.8	4303
591.0	4288
591.2	4268
591.4	4244
591.6	4225
591.8	4206
592.0	4187
592.2	4170
592.4	4151
592.6	4127
592.8	4108
593.0	4092
593.2	4074
593.4	4056
593.6	4049
593.8	4025
594.0	4010
594.2	3997
594.4	3977
594.6	3955
594.8	3932
595.0	3909
595.2	3886
595.4	3874
595.6	3868
595.8	3850
596.0	3831
596.2	3816
596.4	3796
596.6	3784
596.8	3771
597.0	3748
597.2	3729
597.4	3706
597.6	3691
597.8	3669
598.0	3657
598.2	3647
598.4	3631
598.6	3618
598.8	3605
599.0	3582
599.2	3566
599.4	3547
599.6	3532
599.8	3516
600.0	3496
600.2	3480
600.4	3461
600.6	3442
600.8	3426
601.0	3406
601.2	3386
601.4	3368
601.6	3352
601.8	3336
602.0	3325
602.2	3313
602.4	3299
602.6	3283
602.8	3270
603.0	3252
603.2	3237
603.4	3215
603.6	3197
603.8	3182
604.0	3169
604.2	3150
604.4	3134
604.6	3119
604.8	3105
605.0	3085
605.2	3073
605.4	3052
605.6	3042
605.8	3033
606.0	3021
606.2	3001
606.4	2981
606.6	2957
606.8	2945
607.0	2928
607.2	2917
607.4	2906
607.6	2888
607.8	2874
608.0	2863
608.2	2846
608.4	2832
608.6	2816
608.8	2796
609.0	2779
609.2	2767
609.4	2755
609.6	2744
609.8	2731
610.0	2715
610.2	2703
610.4	2689
610.6	2674
610.8	2658
611.0	2641
611.2	2624
611.4	2611
611.6	2596
611.8	2582
612.0	2568
612.2	2549
612.4	2533
612.6	2518
612.8	2505
613.0	2490
613.2	2476
613.4	2463
613.6	2450
613.8	2436
614.0	2427
614.2	2411
614.4	2398
614.6	2385
614.8	2370
615.0	2352
615.2	2340
615.4	2329
615.6	2321
615.8	2309
616.0	2295
616.2	2277
616.4	2260
616.6	2248
616.8	2237
617.0	2226
617.2	2219
617.4	2210
617.6	2198
617.8	2181
618.0	2161
618.2	2144
618.4	2135
618.6	2127
618.8	2116
619.0	2103
619.2	2091
619.4	2077
619.6	2062
619.8	2047
620.0	2030
620.2	2019
620.4	2010
620.6	1999
620.8	1990
621.0	1976
621.2	1965
621.4	1955
621.6	1943
621.8	1932
622.0	1919
622.2	1908
622.4	1899
622.6	1887
622.8	1872
623.0	1859
623.2	1843
623.4	1835
623.6	1824
623.8	1817
624.0	1808
624.2	1799
624.4	1789
624.6	1776
624.8	1760
625.0	1751
625.2	1742
625.4	1735
625.6	1726
625.8	1713
626.0	1702
626.2	1689
626.4	1681
626.6	1672
626.8	1660
627.0	1647
627.2	1633
627.4	1622
627.6	1613
627.8	1601
628.0	1589
628.2	1577
628.4	1563
628.6	1556
628.8	1548
629.0	1541
629.2	1532
629.4	1523
629.6	1511
629.8	1502
630.0	1493
630.2	1482
630.4	1474
630.6	1463
630.8	1452
631.0	1443
631.2	1435
631.4	1425
631.6	1417
631.8	1406
632.0	1399
632.2	1389
632.4	1382
632.6	1372
632.8	1362
633.0	1353
633.2	1346
633.4	1338
633.6	1332
633.8	1326
634.0	1316
634.2	1306
634.4	1295
634.6	1284
634.8	1277
635.0	1270
635.2	1260
635.4	1249
635.6	1240
635.8	1228
636.0	1225
636.2	1220
636.4	1214
636.6	1206
636.8	1198
637.0	1188
637.2	1183
637.4	1172
637.6	1164
637.8	1156
638.0	1149
638.2	1146
638.4	1142
638.6	1134
638.8	1127
639.0	1120
639.2	1108
639.4	1099
639.6	1090
639.8	1082
640.0	1077
640.2	1074
640.4	1069
640.6	1061
640.8	1051
641.0	1042
641.2	1036
641.4	1031
641.6	1027
641.8	1021
642.0	1012
642.2	1002
642.4	994.4
642.6	987.6
642.8	982.0
643.0	976.8
643.2	971.8
643.4	964.9
643.6	957.5
643.8	950.0
644.0	943.3
644.2	936.8
644.4	932.3
644.6	927.6
644.8	919.8
645.0	913.9
645.2	908.0
645.4	902.1
645.6	896.2
645.8	887.3
646.0	880.2
646.2	877.1
646.4	869.9
646.6	865.5
646.8	859.6
647.0	850.5
647.2	846.4
647.4	842.1
647.6	833.2
647.8	826.1
648.0	821.2
648.2	816.8
648.4	812.9
648.6	807.6
648.8	801.5
649.0	794.3
649.2	788.4
649.4	783.2
649.6	778.5
649.8	771.7
650.0	767.7
650.2	762.0
650.4	757.5
650.6	753.9
650.8	750.9
651.0	745.4
651.2	741.7
651.4	737.6
651.6	732.8
651.8	725.7
652.0	720.6
652.2	714.8
652.4	708.9
652.6	705.4
652.8	700.7
653.0	693.3
653.2	689.0
653.4	684.4
653.6	682.0
653.8	677.4
654.0	672.0
654.2	664.8
654.4	659.0
654.6	655.6
654.8	653.5
655.0	650.0
655.2	645.3
655.4	639.0
655.6	633.9
655.8	629.3
656.0	624.5
656.2	622.7
656.4	618.0
656.6	613.1
656.8	609.8
657.0	603.5
657.2	599.1
657.4	596.0
657.6	590.8
657.8	587.3
658.0	584.4
658.2	579.6
658.4	574.1
658.6	568.1
658.8	562.0
659.0	558.4
659.2	556.4
659.4	555.3
659.6	552.1
659.8	549.6
660.0	545.2
660.2	541.9
660.4	537.4
660.6	533.5
660.8	529.4
661.0	525.3
661.2	520.9
661.4	515.6
661.6	511.3
661.8	508.0
662.0	504.4
662.2	500.4
662.4	496.4
662.6	492.6
662.8	490.4
663.0	486.6
663.2	483.9
663.4	480.0
663.6	475.8
663.8	473.8
664.0	470.9
664.2	466.6
664.4	465.0
664.6	461.4
664.8	458.9
665.0	456.7
665.2	453.3
665.4	448.8
665.6	444.0
665.8	440.4
666.0	436.9
666.2	434.6
666.4	432.1
666.6	429.6
666.8	425.7
667.0	422.0
667.2	417.9
667.4	415.4
667.6	413.3
667.8	410.8
668.0	408.3
668.2	403.7
668.4	398.8
668.6	395.1
668.8	392.4
669.0	391.1
669.2	389.7
669.4	388.5
669.6	386.7
669.8	384.0
670.0	379.1
670.2	374.9
670.4	371.0
670.6	369.3
670.8	368.8
671.0	367.1
671.2	364.1
671.4	361.1
671.6	358.0
671.8	354.7
672.0	352.7
672.2	349.2
672.4	347.4
672.6	345.9
672.8	343.1
673.0	341.1
673.2	339.0
673.4	334.2
673.6	330.8
673.8	328.1
674.0	325.2
674.2	323.5
674.4	321.1
674.6	317.9
674.8	315.5
675.0	313.4
675.2	310.8
675.4	308.9
675.6	306.0
675.8	304.5
676.0	302.0
676.2	299.4
676.4	297.6
676.6	297.3
676.8	295.4
677.0	293.0
677.2	289.7
677.4	286.7
677.6	285.7
677.8	285.0
678.0	282.7
678.2	278.9
678.4	275.6
678.6	272.7
678.8	271.3
679.0	270.9
679.2	268.9
679.4	266.7
679.6	264.8
679.8	262.0
680.0	259.3
680.2	258.4
680.4	256.5
680.6	254.3
680.8	252.7
681.0	249.8
681.2	246.5
681.4	245.1
681.6	244.3
681.8	242.2
682.0	241.5
682.2	239.1
682.4	236.4
682.6	234.5
682.8	232.6
683.0	230.9
683.2	230.1
683.4	229.3
683.6	228.1
683.8	226.3
684.0	224.7
684.2	222.8
684.4	220.3
684.6	219.6
684.8	218.2
685.0	216.9
685.2	215.9
685.4	213.4
685.6	210.9
685.8	209.3
686.0	208.3
686.2	206.6
686.4	204.9
686.6	202.9
686.8	202.0
687.0	200.6
687.2	199.5
687.4	197.0
687.6	194.8
687.8	193.5
688.0	192.0
688.2	191.0
688.4	190.5
688.6	188.6
688.8	187.8
689.0	186.7
689.2	185.1
689.4	184.0
689.6	183.1
689.8	180.9
690.0	180.5
690.2	179.2
690.4	178.1
690.6	176.0
690.8	175.1
691.0	173.4
691.2	173.4
691.4	171.5
691.6	169.8
691.8	168.0
692.0	166.9
692.2	165.0
692.4	164.9
692.6	163.1
692.8	161.9
693.0	161.7
693.2	160.9
693.4	159.6
693.6	157.9
693.8	156.0
694.0	153.2
694.2	152.3
694.4	151.4
694.6	150.7
694.8	149.3
695.0	148.9
695.2	146.5
695.4	146.8
695.6	145.7
695.8	145.3
696.0	144.5
696.2	144.0
696.4	142.3
696.6	141.4
696.8	139.5
697.0	138.6
697.2	138.2
697.4	138.2
697.6	137.9
697.8	136.4
698.0	134.8
698.2	133.9
698.4	132.8
698.6	132.2
698.8	132.0
699.0	131.1
699.2	130.0
699.4	129.4
699.6	127.2
699.8	125.9
700.0	125.4
700.2	124.5
700.4	124.0
700.6	123.6
700.8	122.6
701.0	122.1
701.2	122.2
701.4	121.4
701.6	120.5
701.8	119.6
702.0	118.3
702.2	117.6
702.4	117.5
702.6	117.1
702.8	115.6
703.0	115.0
703.2	113.5
703.4	113.4
703.6	112.6
703.8	111.6
704.0	110.3
704.2	109.9
704.4	109.1
704.6	109.1
704.8	107.5
705.0	106.6
705.2	105.9
705.4	105.8
705.6	105.3
705.8	104.5
706.0	103.2
706.2	102.5
706.4	101.7
706.6	101.6
706.8	100.4
707.0	99.72
707.2	99.09
707.4	98.24
707.6	97.52
707.8	97.53
708.0	96.98
708.2	96.89
708.4	96.12
708.6	95.21
708.8	93.90
709.0	93.52
709.2	92.66
709.4	92.62
709.6	92.05
709.8	91.91
710.0	90.86
710.2	90.56
710.4	89.82
710.6	89.16
710.8	87.98
711.0	87.20
711.2	86.38
711.4	86.16
711.6	85.72
711.8	85.01
712.0	83.83
712.2	83.67
712.4	83.36
712.6	83.02
712.8	83.05
713.0	82.61
713.2	80.99
713.4	80.53
713.6	79.75
713.8	79.66
714.0	79.49
714.2	78.53
714.4	77.49
714.6	77.56
714.8	77.15
715.0	77.20
715.2	76.09
715.4	75.45
715.6	74.81
715.8	74.30
716.0	73.48
716.2	72.56
716.4	71.40
716.6	71.48
716.8	71.30
717.0	70.70
717.2	70.67
717.4	69.98
717.6	69.48
717.8	69.00
718.0	68.78
718.2	68.45
718.4	68.17
718.6	67.37
718.8	67.25
719.0	66.63
719.2	66.01
719.4	65.88
719.6	64.44
719.8	62.85
720.0	61.55
720.2	61.07
720.4	60.94
720.6	61.14
720.8	61.21
721.0	60.89
721.2	60.17
721.4	60.11
721.6	59.71
721.8	58.74
722.0	58.63
722.2	57.92
722.4	57.71
722.6	57.94
722.8	57.50
723.0	56.25
723.2	55.34
723.4	54.60
723.6	54.38
723.8	54.42
724.0	54.28
724.2	53.32
724.4	52.65
724.6	52.32
724.8	52.24
725.0	51.89
725.2	51.70
725.4	50.86
