Sample:	'20211010A(EM)
File name:	G-CDs 5 500.FDS
Run date:	'15:17:46, 06/10/2023
Operator:	Administrator
Comment:	'

Instrument
Model:	F-4700 FL Spectrophotometer
Serial number:	2019-001
ROM Version:	5J24010 00

Instrument parameters
Measurement type:	Wavelength scan
Scan mode:	Emission
Data mode:	Fluorescence
EX WL:	400.0 nm
EM  Start WL:	420.0 nm
EM  End WL:	800.0 nm
Scan speed:	1200 nm/min
Delay:	0.0 s
EX Slit:	10.0 nm
EM Slit:	10.0 nm
PMT Voltage:	435 V
Response:	0.002 s
Corrected spectra:	Off
Shutter control:	On

Processing performed
Savitsky-Golay smoothed
Smoothing order:	3
Number of points:	7
Number of times:	1

Peak integration
Integration method:	Rectangular
Sensitivity:	1
Threshold:	1.000

Peaks
No.	Start(nm)	Apex(nm)	End(nm)	Height(Data)	Valley(nm)	Valley(Data)
1	420.0	546.2	779.6	6503	779.6	6.862

Data points
nm	Data
420.0	88.52
420.2	89.43
420.4	90.18
420.6	90.80
420.8	91.30
421.0	91.82
421.2	92.12
421.4	91.96
421.6	91.67
421.8	91.61
422.0	91.87
422.2	92.94
422.4	93.50
422.6	93.82
422.8	93.89
423.0	93.98
423.2	94.11
423.4	94.82
423.6	95.49
423.8	96.45
424.0	96.86
424.2	97.51
424.4	97.00
424.6	96.72
424.8	96.89
425.0	97.42
425.2	98.12
425.4	98.86
425.6	99.45
425.8	100.0
426.0	99.84
426.2	99.99
426.4	99.62
426.6	100.2
426.8	101.3
427.0	101.9
427.2	101.6
427.4	101.5
427.6	100.7
427.8	101.4
428.0	102.3
428.2	103.2
428.4	103.6
428.6	104.5
428.8	105.1
429.0	105.3
429.2	105.3
429.4	105.6
429.6	105.5
429.8	106.0
430.0	106.5
430.2	106.8
430.4	106.5
430.6	106.9
430.8	107.2
431.0	107.4
431.2	108.2
431.4	109.3
431.6	109.4
431.8	110.5
432.0	110.8
432.2	110.2
432.4	110.1
432.6	110.2
432.8	109.9
433.0	111.2
433.2	112.1
433.4	112.6
433.6	113.2
433.8	114.0
434.0	114.5
434.2	115.1
434.4	116.4
434.6	116.7
434.8	116.8
435.0	116.5
435.2	116.7
435.4	117.1
435.6	118.6
435.8	119.8
436.0	121.1
436.2	121.3
436.4	122.0
436.6	122.1
436.8	122.7
437.0	123.3
437.2	123.6
437.4	124.1
437.6	125.1
437.8	125.3
438.0	126.1
438.2	126.8
438.4	127.1
438.6	128.5
438.8	129.8
439.0	130.8
439.2	132.1
439.4	133.5
439.6	134.7
439.8	136.1
440.0	136.0
440.2	136.8
440.4	137.7
440.6	139.2
440.8	140.6
441.0	142.2
441.2	142.3
441.4	143.5
441.6	144.5
441.8	145.6
442.0	147.1
442.2	148.7
442.4	149.4
442.6	151.1
442.8	152.8
443.0	153.6
443.2	155.3
443.4	157.1
443.6	158.0
443.8	159.8
444.0	161.2
444.2	162.1
444.4	163.7
444.6	165.5
444.8	167.2
445.0	169.7
445.2	170.4
445.4	171.8
445.6	173.1
445.8	174.3
446.0	176.1
446.2	178.6
446.4	179.2
446.6	180.6
446.8	180.9
447.0	182.2
447.2	183.6
447.4	186.3
447.6	188.0
447.8	189.4
448.0	190.1
448.2	191.5
448.4	193.1
448.6	195.9
448.8	197.4
449.0	198.9
449.2	200.7
449.4	201.9
449.6	203.5
449.8	205.1
450.0	205.7
450.2	207.2
450.4	207.7
450.6	208.5
450.8	210.1
451.0	211.3
451.2	212.7
451.4	215.0
451.6	216.3
451.8	217.7
452.0	219.1
452.2	220.0
452.4	220.6
452.6	220.8
452.8	221.5
453.0	222.2
453.2	223.1
453.4	224.6
453.6	226.2
453.8	226.4
454.0	227.5
454.2	228.5
454.4	229.6
454.6	229.6
454.8	229.8
455.0	229.7
455.2	230.6
455.4	231.5
455.6	232.7
455.8	233.0
456.0	233.3
456.2	234.1
456.4	236.3
456.6	238.1
456.8	238.2
457.0	238.3
457.2	237.4
457.4	237.0
457.6	238.7
457.8	240.3
458.0	239.6
458.2	239.6
458.4	239.0
458.6	239.4
458.8	240.9
459.0	242.5
459.2	242.8
459.4	243.4
459.6	243.4
459.8	243.6
460.0	243.6
460.2	243.9
460.4	243.9
460.6	244.1
460.8	244.5
461.0	245.5
461.2	245.9
461.4	246.3
461.6	247.0
461.8	246.8
462.0	247.7
462.2	248.5
462.4	250.2
462.6	251.4
462.8	252.4
463.0	253.1
463.2	254.2
463.4	254.2
463.6	255.7
463.8	255.5
464.0	254.7
464.2	256.1
464.4	257.3
464.6	258.7
464.8	262.0
465.0	263.3
465.2	264.3
465.4	265.4
465.6	265.5
465.8	267.0
466.0	269.1
466.2	270.8
466.4	273.1
466.6	274.3
466.8	275.8
467.0	277.9
467.2	279.5
467.4	281.3
467.6	282.6
467.8	283.9
468.0	286.3
468.2	288.6
468.4	292.0
468.6	295.6
468.8	297.4
469.0	299.9
469.2	302.5
469.4	305.6
469.6	309.1
469.8	313.2
470.0	315.9
470.2	318.8
470.4	322.3
470.6	326.5
470.8	329.0
471.0	333.8
471.2	338.5
471.4	342.3
471.6	345.9
471.8	349.1
472.0	350.7
472.2	355.7
472.4	361.4
472.6	366.7
472.8	372.4
473.0	377.5
473.2	380.7
473.4	384.5
473.6	388.6
473.8	394.0
474.0	399.2
474.2	405.9
474.4	410.6
474.6	416.3
474.8	421.8
475.0	427.7
475.2	433.3
475.4	439.5
475.6	445.2
475.8	452.0
476.0	457.7
476.2	464.4
476.4	472.2
476.6	479.3
476.8	486.2
477.0	492.2
477.2	497.1
477.4	504.3
477.6	511.5
477.8	518.4
478.0	523.7
478.2	529.7
478.4	535.4
478.6	543.1
478.8	550.1
479.0	557.3
479.2	564.5
479.4	573.9
479.6	582.5
479.8	590.2
480.0	598.5
480.2	606.6
480.4	615.0
480.6	624.8
480.8	632.1
481.0	640.0
481.2	649.9
481.4	658.0
481.6	667.5
481.8	675.3
482.0	681.1
482.2	689.4
482.4	698.9
482.6	708.1
482.8	718.5
483.0	727.8
483.2	736.2
483.4	745.1
483.6	753.8
483.8	762.0
484.0	771.0
484.2	781.8
484.4	793.3
484.6	803.6
484.8	812.9
485.0	822.1
485.2	831.1
485.4	840.3
485.6	851.6
485.8	860.2
486.0	869.0
486.2	881.9
486.4	894.3
486.6	906.3
486.8	918.2
487.0	926.3
487.2	934.8
487.4	944.6
487.6	953.9
487.8	965.8
488.0	975.0
488.2	986.2
488.4	997.8
488.6	1011
488.8	1024
489.0	1038
489.2	1047
489.4	1058
489.6	1069
489.8	1083
490.0	1099
490.2	1113
490.4	1125
490.6	1136
490.8	1148
491.0	1160
491.2	1173
491.4	1187
491.6	1201
491.8	1216
492.0	1229
492.2	1242
492.4	1255
492.6	1266
492.8	1279
493.0	1290
493.2	1303
493.4	1321
493.6	1337
493.8	1352
494.0	1366
494.2	1379
494.4	1394
494.6	1415
494.8	1432
495.0	1453
495.2	1469
495.4	1481
495.6	1495
495.8	1513
496.0	1529
496.2	1550
496.4	1569
496.6	1584
496.8	1604
497.0	1624
497.2	1641
497.4	1656
497.6	1670
497.8	1688
498.0	1705
498.2	1727
498.4	1750
498.6	1770
498.8	1788
499.0	1809
499.2	1826
499.4	1847
499.6	1869
499.8	1890
500.0	1910
500.2	1932
500.4	1955
500.6	1977
500.8	1998
501.0	2018
501.2	2040
501.4	2063
501.6	2086
501.8	2111
502.0	2135
502.2	2158
502.4	2183
502.6	2206
502.8	2228
503.0	2253
503.2	2279
503.4	2306
503.6	2333
503.8	2354
504.0	2374
504.2	2396
504.4	2424
504.6	2453
504.8	2482
505.0	2507
505.2	2530
505.4	2557
505.6	2579
505.8	2605
506.0	2628
506.2	2657
506.4	2685
506.6	2716
506.8	2742
507.0	2769
507.2	2795
507.4	2825
507.6	2853
507.8	2884
508.0	2910
508.2	2935
508.4	2964
508.6	2991
508.8	3019
509.0	3046
509.2	3077
509.4	3108
509.6	3132
509.8	3159
510.0	3187
510.2	3219
510.4	3255
510.6	3284
510.8	3309
511.0	3337
511.2	3362
511.4	3390
511.6	3418
511.8	3443
512.0	3474
512.2	3510
512.4	3541
512.6	3567
512.8	3593
513.0	3616
513.2	3646
513.4	3680
513.6	3713
513.8	3744
514.0	3777
514.2	3805
514.4	3838
514.6	3865
514.8	3896
515.0	3928
515.2	3957
515.4	3984
515.6	4009
515.8	4033
516.0	4064
516.2	4097
516.4	4127
516.6	4154
516.8	4179
517.0	4207
517.2	4235
517.4	4262
517.6	4287
517.8	4317
518.0	4348
518.2	4381
518.4	4408
518.6	4436
518.8	4459
519.0	4488
519.2	4511
519.4	4536
519.6	4562
519.8	4592
520.0	4623
520.2	4658
520.4	4684
520.6	4706
520.8	4729
521.0	4758
521.2	4785
521.4	4817
521.6	4839
521.8	4856
522.0	4877
522.2	4904
522.4	4936
522.6	4963
522.8	4984
523.0	5011
523.2	5034
523.4	5064
523.6	5090
523.8	5112
524.0	5136
524.2	5169
524.4	5195
524.6	5226
524.8	5242
525.0	5264
525.2	5285
525.4	5309
525.6	5328
525.8	5349
526.0	5366
526.2	5386
526.4	5410
526.6	5437
526.8	5460
527.0	5486
527.2	5508
527.4	5528
527.6	5547
527.8	5561
528.0	5580
528.2	5605
528.4	5624
528.6	5643
528.8	5667
529.0	5684
529.2	5708
529.4	5735
529.6	5758
529.8	5772
530.0	5789
530.2	5802
530.4	5821
530.6	5842
530.8	5863
531.0	5881
531.2	5893
531.4	5908
531.6	5929
531.8	5942
532.0	5954
532.2	5964
532.4	5971
532.6	5985
532.8	6004
533.0	6027
533.2	6047
533.4	6064
533.6	6078
533.8	6091
534.0	6104
534.2	6118
534.4	6127
534.6	6137
534.8	6147
535.0	6161
535.2	6176
535.4	6189
535.6	6197
535.8	6204
536.0	6213
536.2	6231
536.4	6250
536.6	6272
536.8	6286
537.0	6293
537.2	6294
537.4	6297
537.6	6303
537.8	6309
538.0	6314
538.2	6327
538.4	6335
538.6	6346
538.8	6356
539.0	6359
539.2	6361
539.4	6365
539.6	6375
539.8	6388
540.0	6397
540.2	6406
540.4	6415
540.6	6423
540.8	6432
541.0	6438
541.2	6440
541.4	6442
541.6	6449
541.8	6458
542.0	6464
542.2	6468
542.4	6469
542.6	6472
542.8	6473
543.0	6476
543.2	6480
543.4	6480
543.6	6480
543.8	6482
544.0	6480
544.2	6488
544.4	6492
544.6	6493
544.8	6490
545.0	6494
545.2	6490
545.4	6489
545.6	6489
545.8	6495
546.0	6496
546.2	6503
546.4	6501
546.6	6501
546.8	6494
547.0	6494
547.2	6487
547.4	6482
547.6	6486
547.8	6492
548.0	6491
548.2	6490
548.4	6478
548.6	6471
548.8	6469
549.0	6465
549.2	6470
549.4	6468
549.6	6463
549.8	6456
550.0	6443
550.2	6441
550.4	6446
550.6	6444
550.8	6441
551.0	6435
551.2	6419
551.4	6413
551.6	6417
551.8	6419
552.0	6411
552.2	6406
552.4	6393
552.6	6379
552.8	6375
553.0	6371
553.2	6361
553.4	6355
553.6	6344
553.8	6333
554.0	6330
554.2	6328
554.4	6323
554.6	6320
554.8	6306
555.0	6292
555.2	6290
555.4	6288
555.6	6278
555.8	6272
556.0	6257
556.2	6244
556.4	6234
556.6	6223
556.8	6210
557.0	6197
557.2	6184
557.4	6177
557.6	6164
557.8	6158
558.0	6144
558.2	6134
558.4	6124
558.6	6118
558.8	6109
559.0	6097
559.2	6087
559.4	6075
559.6	6060
559.8	6046
560.0	6032
560.2	6012
560.4	6007
560.6	5997
560.8	5991
561.0	5980
561.2	5973
561.4	5964
561.6	5950
561.8	5934
562.0	5920
562.2	5902
562.4	5892
562.6	5879
562.8	5861
563.0	5846
563.2	5833
563.4	5820
563.6	5808
563.8	5795
564.0	5783
564.2	5768
564.4	5750
564.6	5727
564.8	5713
565.0	5705
565.2	5692
565.4	5680
565.6	5655
565.8	5631
566.0	5619
566.2	5610
566.4	5597
566.6	5588
566.8	5574
567.0	5560
567.2	5541
567.4	5527
567.6	5509
567.8	5494
568.0	5485
568.2	5471
568.4	5452
568.6	5433
568.8	5415
569.0	5399
569.2	5385
569.4	5382
569.6	5373
569.8	5354
570.0	5334
570.2	5309
570.4	5291
570.6	5282
570.8	5268
571.0	5251
571.2	5230
571.4	5206
571.6	5188
571.8	5175
572.0	5164
572.2	5149
572.4	5134
572.6	5117
572.8	5097
573.0	5084
573.2	5067
573.4	5045
573.6	5028
573.8	5014
574.0	5002
574.2	4992
574.4	4977
574.6	4956
574.8	4934
575.0	4914
575.2	4898
575.4	4883
575.6	4866
575.8	4852
576.0	4834
576.2	4818
576.4	4800
576.6	4781
576.8	4765
577.0	4752
577.2	4733
577.4	4724
577.6	4707
577.8	4688
578.0	4675
578.2	4657
578.4	4641
578.6	4628
578.8	4608
579.0	4584
579.2	4563
579.4	4547
579.6	4533
579.8	4516
580.0	4498
580.2	4478
580.4	4463
580.6	4450
580.8	4433
581.0	4423
581.2	4410
581.4	4392
581.6	4375
581.8	4356
582.0	4340
582.2	4326
582.4	4312
582.6	4296
582.8	4277
583.0	4260
583.2	4246
583.4	4230
583.6	4216
583.8	4202
584.0	4183
584.2	4162
584.4	4147
584.6	4133
584.8	4115
585.0	4097
585.2	4078
585.4	4061
585.6	4049
585.8	4035
586.0	4021
586.2	4001
586.4	3981
586.6	3964
586.8	3944
587.0	3926
587.2	3918
587.4	3904
587.6	3890
587.8	3877
588.0	3857
588.2	3836
588.4	3819
588.6	3803
588.8	3790
589.0	3783
589.2	3770
589.4	3753
589.6	3737
589.8	3724
590.0	3713
590.2	3697
590.4	3677
590.6	3658
590.8	3641
591.0	3625
591.2	3611
591.4	3598
591.6	3578
591.8	3559
592.0	3545
592.2	3526
592.4	3510
592.6	3501
592.8	3483
593.0	3465
593.2	3451
593.4	3440
593.6	3431
593.8	3420
594.0	3406
594.2	3388
594.4	3369
594.6	3354
594.8	3340
595.0	3324
595.2	3312
595.4	3298
595.6	3287
595.8	3273
596.0	3256
596.2	3238
596.4	3220
596.6	3204
596.8	3191
597.0	3180
597.2	3166
597.4	3153
597.6	3136
597.8	3123
598.0	3113
598.2	3103
598.4	3092
598.6	3074
598.8	3053
599.0	3038
599.2	3027
599.4	3013
599.6	3000
599.8	2982
600.0	2972
600.2	2962
600.4	2950
600.6	2932
600.8	2912
601.0	2896
601.2	2885
601.4	2874
601.6	2863
601.8	2847
602.0	2831
602.2	2817
602.4	2801
602.6	2789
602.8	2773
603.0	2762
603.2	2751
603.4	2736
603.6	2725
603.8	2708
604.0	2692
604.2	2681
604.4	2668
604.6	2654
604.8	2647
605.0	2632
605.2	2621
605.4	2609
605.6	2592
605.8	2579
606.0	2567
606.2	2551
606.4	2538
606.6	2526
606.8	2512
607.0	2502
607.2	2491
607.4	2477
607.6	2467
607.8	2455
608.0	2441
608.2	2424
608.4	2410
608.6	2397
608.8	2387
609.0	2375
609.2	2367
609.4	2353
609.6	2341
609.8	2329
610.0	2315
610.2	2301
610.4	2289
610.6	2280
610.8	2270
611.0	2255
611.2	2241
611.4	2224
611.6	2207
611.8	2197
612.0	2188
612.2	2180
612.4	2170
612.6	2161
612.8	2150
613.0	2135
613.2	2124
613.4	2112
613.6	2100
613.8	2091
614.0	2080
614.2	2067
614.4	2054
614.6	2040
614.8	2028
615.0	2018
615.2	2009
615.4	1998
615.6	1984
615.8	1969
616.0	1958
616.2	1947
616.4	1937
616.6	1929
616.8	1919
617.0	1908
617.2	1900
617.4	1891
617.6	1878
617.8	1867
618.0	1852
618.2	1839
618.4	1830
618.6	1822
618.8	1813
619.0	1802
619.2	1789
619.4	1774
619.6	1763
619.8	1755
620.0	1745
620.2	1736
620.4	1729
620.6	1717
620.8	1707
621.0	1700
621.2	1691
621.4	1683
621.6	1674
621.8	1665
622.0	1655
622.2	1648
622.4	1638
622.6	1625
622.8	1611
623.0	1598
623.2	1587
623.4	1578
623.6	1570
623.8	1560
624.0	1548
624.2	1538
624.4	1528
624.6	1518
624.8	1512
625.0	1502
625.2	1494
625.4	1485
625.6	1477
625.8	1469
626.0	1460
626.2	1450
626.4	1440
626.6	1431
626.8	1421
627.0	1411
627.2	1400
627.4	1392
627.6	1387
627.8	1381
628.0	1370
628.2	1362
628.4	1352
628.6	1340
628.8	1334
629.0	1325
629.2	1317
629.4	1312
629.6	1302
629.8	1291
630.0	1282
630.2	1274
630.4	1267
630.6	1259
630.8	1252
631.0	1243
631.2	1236
631.4	1227
631.6	1218
631.8	1212
632.0	1205
632.2	1198
632.4	1190
632.6	1180
632.8	1172
633.0	1165
633.2	1158
633.4	1152
633.6	1144
633.8	1139
634.0	1131
634.2	1124
634.4	1117
634.6	1108
634.8	1099
635.0	1096
635.2	1090
635.4	1083
635.6	1075
635.8	1067
636.0	1060
636.2	1055
636.4	1048
636.6	1039
636.8	1032
637.0	1025
637.2	1020
637.4	1014
637.6	1006
637.8	999.3
638.0	993.3
638.2	986.5
638.4	981.0
638.6	971.4
638.8	963.9
639.0	958.1
639.2	953.2
639.4	947.4
639.6	941.9
639.8	935.7
640.0	931.1
640.2	925.9
640.4	919.4
640.6	911.8
640.8	905.6
641.0	899.4
641.2	893.3
641.4	888.1
641.6	881.4
641.8	875.6
642.0	870.2
642.2	863.1
642.4	859.1
642.6	853.8
642.8	847.9
643.0	842.6
643.2	837.1
643.4	832.1
643.6	829.3
643.8	824.7
644.0	819.3
644.2	813.3
644.4	806.0
644.6	798.7
644.8	793.3
645.0	790.0
645.2	784.9
645.4	779.3
645.6	771.5
645.8	763.9
646.0	758.0
646.2	756.4
646.4	752.0
646.6	747.1
646.8	740.2
647.0	735.3
647.2	728.6
647.4	725.1
647.6	720.9
647.8	715.2
648.0	710.5
648.2	705.9
648.4	698.5
648.6	694.9
648.8	691.1
649.0	687.5
649.2	683.3
649.4	678.8
649.6	673.4
649.8	669.9
650.0	665.2
650.2	660.7
650.4	654.7
650.6	650.2
650.8	647.1
651.0	642.2
651.2	638.0
651.4	633.5
651.6	630.8
651.8	626.2
652.0	622.9
652.2	618.3
652.4	615.3
652.6	609.2
652.8	605.0
653.0	599.4
653.2	593.8
653.4	590.7
653.6	589.4
653.8	584.5
654.0	579.6
654.2	574.8
654.4	570.4
654.6	565.3
654.8	562.1
655.0	559.5
655.2	555.1
655.4	552.7
655.6	550.8
655.8	545.6
656.0	542.0
656.2	537.6
656.4	532.7
656.6	529.9
656.8	527.0
657.0	523.2
657.2	520.2
657.4	515.9
657.6	511.4
657.8	506.9
658.0	504.0
658.2	500.4
658.4	497.4
658.6	494.3
658.8	491.6
659.0	488.1
659.2	486.1
659.4	482.3
659.6	479.4
659.8	475.4
660.0	471.9
660.2	468.3
660.4	465.2
660.6	461.4
660.8	458.2
661.0	453.8
661.2	449.4
661.4	446.9
661.6	444.1
661.8	441.8
662.0	438.7
662.2	435.9
662.4	431.8
662.6	428.7
662.8	425.2
663.0	422.4
663.2	419.7
663.4	417.5
663.6	413.9
663.8	410.3
664.0	408.0
664.2	404.8
664.4	402.2
664.6	399.4
664.8	395.9
665.0	392.4
665.2	390.6
665.4	388.8
665.6	387.3
665.8	385.8
666.0	381.2
666.2	376.5
666.4	372.5
666.6	370.8
666.8	369.1
667.0	367.6
667.2	363.3
667.4	359.1
667.6	355.9
667.8	354.8
668.0	353.5
668.2	351.9
668.4	349.5
668.6	346.7
668.8	343.9
669.0	341.2
669.2	339.2
669.4	336.0
669.6	333.7
669.8	330.8
670.0	327.7
670.2	325.7
670.4	324.0
670.6	322.3
670.8	320.6
671.0	316.0
671.2	312.6
671.4	309.9
671.6	307.8
671.8	306.9
672.0	305.5
672.2	302.2
672.4	300.3
672.6	297.5
672.8	296.2
673.0	295.0
673.2	292.6
673.4	290.2
673.6	287.9
673.8	285.9
674.0	284.8
674.2	284.1
674.4	280.8
674.6	278.3
674.8	275.2
675.0	272.0
675.2	270.1
675.4	269.4
675.6	267.2
675.8	264.9
676.0	262.6
676.2	260.3
676.4	258.8
676.6	257.7
676.8	256.4
677.0	254.7
677.2	251.9
677.4	251.2
677.6	248.8
677.8	247.2
678.0	245.3
678.2	243.6
678.4	241.4
678.6	239.8
678.8	237.1
679.0	234.9
679.2	233.0
679.4	231.3
679.6	230.1
679.8	228.9
680.0	227.0
680.2	224.7
680.4	224.0
680.6	221.4
680.8	219.1
681.0	217.9
681.2	216.0
681.4	214.6
681.6	214.3
681.8	212.7
682.0	210.4
682.2	207.9
682.4	205.9
682.6	204.5
682.8	203.2
683.0	202.2
683.2	200.1
683.4	198.9
683.6	198.5
683.8	196.9
684.0	194.7
684.2	192.8
684.4	190.7
684.6	190.1
684.8	189.4
685.0	188.0
685.2	186.7
685.4	185.1
685.6	183.2
685.8	181.5
686.0	180.3
686.2	178.9
686.4	177.8
686.6	177.2
686.8	175.8
687.0	174.3
687.2	173.2
687.4	171.6
687.6	169.7
687.8	168.8
688.0	167.1
688.2	165.6
688.4	164.3
688.6	163.0
688.8	161.8
689.0	161.1
689.2	160.6
689.4	160.0
689.6	159.3
689.8	157.6
690.0	156.9
690.2	155.2
690.4	153.9
690.6	153.5
690.8	152.4
691.0	150.7
691.2	150.2
691.4	148.7
691.6	147.2
691.8	145.7
692.0	143.8
692.2	142.3
692.4	141.6
692.6	141.6
692.8	142.0
693.0	141.0
693.2	139.7
693.4	137.9
693.6	136.5
693.8	135.5
694.0	134.2
694.2	132.8
694.4	132.0
694.6	131.4
694.8	131.4
695.0	131.2
695.2	129.3
695.4	128.2
695.6	127.6
695.8	125.9
696.0	124.1
696.2	122.9
696.4	121.7
696.6	121.4
696.8	121.7
697.0	120.8
697.2	119.4
697.4	118.8
697.6	118.0
697.8	118.0
698.0	117.8
698.2	117.2
698.4	116.3
698.6	115.3
698.8	114.6
699.0	114.4
699.2	114.1
699.4	113.5
699.6	112.2
699.8	111.1
700.0	110.5
700.2	110.1
700.4	109.5
700.6	108.2
700.8	107.1
701.0	106.3
701.2	105.9
701.4	105.1
701.6	104.4
701.8	103.7
702.0	103.4
702.2	102.5
702.4	102.0
702.6	101.0
702.8	100.6
703.0	100.1
703.2	98.95
703.4	97.68
703.6	96.67
703.8	95.86
704.0	96.15
704.2	96.03
704.4	95.97
704.6	95.19
704.8	94.62
705.0	93.12
705.2	92.38
705.4	91.66
705.6	91.40
705.8	91.04
706.0	91.28
706.2	90.53
706.4	89.59
706.6	88.52
706.8	86.89
707.0	86.61
707.2	86.62
707.4	86.33
707.6	85.76
707.8	85.38
708.0	84.33
708.2	83.96
708.4	83.43
708.6	82.63
708.8	82.11
709.0	81.81
709.2	80.93
709.4	79.85
709.6	79.23
709.8	79.10
710.0	78.83
710.2	78.48
710.4	77.99
710.6	77.05
710.8	76.66
711.0	75.95
711.2	75.21
711.4	74.63
711.6	74.36
711.8	73.70
712.0	73.28
712.2	72.53
712.4	72.38
712.6	72.52
712.8	72.79
713.0	72.68
713.2	72.21
713.4	71.54
713.6	70.37
713.8	69.53
714.0	68.97
714.2	68.27
714.4	67.52
714.6	66.81
714.8	65.66
715.0	65.33
715.2	65.43
715.4	64.91
715.6	64.37
715.8	63.94
716.0	63.15
716.2	63.16
716.4	62.70
716.6	61.75
716.8	61.52
717.0	61.46
717.2	61.52
717.4	61.36
717.6	60.87
717.8	60.19
718.0	59.51
718.2	58.59
718.4	57.92
718.6	57.38
718.8	57.14
719.0	57.02
719.2	56.53
719.4	55.97
719.6	55.25
719.8	55.00
720.0	54.84
720.2	54.52
720.4	54.14
720.6	53.41
720.8	52.74
721.0	52.50
721.2	52.94
721.4	52.51
721.6	52.08
721.8	51.45
722.0	50.56
722.2	50.26
722.4	50.61
722.6	50.66
722.8	50.04
723.0	49.34
723.2	47.96
723.4	47.59
723.6	47.50
723.8	47.73
724.0	47.70
724.2	47.56
724.4	46.64
724.6	46.18
724.8	45.46
725.0	44.91
725.2	44.83
