Sample:	'20211010A(EM)
File name:	G-CDs 4.FDS
Run date:	'15:07:04, 06/10/2023
Operator:	Administrator
Comment:	'

Instrument
Model:	F-4700 FL Spectrophotometer
Serial number:	2019-001
ROM Version:	5J24010 00

Instrument parameters
Measurement type:	Wavelength scan
Scan mode:	Emission
Data mode:	Fluorescence
EX WL:	400.0 nm
EM  Start WL:	420.0 nm
EM  End WL:	800.0 nm
Scan speed:	1200 nm/min
Delay:	0.0 s
EX Slit:	10.0 nm
EM Slit:	10.0 nm
PMT Voltage:	460 V
Response:	0.002 s
Corrected spectra:	Off
Shutter control:	On

Processing performed
Savitsky-Golay smoothed
Smoothing order:	3
Number of points:	7
Number of times:	1

Peak integration
Integration method:	Rectangular
Sensitivity:	1
Threshold:	1.000

Peaks
No.	Start(nm)	Apex(nm)	End(nm)	Height(Data)	Valley(nm)	Valley(Data)
1	420.0	537.8	758.2	9817	758.2	12.74
2	758.2	759.0	779.4	13.82	779.4	6.788

Data points
nm	Data
420.0	72.77
420.2	73.35
420.4	73.51
420.6	73.64
420.8	74.46
421.0	75.99
421.2	77.02
421.4	77.93
421.6	78.59
421.8	78.02
422.0	78.25
422.2	78.67
422.4	79.23
422.6	79.24
422.8	80.42
423.0	80.91
423.2	81.95
423.4	82.71
423.6	83.46
423.8	83.72
424.0	84.35
424.2	85.06
424.4	85.91
424.6	86.32
424.8	87.00
425.0	87.64
425.2	87.91
425.4	88.19
425.6	88.38
425.8	88.29
426.0	88.54
426.2	89.38
426.4	90.39
426.6	90.67
426.8	91.44
427.0	92.03
427.2	92.57
427.4	93.30
427.6	94.33
427.8	94.98
428.0	95.97
428.2	96.03
428.4	95.54
428.6	95.97
428.8	96.71
429.0	97.88
429.2	99.00
429.4	99.18
429.6	99.42
429.8	100.1
430.0	100.6
430.2	101.1
430.4	101.2
430.6	101.6
430.8	102.8
431.0	103.4
431.2	104.3
431.4	104.7
431.6	104.5
431.8	105.0
432.0	106.1
432.2	107.2
432.4	108.3
432.6	108.6
432.8	107.9
433.0	107.8
433.2	108.9
433.4	109.8
433.6	111.6
433.8	112.6
434.0	112.4
434.2	112.8
434.4	113.8
434.6	114.3
434.8	115.4
435.0	115.8
435.2	116.0
435.4	116.5
435.6	117.8
435.8	118.1
436.0	118.6
436.2	119.8
436.4	121.0
436.6	121.8
436.8	123.1
437.0	123.2
437.2	124.3
437.4	125.4
437.6	126.2
437.8	126.0
438.0	126.7
438.2	127.6
438.4	129.2
438.6	129.6
438.8	129.8
439.0	130.6
439.2	131.8
439.4	132.9
439.6	134.4
439.8	134.6
440.0	134.5
440.2	135.8
440.4	136.9
440.6	137.7
440.8	139.2
441.0	139.8
441.2	140.7
441.4	141.6
441.6	142.4
441.8	142.5
442.0	143.1
442.2	144.0
442.4	144.6
442.6	145.0
442.8	145.6
443.0	146.8
443.2	148.3
443.4	149.3
443.6	149.8
443.8	150.9
444.0	151.1
444.2	152.3
444.4	152.6
444.6	152.7
444.8	153.7
445.0	155.3
445.2	156.4
445.4	157.5
445.6	158.0
445.8	158.6
446.0	159.7
446.2	160.5
446.4	160.9
446.6	161.0
446.8	161.9
447.0	162.2
447.2	163.0
447.4	163.3
447.6	163.9
447.8	164.4
448.0	166.0
448.2	166.5
448.4	166.8
448.6	167.5
448.8	168.4
449.0	167.9
449.2	168.6
449.4	168.3
449.6	168.1
449.8	168.2
450.0	168.8
450.2	169.1
450.4	170.7
450.6	171.0
450.8	171.7
451.0	172.1
451.2	172.1
451.4	172.1
451.6	173.2
451.8	172.9
452.0	173.5
452.2	174.4
452.4	174.1
452.6	174.7
452.8	174.8
453.0	174.4
453.2	175.2
453.4	177.1
453.6	178.0
453.8	178.6
454.0	176.3
454.2	175.9
454.4	176.1
454.6	177.8
454.8	178.1
455.0	178.5
455.2	177.8
455.4	178.7
455.6	181.0
455.8	183.2
456.0	184.5
456.2	185.4
456.4	185.6
456.6	185.4
456.8	186.2
457.0	186.0
457.2	187.2
457.4	187.9
457.6	188.8
457.8	190.3
458.0	191.8
458.2	192.2
458.4	194.5
458.6	195.7
458.8	195.9
459.0	196.8
459.2	196.8
459.4	198.1
459.6	201.7
459.8	204.7
460.0	206.0
460.2	206.8
460.4	207.8
460.6	210.4
460.8	213.7
461.0	216.1
461.2	216.0
461.4	216.2
461.6	218.1
461.8	221.4
462.0	224.3
462.2	228.1
462.4	230.0
462.6	232.1
462.8	235.3
463.0	238.3
463.2	241.2
463.4	244.3
463.6	248.0
463.8	249.8
464.0	253.1
464.2	255.4
464.4	259.6
464.6	263.9
464.8	270.0
465.0	274.1
465.2	277.9
465.4	281.3
465.6	284.2
465.8	286.4
466.0	290.0
466.2	294.8
466.4	298.6
466.6	304.7
466.8	308.8
467.0	314.1
467.2	319.7
467.4	326.4
467.6	331.2
467.8	337.4
468.0	340.9
468.2	346.1
468.4	351.7
468.6	360.0
468.8	366.4
469.0	372.9
469.2	377.9
469.4	382.3
469.6	389.0
469.8	397.0
470.0	404.2
470.2	411.8
470.4	418.6
470.6	423.2
470.8	429.5
471.0	437.1
471.2	444.2
471.4	453.1
471.6	460.6
471.8	467.6
472.0	475.0
472.2	482.1
472.4	488.1
472.6	497.5
472.8	506.4
473.0	515.8
473.2	524.2
473.4	531.0
473.6	538.6
473.8	548.6
474.0	558.3
474.2	568.1
474.4	577.5
474.6	587.3
474.8	597.0
475.0	605.5
475.2	612.9
475.4	622.8
475.6	635.2
475.8	647.0
476.0	658.4
476.2	667.6
476.4	675.2
476.6	685.0
476.8	697.1
477.0	705.5
477.2	714.3
477.4	725.4
477.6	734.7
477.8	744.9
478.0	757.2
478.2	767.9
478.4	779.9
478.6	792.6
478.8	805.9
479.0	819.6
479.2	832.2
479.4	842.8
479.6	854.9
479.8	864.1
480.0	878.0
480.2	890.5
480.4	902.7
480.6	914.0
480.8	926.8
481.0	940.2
481.2	953.1
481.4	965.1
481.6	977.7
481.8	988.9
482.0	1001
482.2	1017
482.4	1031
482.6	1044
482.8	1061
483.0	1076
483.2	1089
483.4	1104
483.6	1118
483.8	1131
484.0	1149
484.2	1166
484.4	1181
484.6	1197
484.8	1213
485.0	1231
485.2	1253
485.4	1270
485.6	1284
485.8	1297
486.0	1312
486.2	1328
486.4	1348
486.6	1367
486.8	1383
487.0	1402
487.2	1424
487.4	1442
487.6	1463
487.8	1484
488.0	1502
488.2	1522
488.4	1542
488.6	1563
488.8	1585
489.0	1609
489.2	1635
489.4	1657
489.6	1680
489.8	1705
490.0	1727
490.2	1753
490.4	1779
490.6	1802
490.8	1828
491.0	1854
491.2	1877
491.4	1907
491.6	1930
491.8	1956
492.0	1984
492.2	2014
492.4	2043
492.6	2076
492.8	2098
493.0	2130
493.2	2159
493.4	2189
493.6	2220
493.8	2250
494.0	2276
494.2	2312
494.4	2347
494.6	2381
494.8	2413
495.0	2447
495.2	2480
495.4	2515
495.6	2552
495.8	2589
496.0	2625
496.2	2665
496.4	2700
496.6	2734
496.8	2771
497.0	2808
497.2	2841
497.4	2880
497.6	2915
497.8	2956
498.0	2998
498.2	3040
498.4	3074
498.6	3119
498.8	3158
499.0	3201
499.2	3240
499.4	3287
499.6	3332
499.8	3383
500.0	3435
500.2	3484
500.4	3522
500.6	3572
500.8	3615
501.0	3661
501.2	3712
501.4	3761
501.6	3800
501.8	3846
502.0	3890
502.2	3932
502.4	3978
502.6	4026
502.8	4072
503.0	4123
503.2	4175
503.4	4228
503.6	4279
503.8	4334
504.0	4384
504.2	4435
504.4	4477
504.6	4529
504.8	4570
505.0	4623
505.2	4675
505.4	4731
505.6	4777
505.8	4835
506.0	4879
506.2	4925
506.4	4977
506.6	5034
506.8	5087
507.0	5149
507.2	5200
507.4	5250
507.6	5297
507.8	5345
508.0	5394
508.2	5444
508.4	5495
508.6	5548
508.8	5596
509.0	5646
509.2	5698
509.4	5751
509.6	5804
509.8	5858
510.0	5905
510.2	5959
510.4	6005
510.6	6054
510.8	6110
511.0	6169
511.2	6224
511.4	6280
511.6	6325
511.8	6365
512.0	6412
512.2	6458
512.4	6508
512.6	6559
512.8	6606
513.0	6648
513.2	6697
513.4	6747
513.6	6799
513.8	6847
514.0	6896
514.2	6942
514.4	6991
514.6	7038
514.8	7081
515.0	7121
515.2	7163
515.4	7211
515.6	7258
515.8	7311
516.0	7366
516.2	7416
516.4	7456
516.6	7498
516.8	7533
517.0	7573
517.2	7618
517.4	7662
517.6	7700
517.8	7737
518.0	7773
518.2	7820
518.4	7874
518.6	7933
518.8	7976
519.0	8014
519.2	8039
519.4	8066
519.6	8092
519.8	8132
520.0	8171
520.2	8216
520.4	8264
520.6	8314
520.8	8349
521.0	8376
521.2	8399
521.4	8427
521.6	8473
521.8	8526
522.0	8561
522.2	8596
522.4	8621
522.6	8643
522.8	8671
523.0	8703
523.2	8732
523.4	8772
523.6	8803
523.8	8827
524.0	8853
524.2	8887
524.4	8924
524.6	8964
524.8	8994
525.0	9010
525.2	9027
525.4	9051
525.6	9081
525.8	9112
526.0	9137
526.2	9154
526.4	9168
526.6	9189
526.8	9216
527.0	9250
527.2	9284
527.4	9310
527.6	9327
527.8	9347
528.0	9362
528.2	9381
528.4	9399
528.6	9407
528.8	9421
529.0	9441
529.2	9454
529.4	9473
529.6	9490
529.8	9505
530.0	9518
530.2	9541
530.4	9554
530.6	9576
530.8	9591
531.0	9603
531.2	9622
531.4	9636
531.6	9645
531.8	9648
532.0	9652
532.2	9658
532.4	9675
532.6	9690
532.8	9700
533.0	9708
533.2	9719
533.4	9724
533.6	9731
533.8	9736
534.0	9731
534.2	9740
534.4	9748
534.6	9750
534.8	9757
535.0	9755
535.2	9760
535.4	9762
535.6	9769
535.8	9770
536.0	9772
536.2	9779
536.4	9787
536.6	9788
536.8	9787
537.0	9779
537.2	9786
537.4	9799
537.6	9811
537.8	9817
538.0	9801
538.2	9789
538.4	9778
538.6	9776
538.8	9783
539.0	9790
539.2	9781
539.4	9779
539.6	9765
539.8	9766
540.0	9761
540.2	9758
540.4	9745
540.6	9737
540.8	9725
541.0	9723
541.2	9726
541.4	9724
541.6	9719
541.8	9707
542.0	9686
542.2	9672
542.4	9669
542.6	9659
542.8	9647
543.0	9630
543.2	9612
543.4	9610
543.6	9614
543.8	9608
544.0	9584
544.2	9561
544.4	9543
544.6	9539
544.8	9544
545.0	9531
545.2	9506
545.4	9484
545.6	9462
545.8	9445
546.0	9431
546.2	9421
546.4	9410
546.6	9390
546.8	9382
547.0	9368
547.2	9347
547.4	9329
547.6	9308
547.8	9285
548.0	9287
548.2	9274
548.4	9254
548.6	9219
548.8	9201
549.0	9182
549.2	9178
549.4	9171
549.6	9159
549.8	9135
550.0	9117
550.2	9096
550.4	9084
550.6	9062
550.8	9031
551.0	8999
551.2	8974
551.4	8963
551.6	8948
551.8	8926
552.0	8902
552.2	8883
552.4	8870
552.6	8851
552.8	8825
553.0	8800
553.2	8776
553.4	8764
553.6	8750
553.8	8731
554.0	8714
554.2	8690
554.4	8667
554.6	8640
554.8	8609
555.0	8582
555.2	8558
555.4	8537
555.6	8518
555.8	8491
556.0	8461
556.2	8431
556.4	8409
556.6	8387
556.8	8371
557.0	8352
557.2	8321
557.4	8290
557.6	8269
557.8	8245
558.0	8222
558.2	8196
558.4	8169
558.6	8140
558.8	8117
559.0	8091
559.2	8063
559.4	8044
559.6	8030
559.8	8010
560.0	7992
560.2	7960
560.4	7924
560.6	7884
560.8	7858
561.0	7833
561.2	7815
561.4	7787
561.6	7765
561.8	7735
562.0	7716
562.2	7694
562.4	7665
562.6	7638
562.8	7612
563.0	7583
563.2	7555
563.4	7526
563.6	7499
563.8	7481
564.0	7458
564.2	7430
564.4	7400
564.6	7364
564.8	7331
565.0	7306
565.2	7289
565.4	7264
565.6	7246
565.8	7218
566.0	7184
566.2	7157
566.4	7137
566.6	7111
566.8	7091
567.0	7065
567.2	7033
567.4	7007
567.6	6977
567.8	6944
568.0	6927
568.2	6902
568.4	6884
568.6	6859
568.8	6826
569.0	6788
569.2	6759
569.4	6726
569.6	6704
569.8	6677
570.0	6655
570.2	6620
570.4	6588
570.6	6562
570.8	6538
571.0	6513
571.2	6493
571.4	6459
571.6	6430
571.8	6406
572.0	6380
572.2	6349
572.4	6328
572.6	6304
572.8	6283
573.0	6266
573.2	6242
573.4	6215
573.6	6188
573.8	6157
574.0	6123
574.2	6100
574.4	6075
574.6	6055
574.8	6029
575.0	6003
575.2	5968
575.4	5944
575.6	5918
575.8	5891
576.0	5863
576.2	5835
576.4	5811
576.6	5799
576.8	5780
577.0	5755
577.2	5719
577.4	5686
577.6	5670
577.8	5655
578.0	5638
578.2	5618
578.4	5579
578.6	5550
578.8	5527
579.0	5505
579.2	5490
579.4	5466
579.6	5438
579.8	5424
580.0	5399
580.2	5374
580.4	5350
580.6	5318
580.8	5294
581.0	5276
581.2	5250
581.4	5219
581.6	5183
581.8	5156
582.0	5133
582.2	5111
582.4	5095
582.6	5077
582.8	5045
583.0	5024
583.2	5001
583.4	4976
583.6	4954
583.8	4942
584.0	4917
584.2	4897
584.4	4875
584.6	4847
584.8	4820
585.0	4800
585.2	4783
585.4	4772
585.6	4756
585.8	4734
586.0	4704
586.2	4674
586.4	4648
586.6	4631
586.8	4610
587.0	4592
587.2	4570
587.4	4549
587.6	4532
587.8	4508
588.0	4488
588.2	4466
588.4	4439
588.6	4417
588.8	4401
589.0	4376
589.2	4358
589.4	4331
589.6	4301
589.8	4277
590.0	4260
590.2	4248
590.4	4238
590.6	4218
590.8	4200
591.0	4170
591.2	4151
591.4	4130
591.6	4114
591.8	4092
592.0	4078
592.2	4054
592.4	4038
592.6	4016
592.8	3999
593.0	3977
593.2	3963
593.4	3939
593.6	3919
593.8	3901
594.0	3884
594.2	3871
594.4	3855
594.6	3828
594.8	3807
595.0	3787
595.2	3766
595.4	3750
595.6	3726
595.8	3707
596.0	3687
596.2	3670
596.4	3652
596.6	3634
596.8	3616
597.0	3601
597.2	3577
597.4	3561
597.6	3541
597.8	3525
598.0	3509
598.2	3494
598.4	3468
598.6	3447
598.8	3427
599.0	3410
599.2	3398
599.4	3392
599.6	3370
599.8	3350
600.0	3334
600.2	3315
600.4	3302
600.6	3284
600.8	3267
601.0	3252
601.2	3234
601.4	3220
601.6	3201
601.8	3176
602.0	3154
602.2	3136
602.4	3119
602.6	3113
602.8	3104
603.0	3085
603.2	3059
603.4	3041
603.6	3023
603.8	3012
604.0	2994
604.2	2973
604.4	2958
604.6	2944
604.8	2928
605.0	2913
605.2	2887
605.4	2871
605.6	2861
605.8	2846
606.0	2834
606.2	2819
606.4	2804
606.6	2788
606.8	2768
607.0	2752
607.2	2736
607.4	2725
607.6	2715
607.8	2699
608.0	2680
608.2	2664
608.4	2645
608.6	2628
608.8	2610
609.0	2594
609.2	2578
609.4	2563
609.6	2548
609.8	2536
610.0	2522
610.2	2511
610.4	2496
610.6	2480
610.8	2464
611.0	2448
611.2	2437
611.4	2423
611.6	2405
611.8	2389
612.0	2374
612.2	2354
612.4	2344
612.6	2334
612.8	2320
613.0	2310
613.2	2299
613.4	2276
613.6	2258
613.8	2243
614.0	2228
614.2	2220
614.4	2214
614.6	2202
614.8	2186
615.0	2169
615.2	2150
615.4	2139
615.6	2130
615.8	2118
616.0	2104
616.2	2091
616.4	2076
616.6	2067
616.8	2056
617.0	2041
617.2	2028
617.4	2015
617.6	2001
617.8	1988
618.0	1974
618.2	1962
618.4	1952
618.6	1944
618.8	1935
619.0	1922
619.2	1907
619.4	1894
619.6	1880
619.8	1865
620.0	1852
620.2	1843
620.4	1833
620.6	1824
620.8	1813
621.0	1804
621.2	1791
621.4	1780
621.6	1769
621.8	1759
622.0	1747
622.2	1736
622.4	1723
622.6	1709
622.8	1698
623.0	1689
623.2	1678
623.4	1668
623.6	1657
623.8	1643
624.0	1629
624.2	1616
624.4	1605
624.6	1601
624.8	1594
625.0	1583
625.2	1571
625.4	1560
625.6	1549
625.8	1541
626.0	1529
626.2	1516
626.4	1502
626.6	1493
626.8	1484
627.0	1476
627.2	1466
627.4	1454
627.6	1445
627.8	1439
628.0	1431
628.2	1423
628.4	1413
628.6	1403
628.8	1393
629.0	1383
629.2	1373
629.4	1363
629.6	1352
629.8	1344
630.0	1332
630.2	1322
630.4	1313
630.6	1305
630.8	1298
631.0	1291
631.2	1280
631.4	1271
631.6	1262
631.8	1254
632.0	1248
632.2	1240
632.4	1232
632.6	1226
632.8	1219
633.0	1211
633.2	1207
633.4	1199
633.6	1190
633.8	1181
634.0	1170
634.2	1161
634.4	1154
634.6	1147
634.8	1140
635.0	1134
635.2	1126
635.4	1116
635.6	1109
635.8	1099
636.0	1091
636.2	1084
636.4	1079
636.6	1073
636.8	1070
637.0	1060
637.2	1049
637.4	1041
637.6	1036
637.8	1030
638.0	1027
638.2	1020
638.4	1009
638.6	1003
638.8	995.8
639.0	988.3
639.2	984.6
639.4	980.2
639.6	974.0
639.8	966.8
640.0	959.7
640.2	951.1
640.4	943.9
640.6	939.7
640.8	936.8
641.0	929.1
641.2	924.2
641.4	913.9
641.6	907.0
641.8	901.1
642.0	893.9
642.2	884.5
642.4	878.9
642.6	871.0
642.8	867.0
643.0	862.7
643.2	857.2
643.4	849.9
643.6	845.5
643.8	840.2
644.0	835.1
644.2	830.2
644.4	824.4
644.6	819.2
644.8	814.3
645.0	809.5
645.2	803.2
645.4	796.0
645.6	787.5
645.8	781.6
646.0	775.8
646.2	772.7
646.4	768.6
646.6	765.1
646.8	758.9
647.0	752.7
647.2	745.3
647.4	741.1
647.6	735.7
647.8	731.9
648.0	725.9
648.2	722.9
648.4	718.5
648.6	714.8
648.8	707.8
649.0	699.7
649.2	693.6
649.4	690.2
649.6	687.8
649.8	685.3
650.0	680.4
650.2	674.6
650.4	669.7
650.6	663.1
650.8	658.5
651.0	655.1
651.2	649.5
651.4	645.2
651.6	638.1
651.8	631.7
652.0	628.3
652.2	625.1
652.4	621.3
652.6	619.1
652.8	614.9
653.0	610.8
653.2	607.1
653.4	601.2
653.6	596.1
653.8	591.7
654.0	587.1
654.2	583.3
654.4	579.7
654.6	574.7
654.8	571.2
655.0	565.7
655.2	561.2
655.4	559.5
655.6	557.9
655.8	554.4
656.0	549.2
656.2	542.8
656.4	538.4
656.6	534.8
656.8	531.9
657.0	528.5
657.2	524.0
657.4	520.9
657.6	517.2
657.8	511.3
658.0	508.2
658.2	505.0
658.4	501.3
658.6	495.8
658.8	491.4
659.0	487.8
659.2	487.0
659.4	486.5
659.6	483.4
659.8	476.7
660.0	472.8
660.2	468.5
660.4	465.0
660.6	463.0
660.8	460.1
661.0	456.5
661.2	452.5
661.4	449.4
661.6	445.5
661.8	442.4
662.0	440.0
662.2	438.2
662.4	435.4
662.6	432.8
662.8	429.1
663.0	424.9
663.2	420.7
663.4	416.4
663.6	414.4
663.8	411.1
664.0	409.6
664.2	405.9
664.4	401.7
664.6	396.2
664.8	392.6
665.0	390.3
665.2	390.4
665.4	388.6
665.6	386.2
665.8	382.7
666.0	378.3
666.2	374.0
666.4	371.6
666.6	370.4
666.8	368.0
667.0	364.7
667.2	361.7
667.4	358.0
667.6	355.5
667.8	354.9
668.0	353.2
668.2	351.7
668.4	349.1
668.6	345.7
668.8	342.3
669.0	340.4
669.2	338.3
669.4	336.7
669.6	333.3
669.8	328.7
670.0	324.4
670.2	321.9
670.4	320.8
670.6	319.3
670.8	316.9
671.0	313.8
671.2	311.1
671.4	308.3
671.6	306.9
671.8	305.2
672.0	303.0
672.2	300.3
672.4	298.6
672.6	294.6
672.8	291.5
673.0	288.5
673.2	285.9
673.4	284.5
673.6	282.2
673.8	280.1
674.0	279.0
674.2	276.7
674.4	273.9
674.6	273.4
674.8	271.5
675.0	270.9
675.2	270.0
675.4	266.8
675.6	263.0
675.8	260.8
676.0	258.9
676.2	257.5
676.4	255.7
676.6	252.8
676.8	250.8
677.0	248.1
677.2	246.0
677.4	245.0
677.6	243.3
677.8	241.2
678.0	240.8
678.2	239.0
678.4	237.8
678.6	236.0
678.8	233.1
679.0	231.0
679.2	229.2
679.4	226.4
679.6	225.3
679.8	223.7
680.0	221.6
680.2	220.6
680.4	218.3
680.6	215.8
680.8	214.4
681.0	212.5
681.2	210.7
681.4	210.3
681.6	208.9
681.8	208.5
682.0	207.5
682.2	206.0
682.4	204.3
682.6	203.3
682.8	200.7
683.0	199.3
683.2	197.8
683.4	195.7
683.6	194.8
683.8	192.9
684.0	191.3
684.2	189.7
684.4	188.5
684.6	187.8
684.8	187.7
685.0	185.6
685.2	183.8
685.4	181.4
685.6	178.6
685.8	176.6
686.0	175.0
686.2	173.6
686.4	172.8
686.6	172.7
686.8	171.7
687.0	169.9
687.2	169.1
687.4	168.1
687.6	167.3
687.8	166.3
688.0	164.8
688.2	162.6
688.4	160.8
688.6	159.5
688.8	159.1
689.0	158.5
689.2	157.2
689.4	155.0
689.6	154.1
689.8	153.6
690.0	153.8
690.2	153.3
690.4	151.6
690.6	148.9
690.8	147.5
691.0	146.7
691.2	145.8
691.4	143.3
691.6	141.8
691.8	140.5
692.0	140.6
692.2	141.0
692.4	140.4
692.6	138.4
692.8	137.1
693.0	135.8
693.2	135.0
693.4	134.3
693.6	133.1
693.8	132.4
694.0	131.6
694.2	130.5
694.4	129.7
694.6	129.7
694.8	129.0
695.0	128.3
695.2	127.4
695.4	125.5
695.6	124.3
695.8	123.1
696.0	122.2
696.2	121.3
696.4	121.3
696.6	120.8
696.8	119.8
697.0	119.2
697.2	118.7
697.4	118.1
697.6	117.5
697.8	117.1
698.0	116.3
698.2	115.8
698.4	114.4
698.6	112.9
698.8	111.4
699.0	110.2
699.2	109.6
699.4	109.0
699.6	108.3
699.8	107.8
700.0	107.3
700.2	106.6
700.4	106.5
700.6	106.5
700.8	105.9
701.0	104.7
701.2	103.1
701.4	102.3
701.6	102.6
701.8	103.1
702.0	102.4
702.2	101.4
702.4	99.76
702.6	99.14
702.8	98.81
703.0	98.34
703.2	98.34
703.4	97.55
703.6	96.51
703.8	95.91
704.0	94.96
704.2	93.83
704.4	93.90
704.6	93.00
704.8	91.88
705.0	90.85
705.2	90.13
705.4	89.86
705.6	89.79
705.8	88.77
706.0	87.73
706.2	87.17
706.4	86.78
706.6	86.77
706.8	87.01
707.0	86.16
707.2	85.79
707.4	85.35
707.6	84.58
707.8	83.56
708.0	83.37
708.2	82.86
708.4	82.49
708.6	82.10
708.8	81.63
709.0	81.26
709.2	80.92
709.4	80.01
709.6	79.18
709.8	78.80
710.0	78.02
710.2	77.58
710.4	76.70
710.6	75.74
710.8	74.73
711.0	74.47
711.2	74.13
711.4	74.05
711.6	74.18
711.8	73.98
712.0	73.35
712.2	72.69
712.4	71.95
712.6	71.51
712.8	70.81
713.0	69.88
713.2	69.64
713.4	69.34
713.6	69.53
713.8	69.12
714.0	68.20
714.2	67.42
714.4	67.00
714.6	66.84
714.8	66.62
715.0	65.50
715.2	65.42
715.4	64.74
715.6	63.93
715.8	63.52
716.0	63.31
716.2	63.29
716.4	63.57
716.6	62.42
716.8	61.29
717.0	59.97
717.2	59.71
717.4	59.74
717.6	59.23
717.8	58.80
718.0	58.58
718.2	58.03
718.4	57.74
718.6	57.24
718.8	56.77
719.0	56.11
719.2	55.78
719.4	55.56
719.6	54.92
719.8	54.45
720.0	54.29
720.2	53.95
720.4	53.87
720.6	53.65
720.8	53.47
721.0	52.68
721.2	51.82
721.4	51.56
721.6	51.28
721.8	51.10
722.0	51.13
722.2	50.41
722.4	49.49
722.6	48.61
722.8	47.83
723.0	47.58
723.2	47.53
723.4	48.06
723.6	48.23
723.8	47.78
724.0	47.14
724.2	46.30
724.4	45.74
724.6	45.56
724.8	45.04
725.0	44.62
725.2	44.06
