Sample:	'20211010A(EM)
File name:	G-CDs 2.FDS
Run date:	'14:57:03, 06/10/2023
Operator:	Administrator
Comment:	'

Instrument
Model:	F-4700 FL Spectrophotometer
Serial number:	2019-001
ROM Version:	5J24010 00

Instrument parameters
Measurement type:	Wavelength scan
Scan mode:	Emission
Data mode:	Fluorescence
EX WL:	400.0 nm
EM  Start WL:	420.0 nm
EM  End WL:	800.0 nm
Scan speed:	1200 nm/min
Delay:	0.0 s
EX Slit:	10.0 nm
EM Slit:	10.0 nm
PMT Voltage:	440 V
Response:	0.002 s
Corrected spectra:	Off
Shutter control:	On

Processing performed
Savitsky-Golay smoothed
Smoothing order:	3
Number of points:	7
Number of times:	1

Peak integration
Integration method:	Rectangular
Sensitivity:	1
Threshold:	1.000

Peaks
No.	Start(nm)	Apex(nm)	End(nm)	Height(Data)	Valley(nm)	Valley(Data)
1	420.0	536.2	537.6	9943	537.6	9916
2	537.6	538.4	788.0	9934	788.0	5.749

Data points
nm	Data
420.0	78.96
420.2	78.92
420.4	80.10
420.6	81.80
420.8	82.84
421.0	83.65
421.2	83.97
421.4	83.67
421.6	83.97
421.8	85.02
422.0	85.63
422.2	85.96
422.4	86.70
422.6	86.77
422.8	87.70
423.0	88.61
423.2	88.91
423.4	89.90
423.6	90.75
423.8	91.59
424.0	92.17
424.2	92.85
424.4	93.53
424.6	94.71
424.8	95.68
425.0	96.10
425.2	96.05
425.4	96.61
425.6	97.36
425.8	97.59
426.0	98.89
426.2	99.91
426.4	100.7
426.6	100.6
426.8	101.1
427.0	101.6
427.2	102.2
427.4	103.2
427.6	103.8
427.8	103.8
428.0	104.9
428.2	106.2
428.4	106.4
428.6	106.7
428.8	106.7
429.0	106.7
429.2	107.9
429.4	109.8
429.6	110.2
429.8	110.9
430.0	111.3
430.2	111.4
430.4	111.9
430.6	113.0
430.8	113.5
431.0	114.8
431.2	115.8
431.4	116.6
431.6	116.9
431.8	117.4
432.0	117.6
432.2	118.3
432.4	119.0
432.6	120.2
432.8	121.1
433.0	122.3
433.2	123.6
433.4	124.2
433.6	124.6
433.8	125.5
434.0	126.1
434.2	127.1
434.4	128.3
434.6	128.8
434.8	128.9
435.0	129.6
435.2	130.1
435.4	130.9
435.6	132.3
435.8	133.7
436.0	134.4
436.2	135.1
436.4	135.5
436.6	135.5
436.8	136.4
437.0	137.6
437.2	138.8
437.4	140.2
437.6	141.6
437.8	142.3
438.0	142.8
438.2	143.5
438.4	144.8
438.6	145.9
438.8	146.6
439.0	147.9
439.2	149.0
439.4	149.6
439.6	151.3
439.8	152.6
440.0	152.4
440.2	153.6
440.4	154.1
440.6	155.2
440.8	156.8
441.0	158.1
441.2	159.0
441.4	160.2
441.6	160.7
441.8	161.0
442.0	161.7
442.2	162.4
442.4	163.9
442.6	165.2
442.8	166.3
443.0	166.6
443.2	167.5
443.4	168.5
443.6	170.1
443.8	171.6
444.0	172.4
444.2	172.8
444.4	173.0
444.6	173.0
444.8	174.4
445.0	175.4
445.2	176.8
445.4	177.7
445.6	179.1
445.8	180.1
446.0	180.8
446.2	181.8
446.4	182.9
446.6	183.3
446.8	184.0
447.0	184.2
447.2	184.6
447.4	185.1
447.6	185.3
447.8	186.6
448.0	187.9
448.2	189.4
448.4	190.4
448.6	190.8
448.8	190.2
449.0	191.0
449.2	192.2
449.4	192.6
449.6	192.8
449.8	193.6
450.0	194.2
450.2	194.6
450.4	195.4
450.6	195.0
450.8	195.7
451.0	196.7
451.2	197.5
451.4	197.5
451.6	197.9
451.8	198.3
452.0	199.2
452.2	199.8
452.4	199.8
452.6	199.4
452.8	199.7
453.0	201.0
453.2	201.9
453.4	202.2
453.6	202.9
453.8	202.6
454.0	202.8
454.2	204.0
454.4	203.8
454.6	204.7
454.8	205.5
455.0	206.5
455.2	207.1
455.4	208.0
455.6	207.7
455.8	208.9
456.0	209.1
456.2	210.4
456.4	211.3
456.6	212.3
456.8	212.6
457.0	213.0
457.2	213.4
457.4	214.0
457.6	215.0
457.8	215.3
458.0	216.6
458.2	218.0
458.4	220.1
458.6	221.7
458.8	224.2
459.0	224.8
459.2	226.4
459.4	227.2
459.6	228.6
459.8	230.1
460.0	233.1
460.2	235.5
460.4	237.8
460.6	238.7
460.8	241.0
461.0	242.0
461.2	243.6
461.4	245.4
461.6	247.8
461.8	251.8
462.0	255.6
462.2	258.4
462.4	260.1
462.6	261.5
462.8	263.5
463.0	266.6
463.2	268.5
463.4	271.6
463.6	275.0
463.8	279.1
464.0	284.5
464.2	289.2
464.4	292.1
464.6	295.7
464.8	299.4
465.0	302.4
465.2	307.1
465.4	311.2
465.6	315.2
465.8	320.9
466.0	326.3
466.2	330.7
466.4	335.8
466.6	340.1
466.8	344.1
467.0	349.8
467.2	354.3
467.4	360.0
467.6	365.1
467.8	371.2
468.0	377.4
468.2	384.7
468.4	391.1
468.6	398.1
468.8	404.2
469.0	410.4
469.2	415.8
469.4	422.5
469.6	430.5
469.8	438.3
470.0	446.1
470.2	452.3
470.4	458.6
470.6	467.2
470.8	476.1
471.0	484.1
471.2	491.5
471.4	497.9
471.6	504.8
471.8	513.3
472.0	520.9
472.2	529.7
472.4	540.3
472.6	550.5
472.8	559.8
473.0	568.9
473.2	575.7
473.4	583.4
473.6	593.0
473.8	602.6
474.0	612.8
474.2	622.8
474.4	632.1
474.6	641.6
474.8	652.6
475.0	663.6
475.2	675.5
475.4	687.1
475.6	698.0
475.8	707.6
476.0	718.0
476.2	727.6
476.4	737.7
476.6	749.2
476.8	759.7
477.0	769.3
477.2	779.8
477.4	790.3
477.6	802.1
477.8	814.7
478.0	826.9
478.2	839.0
478.4	849.8
478.6	862.9
478.8	876.0
479.0	890.4
479.2	903.0
479.4	915.5
479.6	927.4
479.8	940.9
480.0	952.7
480.2	966.3
480.4	977.0
480.6	988.4
480.8	1002
481.0	1017
481.2	1031
481.4	1046
481.6	1059
481.8	1072
482.0	1085
482.2	1099
482.4	1112
482.6	1129
482.8	1142
483.0	1157
483.2	1173
483.4	1189
483.6	1205
483.8	1224
484.0	1240
484.2	1258
484.4	1276
484.6	1292
484.8	1309
485.0	1326
485.2	1342
485.4	1362
485.6	1380
485.8	1395
486.0	1415
486.2	1430
486.4	1447
486.6	1469
486.8	1488
487.0	1510
487.2	1531
487.4	1547
487.6	1567
487.8	1588
488.0	1610
488.2	1636
488.4	1657
488.6	1677
488.8	1701
489.0	1723
489.2	1746
489.4	1770
489.6	1792
489.8	1817
490.0	1844
490.2	1867
490.4	1893
490.6	1917
490.8	1942
491.0	1969
491.2	1997
491.4	2025
491.6	2053
491.8	2082
492.0	2110
492.2	2137
492.4	2167
492.6	2198
492.8	2226
493.0	2257
493.2	2290
493.4	2322
493.6	2355
493.8	2389
494.0	2419
494.2	2452
494.4	2484
494.6	2520
494.8	2554
495.0	2594
495.2	2627
495.4	2662
495.6	2692
495.8	2731
496.0	2765
496.2	2803
496.4	2840
496.6	2880
496.8	2917
497.0	2962
497.2	3002
497.4	3042
497.6	3084
497.8	3128
498.0	3166
498.2	3205
498.4	3245
498.6	3289
498.8	3336
499.0	3383
499.2	3422
499.4	3458
499.6	3501
499.8	3551
500.0	3597
500.2	3648
500.4	3696
500.6	3737
500.8	3784
501.0	3836
501.2	3880
501.4	3932
501.6	3984
501.8	4023
502.0	4067
502.2	4115
502.4	4164
502.6	4214
502.8	4266
503.0	4314
503.2	4359
503.4	4407
503.6	4456
503.8	4508
504.0	4567
504.2	4624
504.4	4670
504.6	4716
504.8	4764
505.0	4812
505.2	4864
505.4	4920
505.6	4978
505.8	5033
506.0	5082
506.2	5127
506.4	5177
506.6	5236
506.8	5298
507.0	5349
507.2	5388
507.4	5427
507.6	5475
507.8	5536
508.0	5593
508.2	5643
508.4	5691
508.6	5743
508.8	5797
509.0	5857
509.2	5910
509.4	5966
509.6	6017
509.8	6069
510.0	6118
510.2	6166
510.4	6220
510.6	6280
510.8	6328
511.0	6379
511.2	6425
511.4	6469
511.6	6517
511.8	6564
512.0	6612
512.2	6662
512.4	6711
512.6	6758
512.8	6805
513.0	6850
513.2	6898
513.4	6945
513.6	6996
513.8	7051
514.0	7109
514.2	7154
514.4	7198
514.6	7247
514.8	7294
515.0	7340
515.2	7387
515.4	7428
515.6	7473
515.8	7518
516.0	7554
516.2	7593
516.4	7638
516.6	7687
516.8	7733
517.0	7773
517.2	7805
517.4	7847
517.6	7897
517.8	7948
518.0	7995
518.2	8038
518.4	8074
518.6	8113
518.8	8145
519.0	8187
519.2	8226
519.4	8258
519.6	8296
519.8	8340
520.0	8369
520.2	8414
520.4	8446
520.6	8482
520.8	8525
521.0	8577
521.2	8608
521.4	8636
521.6	8659
521.8	8688
522.0	8719
522.2	8759
522.4	8788
522.6	8825
522.8	8862
523.0	8897
523.2	8934
523.4	8968
523.6	8997
523.8	9017
524.0	9030
524.2	9046
524.4	9074
524.6	9109
524.8	9150
525.0	9183
525.2	9217
525.4	9241
525.6	9270
525.8	9288
526.0	9304
526.2	9325
526.4	9350
526.6	9375
526.8	9402
527.0	9417
527.2	9438
527.4	9459
527.6	9481
527.8	9507
528.0	9524
528.2	9538
528.4	9556
528.6	9574
528.8	9594
529.0	9606
529.2	9620
529.4	9638
529.6	9652
529.8	9673
530.0	9689
530.2	9700
530.4	9718
530.6	9734
530.8	9747
531.0	9757
531.2	9766
531.4	9783
531.6	9801
531.8	9815
532.0	9822
532.2	9826
532.4	9831
532.6	9843
532.8	9849
533.0	9856
533.2	9865
533.4	9874
533.6	9891
533.8	9899
534.0	9903
534.2	9912
534.4	9919
534.6	9924
534.8	9927
535.0	9926
535.2	9926
535.4	9933
535.6	9933
535.8	9940
536.0	9936
536.2	9943
536.4	9932
536.6	9927
536.8	9918
537.0	9920
537.2	9921
537.4	9923
537.6	9916
537.8	9922
538.0	9923
538.2	9929
538.4	9934
538.6	9927
538.8	9927
539.0	9922
539.2	9918
539.4	9918
539.6	9913
539.8	9903
540.0	9892
540.2	9884
540.4	9880
540.6	9874
540.8	9863
541.0	9847
541.2	9834
541.4	9827
541.6	9819
541.8	9819
542.0	9810
542.2	9806
542.4	9798
542.6	9779
542.8	9772
543.0	9765
543.2	9755
543.4	9752
543.6	9742
543.8	9724
544.0	9704
544.2	9689
544.4	9668
544.6	9654
544.8	9642
545.0	9624
545.2	9616
545.4	9612
545.6	9596
545.8	9585
546.0	9560
546.2	9537
546.4	9527
546.6	9506
546.8	9498
547.0	9488
547.2	9476
547.4	9459
547.6	9440
547.8	9417
548.0	9397
548.2	9376
548.4	9369
548.6	9349
548.8	9332
549.0	9314
549.2	9299
549.4	9285
549.6	9272
549.8	9249
550.0	9220
550.2	9198
550.4	9184
550.6	9160
550.8	9142
551.0	9118
551.2	9090
551.4	9069
551.6	9044
551.8	9024
552.0	9011
552.2	8988
552.4	8965
552.6	8937
552.8	8914
553.0	8902
553.2	8890
553.4	8865
553.6	8835
553.8	8816
554.0	8801
554.2	8784
554.4	8765
554.6	8733
554.8	8693
555.0	8670
555.2	8652
555.4	8636
555.6	8610
555.8	8584
556.0	8546
556.2	8508
556.4	8488
556.6	8479
556.8	8466
557.0	8451
557.2	8423
557.4	8392
557.6	8367
557.8	8351
558.0	8330
558.2	8298
558.4	8269
558.6	8241
558.8	8208
559.0	8186
559.2	8156
559.4	8129
559.6	8109
559.8	8085
560.0	8056
560.2	8025
560.4	7996
560.6	7978
560.8	7957
561.0	7932
561.2	7904
561.4	7872
561.6	7842
561.8	7817
562.0	7792
562.2	7767
562.4	7739
562.6	7712
562.8	7676
563.0	7654
563.2	7635
563.4	7612
563.6	7583
563.8	7557
564.0	7530
564.2	7503
564.4	7472
564.6	7441
564.8	7415
565.0	7397
565.2	7372
565.4	7345
565.6	7315
565.8	7284
566.0	7259
566.2	7228
566.4	7191
566.6	7167
566.8	7136
567.0	7113
567.2	7092
567.4	7072
567.6	7051
567.8	7033
568.0	7009
568.2	6981
568.4	6939
568.6	6909
568.8	6878
569.0	6854
569.2	6835
569.4	6805
569.6	6770
569.8	6740
570.0	6711
570.2	6682
570.4	6648
570.6	6617
570.8	6592
571.0	6573
571.2	6555
571.4	6534
571.6	6501
571.8	6470
572.0	6439
572.2	6408
572.4	6380
572.6	6364
572.8	6346
573.0	6321
573.2	6294
573.4	6261
573.6	6225
573.8	6193
574.0	6161
574.2	6131
574.4	6109
574.6	6092
574.8	6067
575.0	6037
575.2	6006
575.4	5983
575.6	5971
575.8	5956
576.0	5931
576.2	5900
576.4	5866
576.6	5838
576.8	5825
577.0	5801
577.2	5773
577.4	5746
577.6	5719
577.8	5692
578.0	5679
578.2	5649
578.4	5621
578.6	5598
578.8	5577
579.0	5550
579.2	5529
579.4	5495
579.6	5470
579.8	5449
580.0	5430
580.2	5409
580.4	5382
580.6	5349
580.8	5322
581.0	5298
581.2	5277
581.4	5255
581.6	5225
581.8	5184
582.0	5154
582.2	5134
582.4	5121
582.6	5107
582.8	5083
583.0	5052
583.2	5032
583.4	5009
583.6	4990
583.8	4966
584.0	4941
584.2	4918
584.4	4897
584.6	4870
584.8	4847
585.0	4824
585.2	4808
585.4	4784
585.6	4758
585.8	4724
586.0	4699
586.2	4681
586.4	4667
586.6	4647
586.8	4636
587.0	4615
587.2	4599
587.4	4580
587.6	4551
587.8	4523
588.0	4504
588.2	4486
588.4	4466
588.6	4448
588.8	4428
589.0	4410
589.2	4389
589.4	4364
589.6	4342
589.8	4323
590.0	4306
590.2	4277
590.4	4253
590.6	4227
590.8	4209
591.0	4191
591.2	4171
591.4	4151
591.6	4138
591.8	4122
592.0	4102
592.2	4074
592.4	4049
592.6	4032
592.8	4016
593.0	4004
593.2	3988
593.4	3965
593.6	3947
593.8	3923
594.0	3900
594.2	3880
594.4	3859
594.6	3843
594.8	3830
595.0	3808
595.2	3785
595.4	3761
595.6	3735
595.8	3718
596.0	3703
596.2	3684
596.4	3669
596.6	3652
596.8	3635
597.0	3615
597.2	3597
597.4	3582
597.6	3565
597.8	3547
598.0	3528
598.2	3505
598.4	3488
598.6	3469
598.8	3454
599.0	3436
599.2	3419
599.4	3399
599.6	3383
599.8	3362
600.0	3349
600.2	3330
600.4	3311
600.6	3295
600.8	3279
601.0	3264
601.2	3250
601.4	3231
601.6	3214
601.8	3193
602.0	3179
602.2	3162
602.4	3147
602.6	3130
602.8	3115
603.0	3089
603.2	3070
603.4	3054
603.6	3038
603.8	3022
604.0	3008
604.2	2988
604.4	2971
604.6	2953
604.8	2936
605.0	2923
605.2	2915
605.4	2901
605.6	2885
605.8	2869
606.0	2852
606.2	2836
606.4	2818
606.6	2797
606.8	2779
607.0	2765
607.2	2748
607.4	2737
607.6	2722
607.8	2704
608.0	2686
608.2	2670
608.4	2654
608.6	2643
608.8	2631
609.0	2616
609.2	2597
609.4	2581
609.6	2560
609.8	2543
610.0	2529
610.2	2515
610.4	2503
610.6	2490
610.8	2473
611.0	2461
611.2	2440
611.4	2425
611.6	2410
611.8	2395
612.0	2383
612.2	2375
612.4	2359
612.6	2345
612.8	2332
613.0	2315
613.2	2301
613.4	2290
613.6	2277
613.8	2263
614.0	2246
614.2	2229
614.4	2215
614.6	2198
614.8	2189
615.0	2180
615.2	2163
615.4	2147
615.6	2132
615.8	2113
616.0	2109
616.2	2099
616.4	2091
616.6	2082
616.8	2070
617.0	2052
617.2	2036
617.4	2018
617.6	2006
617.8	1996
618.0	1988
618.2	1976
618.4	1958
618.6	1945
618.8	1932
619.0	1921
619.2	1910
619.4	1898
619.6	1886
619.8	1875
620.0	1860
620.2	1848
620.4	1834
620.6	1822
620.8	1813
621.0	1802
621.2	1789
621.4	1779
621.6	1770
621.8	1760
622.0	1750
622.2	1740
622.4	1729
622.6	1718
622.8	1709
623.0	1699
623.2	1687
623.4	1675
623.6	1664
623.8	1655
624.0	1644
624.2	1633
624.4	1623
624.6	1612
624.8	1598
625.0	1587
625.2	1574
625.4	1561
625.6	1552
625.8	1542
626.0	1532
626.2	1524
626.4	1513
626.6	1503
626.8	1492
627.0	1484
627.2	1475
627.4	1464
627.6	1452
627.8	1443
628.0	1433
628.2	1427
628.4	1418
628.6	1409
628.8	1399
629.0	1388
629.2	1375
629.4	1365
629.6	1355
629.8	1347
630.0	1341
630.2	1333
630.4	1324
630.6	1315
630.8	1303
631.0	1292
631.2	1284
631.4	1275
631.6	1268
631.8	1261
632.0	1253
632.2	1247
632.4	1238
632.6	1227
632.8	1216
633.0	1208
633.2	1202
633.4	1198
633.6	1193
633.8	1183
634.0	1174
634.2	1162
634.4	1153
634.6	1146
634.8	1143
635.0	1137
635.2	1130
635.4	1122
635.6	1113
635.8	1105
636.0	1099
636.2	1093
636.4	1086
636.6	1079
636.8	1070
637.0	1060
637.2	1053
637.4	1044
637.6	1037
637.8	1031
638.0	1025
638.2	1018
638.4	1012
638.6	1004
638.8	996.9
639.0	988.7
639.2	983.2
639.4	977.9
639.6	971.4
639.8	965.6
640.0	960.0
640.2	951.9
640.4	946.8
640.6	940.8
640.8	933.1
641.0	926.3
641.2	920.7
641.4	915.2
641.6	911.9
641.8	905.4
642.0	895.8
642.2	887.6
642.4	881.4
642.6	876.6
642.8	872.6
643.0	866.5
643.2	860.5
643.4	856.8
643.6	851.9
643.8	845.2
644.0	836.5
644.2	827.6
644.4	820.7
644.6	817.1
644.8	813.5
645.0	810.1
645.2	804.7
645.4	798.1
645.6	792.1
645.8	787.8
646.0	781.8
646.2	777.2
646.4	771.4
646.6	765.1
646.8	760.6
647.0	756.0
647.2	749.4
647.4	744.8
647.6	739.0
647.8	734.0
648.0	731.1
648.2	726.8
648.4	722.0
648.6	715.8
648.8	709.4
649.0	702.8
649.2	698.6
649.4	694.6
649.6	690.6
649.8	685.0
650.0	680.8
650.2	674.9
650.4	669.7
650.6	664.1
650.8	660.5
651.0	655.0
651.2	652.0
651.4	646.9
651.6	641.4
651.8	636.1
652.0	631.8
652.2	628.7
652.4	626.1
652.6	622.2
652.8	618.0
653.0	612.0
653.2	605.7
653.4	600.3
653.6	595.8
653.8	591.4
654.0	588.3
654.2	584.5
654.4	581.9
654.6	577.0
654.8	573.5
655.0	568.8
655.2	563.9
655.4	559.5
655.6	556.8
655.8	552.8
656.0	548.8
656.2	545.1
656.4	540.7
656.6	535.8
656.8	533.1
657.0	530.5
657.2	527.0
657.4	523.7
657.6	519.6
657.8	514.8
658.0	509.4
658.2	506.4
658.4	502.3
658.6	498.0
658.8	494.6
659.0	492.5
659.2	488.2
659.4	485.3
659.6	481.2
659.8	476.2
660.0	471.7
660.2	468.5
660.4	464.5
660.6	460.8
660.8	459.1
661.0	456.2
661.2	453.5
661.4	449.4
661.6	446.5
661.8	443.6
662.0	441.7
662.2	437.7
662.4	435.6
662.6	431.7
662.8	428.8
663.0	425.0
663.2	421.8
663.4	418.7
663.6	416.6
663.8	413.2
664.0	409.7
664.2	406.0
664.4	402.4
664.6	399.8
664.8	396.3
665.0	393.1
665.2	390.5
665.4	387.8
665.6	384.9
665.8	382.0
666.0	380.1
666.2	377.7
666.4	375.3
666.6	372.4
666.8	370.3
667.0	366.5
667.2	364.5
667.4	360.7
667.6	358.1
667.8	355.2
668.0	353.9
668.2	350.0
668.4	347.6
668.6	345.2
668.8	342.6
669.0	339.3
669.2	336.4
669.4	333.3
669.6	330.4
669.8	329.1
670.0	327.7
670.2	325.3
670.4	322.0
670.6	319.5
670.8	316.9
671.0	314.7
671.2	313.1
671.4	310.3
671.6	307.3
671.8	304.5
672.0	302.2
672.2	299.2
672.4	297.3
672.6	294.6
672.8	292.4
673.0	290.5
673.2	288.1
673.4	286.5
673.6	284.4
673.8	282.0
674.0	279.4
674.2	278.1
674.4	276.6
674.6	276.2
674.8	274.1
675.0	271.0
675.2	267.5
675.4	264.8
675.6	262.9
675.8	262.4
676.0	260.6
676.2	258.8
676.4	256.5
676.6	254.3
676.8	252.0
677.0	250.1
677.2	247.9
677.4	244.8
677.6	242.5
677.8	240.6
678.0	239.4
678.2	237.6
678.4	237.0
678.6	234.5
678.8	233.2
679.0	232.0
679.2	230.4
679.4	228.1
679.6	225.5
679.8	222.9
680.0	222.3
680.2	221.9
680.4	221.5
680.6	220.4
680.8	217.9
681.0	215.4
681.2	214.2
681.4	212.0
681.6	211.0
681.8	209.3
682.0	206.9
682.2	204.8
682.4	203.7
682.6	201.3
682.8	199.6
683.0	198.0
683.2	196.2
683.4	194.5
683.6	194.0
683.8	193.3
684.0	192.7
684.2	191.6
684.4	189.9
684.6	188.0
684.8	186.7
685.0	184.2
685.2	182.3
685.4	180.6
685.6	179.9
685.8	180.0
686.0	179.8
686.2	177.3
686.4	174.3
686.6	172.1
686.8	170.6
687.0	169.7
687.2	168.9
687.4	167.8
687.6	166.6
687.8	165.2
688.0	164.1
688.2	163.0
688.4	162.2
688.6	161.4
688.8	160.4
689.0	159.1
689.2	157.8
689.4	155.9
689.6	154.4
689.8	153.1
690.0	151.7
690.2	150.8
690.4	150.9
690.6	149.7
690.8	148.8
691.0	147.5
691.2	146.2
691.4	144.7
691.6	144.1
691.8	141.9
692.0	140.5
692.2	138.8
692.4	137.1
692.6	136.5
692.8	136.7
693.0	136.5
693.2	136.8
693.4	135.6
693.6	133.5
693.8	132.5
694.0	131.4
694.2	130.5
694.4	129.6
694.6	128.4
694.8	126.9
695.0	126.3
695.2	126.5
695.4	125.7
695.6	124.5
695.8	123.8
696.0	123.2
696.2	122.2
696.4	122.3
696.6	121.5
696.8	120.1
697.0	118.7
697.2	117.4
697.4	115.7
697.6	114.8
697.8	114.5
698.0	114.0
698.2	113.8
698.4	113.4
698.6	112.6
698.8	111.6
699.0	110.4
699.2	109.1
699.4	109.0
699.6	108.4
699.8	108.0
700.0	107.5
700.2	106.8
700.4	105.3
700.6	104.8
700.8	104.0
701.0	103.7
701.2	103.0
701.4	102.1
701.6	101.3
701.8	101.0
702.0	100.7
702.2	100.7
702.4	99.59
702.6	98.55
702.8	97.69
703.0	97.05
703.2	96.57
703.4	96.41
703.6	95.78
703.8	95.15
704.0	94.02
704.2	93.74
704.4	93.69
704.6	93.02
704.8	92.02
705.0	91.04
705.2	90.19
705.4	90.23
705.6	89.92
705.8	89.49
706.0	88.69
706.2	88.20
706.4	87.15
706.6	86.30
706.8	85.57
707.0	84.78
707.2	84.30
707.4	84.11
707.6	83.11
707.8	82.72
708.0	82.69
708.2	81.91
708.4	81.40
708.6	80.71
708.8	80.00
709.0	79.77
709.2	79.88
709.4	79.72
709.6	79.14
709.8	77.99
710.0	76.90
710.2	76.25
710.4	75.35
710.6	75.21
710.8	74.92
711.0	74.54
711.2	74.34
711.4	74.42
711.6	73.63
711.8	72.80
712.0	72.12
712.2	71.56
712.4	71.00
712.6	70.83
712.8	70.41
713.0	69.30
713.2	68.60
713.4	68.06
713.6	67.76
713.8	67.61
714.0	67.11
714.2	66.71
714.4	66.77
714.6	66.71
714.8	66.52
715.0	66.15
715.2	65.01
715.4	64.21
715.6	63.33
715.8	62.30
716.0	61.61
716.2	61.34
716.4	61.46
716.6	61.74
716.8	61.78
717.0	60.97
717.2	60.53
717.4	59.99
717.6	59.64
717.8	59.18
718.0	58.85
718.2	57.96
718.4	57.36
718.6	56.85
718.8	56.29
719.0	55.68
719.2	55.21
719.4	54.81
719.6	54.44
719.8	54.39
720.0	54.23
720.2	53.91
720.4	53.13
720.6	52.51
720.8	51.73
721.0	51.65
721.2	51.30
721.4	51.05
721.6	50.66
721.8	50.90
722.0	50.61
722.2	50.52
722.4	49.84
722.6	48.78
722.8	48.03
723.0	47.68
723.2	47.75
723.4	47.89
723.6	47.61
723.8	47.44
724.0	46.99
724.2	46.31
724.4	45.80
724.6	45.12
724.8	44.73
725.0	44.76
725.2	44.38
725.4	44.09
