Sample:	'20211010A(EM)
File name:	B-NI 6 600.FDS
Run date:	'11:12:11, 06/20/2023
Operator:	Administrator
Comment:	'

Instrument
Model:	F-4700 FL Spectrophotometer
Serial number:	2019-001
ROM Version:	5J24010 00

Instrument parameters
Measurement type:	Wavelength scan
Scan mode:	Emission
Data mode:	Fluorescence
EX WL:	350.0 nm
EM  Start WL:	370.0 nm
EM  End WL:	700.0 nm
Scan speed:	1200 nm/min
Delay:	0.0 s
EX Slit:	10.0 nm
EM Slit:	10.0 nm
PMT Voltage:	305 V
Response:	0.002 s
Corrected spectra:	Off
Shutter control:	On

Processing performed
Savitsky-Golay smoothed
Smoothing order:	3
Number of points:	7
Number of times:	1

Peak integration
Integration method:	Rectangular
Sensitivity:	1
Threshold:	1.000

Peaks
No.	Start(nm)	Apex(nm)	End(nm)	Height(Data)	Valley(nm)	Valley(Data)
1	370.0	434.2	435.2	5215	435.2	5184
2	435.2	436.6	700.0	5230	700.0	2.698

Data points
nm	Data
370.0	22.91
370.2	23.50
370.4	24.08
370.6	24.68
370.8	25.45
371.0	26.17
371.2	26.84
371.4	27.51
371.6	28.13
371.8	28.94
372.0	30.04
372.2	30.95
372.4	31.78
372.6	32.53
372.8	33.20
373.0	34.05
373.2	34.97
373.4	35.87
373.6	36.86
373.8	37.76
374.0	38.97
374.2	40.15
374.4	41.31
374.6	42.62
374.8	43.86
375.0	44.96
375.2	46.27
375.4	47.32
375.6	48.44
375.8	49.95
376.0	51.52
376.2	53.23
376.4	54.82
376.6	56.35
376.8	57.89
377.0	59.50
377.2	61.44
377.4	63.34
377.6	65.39
377.8	67.44
378.0	69.14
378.2	70.95
378.4	72.96
378.6	74.80
378.8	76.87
379.0	79.11
379.2	81.28
379.4	84.15
379.6	87.23
379.8	90.38
380.0	93.48
380.2	96.25
380.4	98.80
380.6	101.8
380.8	105.1
381.0	108.6
381.2	112.3
381.4	115.6
381.6	118.8
381.8	122.3
382.0	126.0
382.2	129.6
382.4	133.8
382.6	138.1
382.8	142.4
383.0	147.0
383.2	151.2
383.4	155.3
383.6	160.5
383.8	165.9
384.0	171.4
384.2	176.9
384.4	181.8
384.6	186.7
384.8	192.8
385.0	199.4
385.2	206.4
385.4	212.7
385.6	218.7
385.8	225.5
386.0	233.0
386.2	241.1
386.4	249.3
386.6	256.9
386.8	263.7
387.0	270.7
387.2	278.4
387.4	287.0
387.6	296.0
387.8	305.9
388.0	314.9
388.2	323.3
388.4	331.9
388.6	341.5
388.8	351.1
389.0	362.2
389.2	373.7
389.4	385.4
389.6	397.4
389.8	409.2
390.0	419.9
390.2	431.3
390.4	443.4
390.6	457.9
390.8	473.2
391.0	487.7
391.2	499.8
391.4	511.9
391.6	525.5
391.8	541.3
392.0	556.2
392.2	569.9
392.4	583.1
392.6	598.5
392.8	615.8
393.0	632.4
393.2	647.9
393.4	663.6
393.6	681.3
393.8	699.4
394.0	716.3
394.2	734.5
394.4	753.4
394.6	771.7
394.8	790.1
395.0	809.6
395.2	828.9
395.4	852.8
395.6	874.4
395.8	895.9
396.0	917.6
396.2	940.3
396.4	960.6
396.6	983.6
396.8	1004
397.0	1026
397.2	1052
397.4	1077
397.6	1098
397.8	1122
398.0	1145
398.2	1169
398.4	1195
398.6	1220
398.8	1246
399.0	1270
399.2	1296
399.4	1324
399.6	1351
399.8	1378
400.0	1407
400.2	1436
400.4	1467
400.6	1499
400.8	1530
401.0	1558
401.2	1583
401.4	1612
401.6	1640
401.8	1669
402.0	1696
402.2	1727
402.4	1756
402.6	1785
402.8	1817
403.0	1847
403.2	1874
403.4	1909
403.6	1942
403.8	1977
404.0	2016
404.2	2050
404.4	2072
404.6	2096
404.8	2120
405.0	2150
405.2	2185
405.4	2225
405.6	2259
405.8	2291
406.0	2321
406.2	2356
406.4	2387
406.6	2418
406.8	2454
407.0	2483
407.2	2512
407.4	2549
407.6	2579
407.8	2605
408.0	2642
408.2	2675
408.4	2706
408.6	2740
408.8	2769
409.0	2795
409.2	2824
409.4	2854
409.6	2886
409.8	2922
410.0	2952
410.2	2988
410.4	3022
410.6	3048
410.8	3079
411.0	3116
411.2	3149
411.4	3185
411.6	3215
411.8	3235
412.0	3265
412.2	3294
412.4	3330
412.6	3352
412.8	3377
413.0	3407
413.2	3447
413.4	3478
413.6	3508
413.8	3528
414.0	3547
414.2	3575
414.4	3608
414.6	3645
414.8	3675
415.0	3703
415.2	3724
415.4	3749
415.6	3771
415.8	3802
416.0	3838
416.2	3873
416.4	3896
416.6	3917
416.8	3940
417.0	3970
417.2	3997
417.4	4019
417.6	4030
417.8	4041
418.0	4061
418.2	4094
418.4	4121
418.6	4153
418.8	4181
419.0	4198
419.2	4215
419.4	4239
419.6	4254
419.8	4281
420.0	4306
420.2	4335
420.4	4371
420.6	4398
420.8	4419
421.0	4436
421.2	4449
421.4	4463
421.6	4480
421.8	4495
422.0	4506
422.2	4520
422.4	4534
422.6	4547
422.8	4562
423.0	4586
423.2	4605
423.4	4619
423.6	4630
423.8	4649
424.0	4665
424.2	4685
424.4	4708
424.6	4720
424.8	4733
425.0	4756
425.2	4775
425.4	4791
425.6	4814
425.8	4831
426.0	4847
426.2	4867
426.4	4884
426.6	4898
426.8	4908
427.0	4908
427.2	4913
427.4	4919
427.6	4930
427.8	4935
428.0	4946
428.2	4955
428.4	4972
428.6	4990
428.8	5001
429.0	5006
429.2	5012
429.4	5027
429.6	5040
429.8	5066
430.0	5079
430.2	5087
430.4	5089
430.6	5094
430.8	5087
431.0	5099
431.2	5112
431.4	5119
431.6	5129
431.8	5131
432.0	5134
432.2	5139
432.4	5147
432.6	5143
432.8	5146
433.0	5150
433.2	5171
433.4	5186
433.6	5202
433.8	5206
434.0	5212
434.2	5215
434.4	5214
434.6	5208
434.8	5200
435.0	5191
435.2	5184
435.4	5189
435.6	5193
435.8	5195
436.0	5202
436.2	5217
436.4	5223
436.6	5230
436.8	5230
437.0	5226
437.2	5219
437.4	5221
437.6	5219
437.8	5208
438.0	5210
438.2	5213
438.4	5204
438.6	5205
438.8	5201
439.0	5196
439.2	5195
439.4	5193
439.6	5187
439.8	5180
440.0	5170
440.2	5161
440.4	5150
440.6	5144
440.8	5142
441.0	5137
441.2	5149
441.4	5150
441.6	5150
441.8	5138
442.0	5112
442.2	5098
442.4	5105
442.6	5098
442.8	5101
443.0	5104
443.2	5093
443.4	5090
443.6	5081
443.8	5056
444.0	5038
444.2	5028
444.4	5027
444.6	5031
444.8	5028
445.0	5016
445.2	5007
445.4	4992
445.6	4986
445.8	4977
446.0	4964
446.2	4952
446.4	4946
446.6	4945
446.8	4936
447.0	4936
447.2	4933
447.4	4918
447.6	4899
447.8	4881
448.0	4858
448.2	4849
448.4	4843
448.6	4836
448.8	4828
449.0	4817
449.2	4809
449.4	4795
449.6	4777
449.8	4764
450.0	4748
450.2	4728
450.4	4711
450.6	4697
450.8	4686
451.0	4680
451.2	4671
451.4	4664
451.6	4649
451.8	4640
452.0	4621
452.2	4609
452.4	4597
452.6	4588
452.8	4572
453.0	4560
453.2	4543
453.4	4532
453.6	4522
453.8	4518
454.0	4512
454.2	4499
454.4	4486
454.6	4464
454.8	4440
455.0	4427
455.2	4417
455.4	4401
455.6	4387
455.8	4371
456.0	4353
456.2	4340
456.4	4326
456.6	4310
456.8	4295
457.0	4274
457.2	4254
457.4	4233
457.6	4212
457.8	4204
458.0	4190
458.2	4177
458.4	4169
458.6	4156
458.8	4142
459.0	4129
459.2	4108
459.4	4097
459.6	4081
459.8	4066
460.0	4050
460.2	4037
460.4	4023
460.6	4008
460.8	3984
461.0	3963
461.2	3945
461.4	3935
461.6	3914
461.8	3898
462.0	3881
462.2	3868
462.4	3860
462.6	3855
462.8	3837
463.0	3814
463.2	3790
463.4	3772
463.6	3755
463.8	3740
464.0	3727
464.2	3710
464.4	3698
464.6	3685
464.8	3674
465.0	3656
465.2	3638
465.4	3620
465.6	3606
465.8	3584
466.0	3572
466.2	3556
466.4	3541
466.6	3526
466.8	3513
467.0	3493
467.2	3477
467.4	3463
467.6	3452
467.8	3438
468.0	3422
468.2	3403
468.4	3383
468.6	3367
468.8	3350
469.0	3332
469.2	3316
469.4	3303
469.6	3292
469.8	3278
470.0	3261
470.2	3246
470.4	3231
470.6	3210
470.8	3193
471.0	3178
471.2	3159
471.4	3149
471.6	3138
471.8	3120
472.0	3106
472.2	3092
472.4	3072
472.6	3055
472.8	3041
473.0	3026
473.2	3009
473.4	2997
473.6	2982
473.8	2966
474.0	2953
474.2	2935
474.4	2918
474.6	2909
474.8	2895
475.0	2875
475.2	2863
475.4	2846
475.6	2832
475.8	2821
476.0	2812
476.2	2800
476.4	2789
476.6	2771
476.8	2747
477.0	2730
477.2	2718
477.4	2710
477.6	2701
477.8	2690
478.0	2675
478.2	2667
478.4	2657
478.6	2648
478.8	2630
479.0	2610
479.2	2596
479.4	2579
479.6	2567
479.8	2557
480.0	2540
480.2	2532
480.4	2524
480.6	2512
480.8	2493
481.0	2475
481.2	2454
481.4	2453
481.6	2444
481.8	2435
482.0	2423
482.2	2412
482.4	2392
482.6	2383
482.8	2374
483.0	2358
483.2	2345
483.4	2334
483.6	2319
483.8	2302
484.0	2294
484.2	2280
484.4	2272
484.6	2264
484.8	2253
485.0	2235
485.2	2227
485.4	2214
485.6	2204
485.8	2194
486.0	2186
486.2	2174
486.4	2168
486.6	2153
486.8	2138
487.0	2119
487.2	2109
487.4	2098
487.6	2090
487.8	2081
488.0	2068
488.2	2051
488.4	2042
488.6	2030
488.8	2019
489.0	2012
489.2	2000
489.4	1992
489.6	1982
489.8	1968
490.0	1957
490.2	1945
490.4	1934
490.6	1926
490.8	1917
491.0	1908
491.2	1900
491.4	1885
491.6	1875
491.8	1863
492.0	1855
492.2	1844
492.4	1830
492.6	1815
492.8	1806
493.0	1799
493.2	1790
493.4	1779
493.6	1771
493.8	1760
494.0	1749
494.2	1740
494.4	1730
494.6	1720
494.8	1709
495.0	1700
495.2	1690
495.4	1678
495.6	1673
495.8	1663
496.0	1648
496.2	1635
496.4	1624
496.6	1611
496.8	1605
497.0	1600
497.2	1592
497.4	1585
497.6	1576
497.8	1562
498.0	1555
498.2	1546
498.4	1537
498.6	1530
498.8	1523
499.0	1514
499.2	1509
499.4	1499
499.6	1486
499.8	1475
500.0	1464
500.2	1456
500.4	1446
500.6	1437
500.8	1426
501.0	1417
501.2	1409
501.4	1403
501.6	1395
501.8	1386
502.0	1378
502.2	1368
502.4	1358
502.6	1349
502.8	1338
503.0	1329
503.2	1322
503.4	1314
503.6	1308
503.8	1302
504.0	1291
504.2	1280
504.4	1271
504.6	1262
504.8	1255
505.0	1247
505.2	1240
505.4	1234
505.6	1227
505.8	1220
506.0	1212
506.2	1203
506.4	1196
506.6	1188
506.8	1178
507.0	1169
507.2	1162
507.4	1155
507.6	1148
507.8	1141
508.0	1134
508.2	1127
508.4	1121
508.6	1112
508.8	1106
509.0	1099
509.2	1092
509.4	1086
509.6	1077
509.8	1068
510.0	1061
510.2	1054
510.4	1047
510.6	1042
510.8	1036
511.0	1029
511.2	1021
511.4	1011
511.6	1002
511.8	996.1
512.0	991.6
512.2	985.4
512.4	980.8
512.6	975.0
512.8	969.2
513.0	962.5
513.2	956.9
513.4	949.8
513.6	943.8
513.8	938.5
514.0	930.6
514.2	923.5
514.4	917.5
514.6	912.4
514.8	905.7
515.0	900.0
515.2	893.3
515.4	888.4
515.6	883.2
515.8	878.8
516.0	873.3
516.2	866.5
516.4	860.3
516.6	853.5
516.8	846.6
517.0	839.7
517.2	834.2
517.4	828.3
517.6	822.7
517.8	819.4
518.0	817.5
518.2	811.6
518.4	806.0
518.6	798.5
518.8	790.8
519.0	785.1
519.2	781.5
519.4	777.9
519.6	774.0
519.8	769.2
520.0	764.5
520.2	757.7
520.4	752.1
520.6	746.8
520.8	739.4
521.0	734.5
521.2	729.3
521.4	725.2
521.6	719.8
521.8	715.4
522.0	710.8
522.2	706.4
522.4	703.3
522.6	699.8
522.8	692.6
523.0	686.9
523.2	681.6
523.4	674.9
523.6	670.8
523.8	666.6
524.0	662.1
524.2	657.7
524.4	656.1
524.6	651.7
524.8	647.4
525.0	642.4
525.2	636.6
525.4	630.5
525.6	626.4
525.8	620.5
526.0	616.1
526.2	612.5
526.4	608.6
526.6	604.6
526.8	601.7
527.0	597.8
527.2	594.1
527.4	590.7
527.6	587.3
527.8	582.6
528.0	578.6
528.2	574.6
528.4	570.6
528.6	566.3
528.8	563.0
529.0	559.6
529.2	555.0
529.4	550.6
529.6	547.3
529.8	543.7
530.0	539.6
530.2	536.2
530.4	532.1
530.6	527.4
530.8	524.1
531.0	520.4
531.2	516.8
531.4	513.0
531.6	510.7
531.8	507.7
532.0	504.0
532.2	499.4
532.4	495.2
532.6	491.5
532.8	489.5
533.0	486.8
533.2	483.7
533.4	479.9
533.6	475.8
533.8	472.8
534.0	469.5
534.2	465.6
534.4	462.5
534.6	458.6
534.8	455.2
535.0	453.0
535.2	450.0
535.4	446.6
535.6	443.8
535.8	440.3
536.0	438.5
536.2	437.0
536.4	433.3
536.6	429.0
536.8	425.2
537.0	422.0
537.2	419.2
537.4	416.1
537.6	413.8
537.8	410.8
538.0	408.0
538.2	404.9
538.4	401.0
538.6	398.0
538.8	396.7
539.0	394.7
539.2	392.4
539.4	389.0
539.6	385.7
539.8	382.3
540.0	378.8
540.2	376.0
540.4	373.8
540.6	370.9
540.8	368.7
541.0	365.6
541.2	363.2
541.4	360.5
541.6	358.4
541.8	355.8
542.0	352.8
542.2	349.4
542.4	347.4
542.6	345.7
542.8	344.1
543.0	342.8
543.2	339.8
543.4	337.2
543.6	334.4
543.8	332.1
544.0	329.3
544.2	327.3
544.4	325.0
544.6	323.0
544.8	320.6
545.0	317.7
545.2	315.0
545.4	313.7
545.6	311.9
545.8	309.6
546.0	307.0
546.2	304.6
546.4	302.4
546.6	300.6
546.8	297.9
547.0	295.5
547.2	293.3
547.4	291.8
547.6	289.9
547.8	288.1
548.0	285.8
548.2	283.1
548.4	281.1
548.6	279.6
548.8	278.2
549.0	276.9
549.2	275.0
549.4	271.8
549.6	268.8
549.8	266.5
550.0	264.4
550.2	263.1
550.4	263.0
550.6	261.6
550.8	260.1
551.0	257.7
551.2	254.6
551.4	252.2
551.6	251.2
551.8	249.2
552.0	247.7
552.2	246.0
552.4	243.8
552.6	241.9
552.8	240.0
553.0	237.8
553.2	236.2
553.4	234.6
553.6	233.5
553.8	232.5
554.0	231.2
554.2	229.7
554.4	228.2
554.6	226.2
554.8	224.4
555.0	222.7
555.2	220.7
555.4	218.6
555.6	216.8
555.8	214.8
556.0	213.2
556.2	212.2
556.4	211.3
556.6	210.3
556.8	209.3
557.0	207.8
557.2	206.2
557.4	204.0
557.6	201.8
557.8	200.0
558.0	198.9
558.2	197.6
558.4	196.3
558.6	194.7
558.8	193.1
559.0	192.0
559.2	191.2
559.4	189.7
559.6	188.9
559.8	187.8
560.0	186.9
560.2	185.2
560.4	183.8
560.6	181.3
560.8	180.0
561.0	178.4
561.2	177.4
561.4	176.4
561.6	175.8
561.8	174.3
562.0	173.0
562.2	171.7
562.4	170.4
562.6	169.2
562.8	168.3
563.0	167.2
563.2	166.3
563.4	165.4
563.6	164.3
563.8	162.8
564.0	161.3
564.2	159.7
564.4	158.2
564.6	156.4
564.8	155.5
565.0	154.5
565.2	153.6
565.4	152.2
565.6	150.9
565.8	149.9
566.0	149.2
566.2	148.1
566.4	146.7
566.6	145.1
566.8	144.1
567.0	143.5
567.2	142.9
567.4	141.6
567.6	140.4
567.8	139.1
568.0	138.5
568.2	137.9
568.4	137.5
568.6	136.7
568.8	135.8
569.0	134.2
569.2	132.6
569.4	131.3
569.6	130.6
569.8	130.0
570.0	129.3
570.2	128.3
570.4	127.1
570.6	126.1
570.8	125.1
571.0	124.0
571.2	123.5
571.4	122.9
571.6	122.1
571.8	121.3
572.0	120.2
572.2	119.1
572.4	118.7
572.6	117.9
572.8	117.2
573.0	115.9
573.2	115.1
573.4	114.2
573.6	113.4
573.8	112.8
574.0	112.2
574.2	111.0
574.4	110.4
574.6	109.3
574.8	108.5
575.0	108.0
575.2	107.2
575.4	106.1
575.6	105.5
575.8	104.7
576.0	104.2
576.2	103.8
576.4	102.8
576.6	101.7
576.8	101.2
577.0	100.1
577.2	99.09
577.4	98.76
577.6	98.46
577.8	97.87
578.0	97.52
578.2	96.56
578.4	95.65
578.6	94.79
578.8	94.03
579.0	93.05
579.2	92.52
579.4	92.08
579.6	91.82
579.8	91.20
580.0	90.49
580.2	89.84
580.4	89.26
580.6	88.52
580.8	88.06
581.0	87.29
581.2	86.25
581.4	85.81
581.6	85.40
581.8	84.83
582.0	84.31
582.2	83.70
582.4	82.76
582.6	81.83
582.8	81.50
583.0	80.74
583.2	80.29
583.4	79.82
583.6	79.10
583.8	78.38
584.0	78.20
584.2	77.69
584.4	77.37
584.6	76.80
584.8	76.14
585.0	75.75
585.2	75.34
585.4	74.91
585.6	74.35
585.8	73.76
586.0	73.06
586.2	72.54
586.4	71.99
586.6	71.61
586.8	71.25
587.0	70.70
587.2	70.08
587.4	69.47
587.6	68.76
587.8	68.22
588.0	67.93
588.2	67.35
588.4	66.83
588.6	66.22
588.8	65.75
589.0	65.44
589.2	65.20
589.4	64.88
589.6	64.51
589.8	64.00
590.0	63.62
590.2	63.17
590.4	62.71
590.6	62.32
590.8	61.65
591.0	61.05
591.2	60.40
591.4	60.01
591.6	59.72
591.8	59.43
592.0	59.03
592.2	58.66
592.4	58.10
592.6	57.71
592.8	57.15
593.0	56.71
593.2	56.34
593.4	56.06
593.6	55.67
593.8	55.38
594.0	54.92
594.2	54.48
594.4	54.14
594.6	53.83
594.8	53.46
595.0	53.33
595.2	52.91
595.4	52.50
595.6	52.15
595.8	51.59
596.0	51.00
596.2	50.57
596.4	50.24
596.6	49.89
596.8	49.66
597.0	49.47
597.2	49.24
597.4	48.91
597.6	48.58
597.8	47.90
598.0	47.39
598.2	46.96
598.4	46.70
598.6	46.42
598.8	46.20
599.0	45.75
599.2	45.65
599.4	45.39
599.6	45.29
599.8	45.06
600.0	44.76
600.2	44.02
600.4	43.77
600.6	43.45
600.8	43.30
601.0	43.11
601.2	42.71
601.4	42.12
601.6	41.95
601.8	41.83
602.0	41.56
602.2	41.21
602.4	40.75
602.6	40.45
602.8	40.17
603.0	39.99
603.2	39.76
603.4	39.57
603.6	39.32
603.8	39.08
604.0	38.81
604.2	38.43
604.4	38.17
604.6	37.74
604.8	37.38
605.0	37.21
605.2	37.12
605.4	36.75
605.6	36.66
605.8	36.31
606.0	36.09
606.2	35.84
606.4	35.59
606.6	35.18
606.8	35.07
607.0	34.75
607.2	34.63
607.4	34.26
607.6	34.07
607.8	33.86
608.0	33.83
608.2	33.50
608.4	33.32
608.6	32.72
608.8	32.35
609.0	32.15
609.2	32.14
609.4	31.92
609.6	31.83
609.8	31.45
610.0	31.24
610.2	30.99
610.4	30.74
610.6	30.51
610.8	30.14
611.0	29.94
611.2	29.82
611.4	29.70
611.6	29.72
611.8	29.50
612.0	29.06
612.2	28.73
612.4	28.56
612.6	28.24
612.8	28.21
613.0	28.11
613.2	28.02
613.4	27.69
613.6	27.69
613.8	27.39
614.0	27.29
614.2	27.17
614.4	26.96
614.6	26.48
614.8	26.23
615.0	25.97
615.2	25.77
615.4	25.54
615.6	25.40
615.8	25.16
616.0	25.12
616.2	25.11
616.4	24.93
616.6	24.69
616.8	24.52
617.0	24.32
617.2	24.31
617.4	24.12
617.6	23.79
617.8	23.51
618.0	23.33
618.2	23.08
618.4	23.08
618.6	22.99
618.8	22.95
619.0	22.87
619.2	22.72
619.4	22.31
619.6	22.02
619.8	21.88
620.0	21.94
620.2	21.79
620.4	21.58
620.6	21.32
620.8	21.10
621.0	20.93
621.2	20.85
621.4	20.77
621.6	20.78
621.8	20.71
622.0	20.60
622.2	20.34
622.4	20.04
622.6	19.94
622.8	20.00
623.0	19.77
623.2	19.63
623.4	19.49
623.6	19.29
623.8	19.16
624.0	19.04
624.2	18.76
624.4	18.54
624.6	18.43
624.8	18.38
625.0	18.29
625.2	18.25
625.4	18.13
625.6	17.94
625.8	17.87
626.0	17.67
626.2	17.43
626.4	17.45
626.6	17.39
626.8	17.26
627.0	17.24
627.2	17.03
627.4	16.80
627.6	16.78
627.8	16.71
628.0	16.59
628.2	16.50
628.4	16.33
628.6	16.09
628.8	15.90
629.0	15.75
629.2	15.76
629.4	15.67
629.6	15.72
629.8	15.60
630.0	15.48
630.2	15.34
630.4	15.24
630.6	14.94
630.8	14.75
631.0	14.57
631.2	14.50
631.4	14.39
631.6	14.34
631.8	14.30
632.0	14.21
632.2	14.15
632.4	14.13
632.6	14.05
632.8	14.07
633.0	14.03
633.2	13.87
633.4	13.59
633.6	13.47
633.8	13.37
634.0	13.35
634.2	13.23
634.4	13.06
634.6	12.80
634.8	12.77
635.0	12.66
635.2	12.75
635.4	12.77
635.6	12.65
635.8	12.49
636.0	12.45
636.2	12.22
636.4	12.10
636.6	11.91
636.8	11.81
637.0	11.78
637.2	11.82
637.4	11.78
637.6	11.69
637.8	11.65
638.0	11.54
638.2	11.49
638.4	11.49
638.6	11.42
638.8	11.34
639.0	11.21
639.2	10.94
639.4	10.81
639.6	10.77
639.8	10.78
640.0	10.79
640.2	10.80
640.4	10.77
640.6	10.68
640.8	10.58
641.0	10.59
641.2	10.47
641.4	10.41
641.6	10.18
641.8	9.998
642.0	9.882
642.2	9.908
642.4	9.945
642.6	9.983
642.8	9.877
643.0	9.829
643.2	9.676
643.4	9.528
643.6	9.403
643.8	9.376
644.0	9.274
644.2	9.358
644.4	9.374
644.6	9.390
644.8	9.307
645.0	9.203
645.2	8.992
645.4	8.951
645.6	8.829
645.8	8.738
646.0	8.701
646.2	8.607
646.4	8.578
646.6	8.476
646.8	8.368
647.0	8.280
647.2	8.288
647.4	8.318
647.6	8.344
647.8	8.229
648.0	8.139
648.2	8.061
648.4	8.010
648.6	7.955
648.8	7.858
649.0	7.823
649.2	7.805
649.4	7.788
649.6	7.759
649.8	7.644
650.0	7.532
650.2	7.494
650.4	7.487
650.6	7.431
650.8	7.350
651.0	7.258
651.2	7.256
651.4	7.283
651.6	7.300
651.8	7.335
652.0	7.262
652.2	7.195
652.4	7.149
652.6	7.029
652.8	6.914
653.0	6.932
653.2	6.870
653.4	6.848
653.6	6.768
653.8	6.708
654.0	6.705
654.2	6.730
654.4	6.606
654.6	6.549
654.8	6.441
655.0	6.436
655.2	6.465
655.4	6.435
655.6	6.343
655.8	6.272
656.0	6.186
656.2	6.204
656.4	6.223
656.6	6.122
656.8	6.052
657.0	5.987
657.2	5.992
657.4	6.019
657.6	6.010
657.8	5.938
658.0	5.886
658.2	5.827
658.4	5.797
658.6	5.700
658.8	5.650
659.0	5.652
659.2	5.670
659.4	5.572
659.6	5.527
659.8	5.465
660.0	5.462
660.2	5.478
660.4	5.473
660.6	5.381
660.8	5.354
661.0	5.326
661.2	5.326
661.4	5.318
661.6	5.282
661.8	5.246
662.0	5.191
662.2	5.176
662.4	5.156
662.6	5.133
662.8	5.116
663.0	5.091
663.2	5.094
663.4	5.080
663.6	5.040
663.8	4.972
664.0	4.888
664.2	4.831
664.4	4.817
664.6	4.790
664.8	4.748
665.0	4.643
665.2	4.611
665.4	4.573
665.6	4.546
665.8	4.562
666.0	4.627
666.2	4.639
666.4	4.668
666.6	4.579
666.8	4.440
667.0	4.360
667.2	4.350
667.4	4.367
667.6	4.408
667.8	4.391
668.0	4.309
668.2	4.322
668.4	4.224
668.6	4.166
668.8	4.188
669.0	4.163
669.2	4.195
669.4	4.274
669.6	4.238
669.8	4.142
670.0	4.096
670.2	4.017
670.4	4.068
670.6	4.081
670.8	4.083
671.0	4.030
671.2	4.017
671.4	3.968
671.6	3.994
671.8	3.907
672.0	3.842
