Sample:	'20211010A(EM)
File name:	G-CDs 7.FDS
Run date:	'10:39:11, 06/11/2023
Operator:	Administrator
Comment:	'

Instrument
Model:	F-4700 FL Spectrophotometer
Serial number:	2019-001
ROM Version:	5J24010 00

Instrument parameters
Measurement type:	Wavelength scan
Scan mode:	Emission
Data mode:	Fluorescence
EX WL:	400.0 nm
EM  Start WL:	420.0 nm
EM  End WL:	800.0 nm
Scan speed:	1200 nm/min
Delay:	0.0 s
EX Slit:	10.0 nm
EM Slit:	10.0 nm
PMT Voltage:	430 V
Response:	0.002 s
Corrected spectra:	Off
Shutter control:	On

Processing performed
Savitsky-Golay smoothed
Smoothing order:	3
Number of points:	7
Number of times:	1

Peak integration
Integration method:	Rectangular
Sensitivity:	1
Threshold:	1.000

Peaks
No.	Start(nm)	Apex(nm)	End(nm)	Height(Data)	Valley(nm)	Valley(Data)
1	420.0	542.0	800.0	7225	800.0	4.124

Data points
nm	Data
420.0	4.570
420.2	4.580
420.4	4.516
420.6	4.430
420.8	4.399
421.0	4.469
421.2	4.525
421.4	4.603
421.6	4.621
421.8	4.679
422.0	4.643
422.2	4.581
422.4	4.583
422.6	4.546
422.8	4.466
423.0	4.562
423.2	4.483
423.4	4.382
423.6	4.448
423.8	4.355
424.0	4.329
424.2	4.443
424.4	4.450
424.6	4.468
424.8	4.509
425.0	4.536
425.2	4.571
425.4	4.651
425.6	4.495
425.8	4.424
426.0	4.506
426.2	4.639
426.4	4.704
426.6	4.706
426.8	4.511
427.0	4.463
427.2	4.567
427.4	4.567
427.6	4.526
427.8	4.557
428.0	4.566
428.2	4.603
428.4	4.558
428.6	4.556
428.8	4.516
429.0	4.598
429.2	4.792
429.4	5.009
429.6	4.872
429.8	4.830
430.0	4.752
430.2	4.729
430.4	4.828
430.6	4.980
430.8	4.758
431.0	4.661
431.2	4.703
431.4	4.726
431.6	4.707
431.8	4.878
432.0	4.762
432.2	4.789
432.4	4.894
432.6	4.951
432.8	5.062
433.0	5.220
433.2	5.082
433.4	5.055
433.6	5.069
433.8	5.167
434.0	5.379
434.2	5.546
434.4	5.528
434.6	5.536
434.8	5.502
435.0	5.535
435.2	5.513
435.4	5.539
435.6	5.498
435.8	5.448
436.0	5.464
436.2	5.647
436.4	5.693
436.6	5.882
436.8	5.980
437.0	5.978
437.2	5.922
437.4	5.929
437.6	5.823
437.8	5.957
438.0	6.019
438.2	6.261
438.4	6.273
438.6	6.301
438.8	6.344
439.0	6.439
439.2	6.565
439.4	6.750
439.6	6.826
439.8	6.947
440.0	6.850
440.2	6.865
440.4	7.137
440.6	7.149
440.8	7.207
441.0	7.172
441.2	6.966
441.4	7.074
441.6	7.293
441.8	7.331
442.0	7.491
442.2	7.404
442.4	7.418
442.6	7.686
442.8	7.675
443.0	7.852
443.2	8.101
443.4	8.143
443.6	8.158
443.8	8.412
444.0	8.344
444.2	8.426
444.4	8.652
444.6	8.943
444.8	8.948
445.0	9.057
445.2	8.918
445.4	8.726
445.6	8.994
445.8	9.090
446.0	9.191
446.2	9.221
446.4	9.266
446.6	9.194
446.8	9.268
447.0	9.061
447.2	9.339
447.4	9.397
447.6	9.813
447.8	9.778
448.0	9.734
448.2	9.760
448.4	9.979
448.6	10.13
448.8	10.31
449.0	10.11
449.2	9.956
449.4	9.962
449.6	9.884
449.8	10.07
450.0	10.26
450.2	10.34
450.4	10.34
450.6	10.43
450.8	10.40
451.0	10.63
451.2	10.78
451.4	10.83
451.6	10.90
451.8	10.70
452.0	10.57
452.2	10.51
452.4	10.35
452.6	10.52
452.8	10.82
453.0	10.90
453.2	11.14
453.4	11.09
453.6	11.05
453.8	11.00
454.0	11.03
454.2	11.20
454.4	11.28
454.6	11.40
454.8	11.57
455.0	11.46
455.2	11.56
455.4	11.45
455.6	11.32
455.8	11.44
456.0	11.43
456.2	11.58
456.4	11.94
456.6	11.89
456.8	11.93
457.0	11.76
457.2	11.45
457.4	11.59
457.6	11.84
457.8	11.98
458.0	12.12
458.2	12.16
458.4	12.08
458.6	12.33
458.8	12.50
459.0	12.69
459.2	12.76
459.4	12.93
459.6	12.94
459.8	12.88
460.0	12.95
460.2	13.27
460.4	13.41
460.6	13.70
460.8	13.97
461.0	14.18
461.2	14.70
461.4	14.95
461.6	14.93
461.8	14.96
462.0	15.18
462.2	15.71
462.4	16.16
462.6	16.62
462.8	16.92
463.0	17.31
463.2	17.68
463.4	18.09
463.6	18.10
463.8	18.38
464.0	18.73
464.2	19.14
464.4	19.49
464.6	19.91
464.8	20.26
465.0	20.92
465.2	21.68
465.4	22.29
465.6	22.94
465.8	23.32
466.0	23.88
466.2	24.38
466.4	24.87
466.6	25.16
466.8	25.66
467.0	26.41
467.2	27.39
467.4	28.55
467.6	30.14
467.8	30.91
468.0	31.37
468.2	31.82
468.4	32.25
468.6	33.13
468.8	34.43
469.0	35.69
469.2	36.71
469.4	37.83
469.6	39.02
469.8	40.17
470.0	41.21
470.2	42.29
470.4	42.84
470.6	44.10
470.8	45.51
471.0	47.35
471.2	48.92
471.4	49.77
471.6	50.54
471.8	51.87
472.0	53.03
472.2	55.35
472.4	56.92
472.6	58.50
472.8	60.49
473.0	62.28
473.2	63.75
473.4	66.08
473.6	67.75
473.8	69.43
474.0	71.12
474.2	73.20
474.4	75.43
474.6	77.46
474.8	79.68
475.0	80.82
475.2	82.20
475.4	84.97
475.6	88.31
475.8	91.62
476.0	94.89
476.2	96.72
476.4	98.11
476.6	100.1
476.8	102.6
477.0	105.6
477.2	108.2
477.4	111.2
477.6	113.1
477.8	115.8
478.0	118.3
478.2	121.1
478.4	124.3
478.6	128.0
478.8	131.0
479.0	134.9
479.2	138.3
479.4	141.2
479.6	144.2
479.8	147.2
480.0	151.0
480.2	154.8
480.4	159.0
480.6	162.4
480.8	166.0
481.0	171.0
481.2	176.0
481.4	179.7
481.6	182.8
481.8	187.2
482.0	191.4
482.2	197.0
482.4	202.3
482.6	206.8
482.8	210.8
483.0	214.9
483.2	218.4
483.4	223.5
483.6	228.9
483.8	234.5
484.0	240.7
484.2	244.8
484.4	250.1
484.6	256.0
484.8	261.0
485.0	268.1
485.2	275.8
485.4	282.2
485.6	289.4
485.8	295.7
486.0	301.5
486.2	308.1
486.4	314.7
486.6	320.7
486.8	327.0
487.0	334.3
487.2	342.4
487.4	350.0
487.6	357.4
487.8	364.9
488.0	372.7
488.2	381.0
488.4	389.9
488.6	398.2
488.8	407.8
489.0	417.6
489.2	426.4
489.4	435.4
489.6	444.6
489.8	454.3
490.0	466.0
490.2	476.8
490.4	487.4
490.6	498.1
490.8	508.1
491.0	519.3
491.2	529.9
491.4	542.5
491.6	556.2
491.8	568.9
492.0	581.7
492.2	594.5
492.4	606.6
492.6	620.4
492.8	633.9
493.0	647.2
493.2	661.6
493.4	676.8
493.6	690.0
493.8	705.2
494.0	720.9
494.2	738.0
494.4	754.0
494.6	771.2
494.8	785.6
495.0	802.6
495.2	819.7
495.4	837.3
495.6	853.9
495.8	871.1
496.0	890.0
496.2	909.9
496.4	932.2
496.6	954.9
496.8	974.0
497.0	993.2
497.2	1013
497.4	1031
497.6	1051
497.8	1074
498.0	1095
498.2	1119
498.4	1144
498.6	1167
498.8	1189
499.0	1214
499.2	1238
499.4	1265
499.6	1291
499.8	1317
500.0	1341
500.2	1366
500.4	1391
500.6	1420
500.8	1448
501.0	1479
501.2	1508
501.4	1537
501.6	1567
501.8	1597
502.0	1625
502.2	1655
502.4	1685
502.6	1714
502.8	1743
503.0	1770
503.2	1798
503.4	1829
503.6	1868
503.8	1903
504.0	1941
504.2	1976
504.4	2007
504.6	2038
504.8	2074
505.0	2107
505.2	2142
505.4	2175
505.6	2209
505.8	2246
506.0	2287
506.2	2327
506.4	2362
506.6	2397
506.8	2431
507.0	2468
507.2	2506
507.4	2544
507.6	2579
507.8	2621
508.0	2656
508.2	2692
508.4	2727
508.6	2764
508.8	2804
509.0	2847
509.2	2887
509.4	2925
509.6	2960
509.8	2994
510.0	3033
510.2	3071
510.4	3112
510.6	3159
510.8	3202
511.0	3243
511.2	3283
511.4	3318
511.6	3355
511.8	3399
512.0	3444
512.2	3489
512.4	3532
512.6	3571
512.8	3607
513.0	3646
513.2	3685
513.4	3728
513.6	3769
513.8	3813
514.0	3851
514.2	3891
514.4	3931
514.6	3969
514.8	4007
515.0	4051
515.2	4088
515.4	4128
515.6	4174
515.8	4220
516.0	4267
516.2	4309
516.4	4343
516.6	4379
516.8	4419
517.0	4457
517.2	4497
517.4	4533
517.6	4572
517.8	4618
518.0	4661
518.2	4702
518.4	4741
518.6	4780
518.8	4820
519.0	4857
519.2	4891
519.4	4931
519.6	4972
519.8	5016
520.0	5053
520.2	5091
520.4	5124
520.6	5159
520.8	5201
521.0	5241
521.2	5274
521.4	5311
521.6	5345
521.8	5380
522.0	5420
522.2	5452
522.4	5485
522.6	5518
522.8	5558
523.0	5596
523.2	5631
523.4	5662
523.6	5693
523.8	5722
524.0	5751
524.2	5782
524.4	5815
524.6	5847
524.8	5880
525.0	5913
525.2	5949
525.4	5979
525.6	6009
525.8	6036
526.0	6063
526.2	6096
526.4	6137
526.6	6165
526.8	6195
527.0	6218
527.2	6238
527.4	6264
527.6	6293
527.8	6316
528.0	6342
528.2	6367
528.4	6390
528.6	6417
528.8	6444
529.0	6462
529.2	6485
529.4	6512
529.6	6542
529.8	6569
530.0	6593
530.2	6605
530.4	6618
530.6	6637
530.8	6660
531.0	6682
531.2	6705
531.4	6729
531.6	6750
531.8	6777
532.0	6794
532.2	6810
532.4	6828
532.6	6839
532.8	6848
533.0	6867
533.2	6881
533.4	6906
533.6	6930
533.8	6947
534.0	6958
534.2	6969
534.4	6980
534.6	6998
534.8	7008
535.0	7021
535.2	7025
535.4	7026
535.6	7039
535.8	7053
536.0	7066
536.2	7088
536.4	7099
536.6	7102
536.8	7108
537.0	7109
537.2	7120
537.4	7137
537.6	7146
537.8	7150
538.0	7147
538.2	7149
538.4	7158
538.6	7171
538.8	7183
539.0	7186
539.2	7184
539.4	7189
539.6	7188
539.8	7192
540.0	7197
540.2	7200
540.4	7205
540.6	7216
540.8	7216
541.0	7213
541.2	7210
541.4	7217
541.6	7217
541.8	7224
542.0	7225
542.2	7218
542.4	7215
542.6	7215
542.8	7208
543.0	7209
543.2	7209
543.4	7205
543.6	7200
543.8	7188
544.0	7185
544.2	7183
544.4	7182
544.6	7190
544.8	7189
545.0	7183
545.2	7178
545.4	7169
545.6	7159
545.8	7154
546.0	7146
546.2	7130
546.4	7120
546.6	7121
546.8	7121
547.0	7123
547.2	7116
547.4	7099
547.6	7093
547.8	7085
548.0	7083
548.2	7073
548.4	7053
548.6	7036
548.8	7027
549.0	7024
549.2	7025
549.4	7018
549.6	7003
549.8	6982
550.0	6962
550.2	6954
550.4	6950
550.6	6946
550.8	6938
551.0	6921
551.2	6901
551.4	6884
551.6	6874
551.8	6864
552.0	6851
552.2	6843
552.4	6830
552.6	6811
552.8	6797
553.0	6785
553.2	6775
553.4	6771
553.6	6763
553.8	6750
554.0	6736
554.2	6718
554.4	6694
554.6	6675
554.8	6657
555.0	6641
555.2	6631
555.4	6621
555.6	6606
555.8	6596
556.0	6583
556.2	6567
556.4	6557
556.6	6541
556.8	6522
557.0	6498
557.2	6472
557.4	6452
557.6	6437
557.8	6419
558.0	6404
558.2	6400
558.4	6386
558.6	6372
558.8	6353
559.0	6332
559.2	6311
559.4	6300
559.6	6285
559.8	6266
560.0	6247
560.2	6226
560.4	6202
560.6	6182
560.8	6168
561.0	6148
561.2	6133
561.4	6114
561.6	6097
561.8	6076
562.0	6056
562.2	6034
562.4	6020
562.6	6004
562.8	5986
563.0	5965
563.2	5942
563.4	5920
563.6	5905
563.8	5885
564.0	5868
564.2	5859
564.4	5841
564.6	5821
564.8	5805
565.0	5781
565.2	5758
565.4	5739
565.6	5714
565.8	5688
566.0	5672
566.2	5654
566.4	5637
566.6	5620
566.8	5602
567.0	5580
567.2	5559
567.4	5535
567.6	5516
567.8	5498
568.0	5483
568.2	5464
568.4	5444
568.6	5420
568.8	5398
569.0	5380
569.2	5364
569.4	5348
569.6	5331
569.8	5311
570.0	5284
570.2	5264
570.4	5241
570.6	5222
570.8	5202
571.0	5182
571.2	5161
571.4	5141
571.6	5121
571.8	5099
572.0	5076
572.2	5056
572.4	5036
572.6	5014
572.8	4999
573.0	4983
573.2	4969
573.4	4952
573.6	4929
573.8	4906
574.0	4884
574.2	4860
574.4	4846
574.6	4825
574.8	4805
575.0	4787
575.2	4771
575.4	4746
575.6	4728
575.8	4710
576.0	4686
576.2	4670
576.4	4651
576.6	4632
576.8	4612
577.0	4592
577.2	4570
577.4	4553
577.6	4535
577.8	4523
578.0	4509
578.2	4493
578.4	4473
578.6	4452
578.8	4429
579.0	4405
579.2	4384
579.4	4369
579.6	4347
579.8	4331
580.0	4312
580.2	4292
580.4	4269
580.6	4253
580.8	4231
581.0	4215
581.2	4195
581.4	4173
581.6	4152
581.8	4132
582.0	4117
582.2	4102
582.4	4086
582.6	4076
582.8	4061
583.0	4044
583.2	4026
583.4	4004
583.6	3984
583.8	3965
584.0	3942
584.2	3925
584.4	3901
584.6	3885
584.8	3867
585.0	3846
585.2	3833
585.4	3819
585.6	3800
585.8	3783
586.0	3763
586.2	3742
586.4	3725
586.6	3708
586.8	3686
587.0	3671
587.2	3658
587.4	3646
587.6	3635
587.8	3624
588.0	3599
588.2	3577
588.4	3558
588.6	3544
588.8	3534
589.0	3521
589.2	3502
589.4	3480
589.6	3463
589.8	3448
590.0	3431
590.2	3410
590.4	3394
590.6	3374
590.8	3357
591.0	3338
591.2	3321
591.4	3308
591.6	3298
591.8	3286
592.0	3270
592.2	3252
592.4	3235
592.6	3220
592.8	3202
593.0	3188
593.2	3173
593.4	3160
593.6	3142
593.8	3127
594.0	3104
594.2	3092
594.4	3081
594.6	3069
594.8	3054
595.0	3037
595.2	3017
595.4	2999
595.6	2986
595.8	2974
596.0	2962
596.2	2949
596.4	2936
596.6	2917
596.8	2902
597.0	2888
597.2	2875
597.4	2858
597.6	2842
597.8	2826
598.0	2815
598.2	2803
598.4	2792
598.6	2776
598.8	2760
599.0	2747
599.2	2733
599.4	2719
599.6	2701
599.8	2686
600.0	2675
600.2	2663
600.4	2653
600.6	2638
600.8	2622
601.0	2608
601.2	2596
601.4	2580
601.6	2569
601.8	2554
602.0	2542
602.2	2529
602.4	2517
602.6	2503
602.8	2492
603.0	2479
603.2	2464
603.4	2447
603.6	2433
603.8	2423
604.0	2410
604.2	2399
604.4	2385
604.6	2372
604.8	2358
605.0	2345
605.2	2328
605.4	2316
605.6	2302
605.8	2293
606.0	2280
606.2	2265
606.4	2254
606.6	2245
606.8	2231
607.0	2219
607.2	2204
607.4	2189
607.6	2177
607.8	2166
608.0	2152
608.2	2143
608.4	2134
608.6	2121
608.8	2109
609.0	2096
609.2	2086
609.4	2076
609.6	2064
609.8	2048
610.0	2037
610.2	2024
610.4	2016
610.6	2003
610.8	1992
611.0	1980
611.2	1971
611.4	1959
611.6	1947
611.8	1931
612.0	1917
612.2	1906
612.4	1897
612.6	1885
612.8	1876
613.0	1863
613.2	1852
613.4	1844
613.6	1833
613.8	1822
614.0	1812
614.2	1800
614.4	1790
614.6	1780
614.8	1769
615.0	1760
615.2	1748
615.4	1739
615.6	1726
615.8	1714
616.0	1704
616.2	1695
616.4	1684
616.6	1676
616.8	1666
617.0	1656
617.2	1647
617.4	1636
617.6	1628
617.8	1617
618.0	1608
618.2	1596
618.4	1585
618.6	1572
618.8	1563
619.0	1553
619.2	1543
619.4	1532
619.6	1521
619.8	1510
620.0	1504
620.2	1498
620.4	1488
620.6	1480
620.8	1469
621.0	1458
621.2	1448
621.4	1440
621.6	1427
621.8	1420
622.0	1412
622.2	1408
622.4	1402
622.6	1394
622.8	1381
623.0	1371
623.2	1359
623.4	1352
623.6	1344
623.8	1337
624.0	1328
624.2	1318
624.4	1308
624.6	1302
624.8	1295
625.0	1287
625.2	1281
625.4	1273
625.6	1264
625.8	1256
626.0	1245
626.2	1232
626.4	1225
626.6	1219
626.8	1211
627.0	1206
627.2	1198
627.4	1188
627.6	1181
627.8	1172
628.0	1164
628.2	1160
628.4	1150
628.6	1144
628.8	1137
629.0	1128
629.2	1120
629.4	1111
629.6	1100
629.8	1094
630.0	1088
630.2	1082
630.4	1076
630.6	1068
630.8	1059
631.0	1053
631.2	1047
631.4	1041
631.6	1034
631.8	1025
632.0	1017
632.2	1012
632.4	1007
632.6	1001
632.8	993.5
633.0	985.3
633.2	978.8
633.4	971.9
633.6	967.1
633.8	963.5
634.0	956.8
634.2	950.4
634.4	944.1
634.6	935.6
634.8	928.7
635.0	924.5
635.2	918.3
635.4	911.4
635.6	906.3
635.8	899.1
636.0	891.2
636.2	885.4
636.4	879.8
636.6	872.3
636.8	869.1
637.0	865.0
637.2	858.8
637.4	853.3
637.6	844.9
637.8	836.5
638.0	830.6
638.2	827.3
638.4	824.7
638.6	820.8
638.8	813.8
639.0	808.4
639.2	803.0
639.4	797.8
639.6	793.5
639.8	788.4
640.0	783.4
640.2	779.0
640.4	771.8
640.6	765.4
640.8	759.3
641.0	755.0
641.2	750.7
641.4	746.5
641.6	740.3
641.8	734.2
642.0	729.5
642.2	724.4
642.4	718.7
642.6	713.5
642.8	708.2
643.0	702.0
643.2	698.9
643.4	695.3
643.6	692.7
643.8	687.9
644.0	682.5
644.2	678.4
644.4	673.5
644.6	669.0
644.8	665.2
645.0	659.8
645.2	654.2
645.4	648.8
645.6	644.1
645.8	639.7
646.0	636.5
646.2	632.0
646.4	626.9
646.6	621.4
646.8	617.7
647.0	613.3
647.2	610.2
647.4	605.6
647.6	602.1
647.8	598.3
648.0	594.1
648.2	589.1
648.4	583.0
648.6	576.1
648.8	573.6
649.0	571.3
649.2	569.3
649.4	566.9
649.6	562.2
649.8	556.7
650.0	554.4
650.2	551.0
650.4	546.7
650.6	542.9
650.8	538.7
651.0	534.3
651.2	532.1
651.4	528.5
651.6	523.5
651.8	520.8
652.0	517.6
652.2	512.3
652.4	509.1
652.6	504.1
652.8	499.5
653.0	497.0
653.2	493.9
653.4	489.8
653.6	486.1
653.8	482.4
654.0	480.0
654.2	477.1
654.4	474.5
654.6	471.2
654.8	467.5
655.0	464.1
655.2	460.8
655.4	457.7
655.6	455.4
655.8	452.4
656.0	448.7
656.2	445.1
656.4	440.8
656.6	436.8
656.8	433.2
657.0	430.8
657.2	428.5
657.4	427.7
657.6	425.5
657.8	422.5
658.0	417.8
658.2	415.0
658.4	412.3
658.6	409.0
658.8	405.5
659.0	402.8
659.2	399.1
659.4	397.0
659.6	394.1
659.8	389.7
660.0	386.9
660.2	383.8
660.4	381.2
660.6	379.6
660.8	378.0
661.0	376.0
661.2	373.8
661.4	370.5
661.6	367.3
661.8	364.8
662.0	362.3
662.2	359.3
662.4	355.9
662.6	352.7
662.8	349.6
663.0	347.2
663.2	344.3
663.4	342.2
663.6	339.0
663.8	335.7
664.0	333.8
664.2	332.2
664.4	331.3
664.6	330.7
664.8	327.6
665.0	324.2
665.2	321.4
665.4	319.1
665.6	318.1
665.8	315.1
666.0	311.9
666.2	308.6
666.4	305.5
666.6	303.9
666.8	302.9
667.0	300.9
667.2	299.0
667.4	296.1
667.6	293.8
667.8	291.6
668.0	289.4
668.2	287.2
668.4	284.7
668.6	281.9
668.8	281.0
669.0	279.6
669.2	278.0
669.4	275.1
669.6	272.1
669.8	270.5
670.0	269.8
670.2	267.8
670.4	265.5
670.6	262.6
670.8	260.5
671.0	258.6
671.2	257.3
671.4	254.8
671.6	252.9
671.8	250.2
672.0	249.4
672.2	247.9
672.4	247.2
672.6	245.2
672.8	243.6
673.0	241.3
673.2	239.9
673.4	237.8
673.6	236.3
673.8	234.0
674.0	232.6
674.2	231.0
674.4	229.3
674.6	226.5
674.8	223.9
675.0	221.9
675.2	220.9
675.4	219.6
675.6	218.4
675.8	217.1
676.0	215.8
676.2	214.2
676.4	213.4
676.6	211.8
676.8	210.1
677.0	208.3
677.2	206.9
677.4	204.7
677.6	203.1
677.8	201.0
678.0	199.2
678.2	197.1
678.4	195.9
678.6	194.4
678.8	193.3
679.0	191.1
679.2	189.4
679.4	188.0
679.6	187.7
679.8	186.9
680.0	187.1
680.2	184.8
680.4	183.1
680.6	180.5
680.8	179.6
681.0	178.4
681.2	178.0
681.4	176.5
681.6	175.2
681.8	174.0
682.0	172.5
682.2	170.6
682.4	169.8
682.6	168.1
682.8	166.7
683.0	165.9
683.2	164.0
683.4	162.6
683.6	161.8
683.8	160.4
684.0	159.1
684.2	157.9
684.4	156.6
684.6	155.3
684.8	154.1
685.0	152.7
685.2	151.0
685.4	150.7
685.6	150.1
685.8	149.1
686.0	148.1
686.2	146.3
686.4	144.5
686.6	144.0
686.8	143.8
687.0	143.8
687.2	143.5
687.4	141.9
687.6	140.2
687.8	137.8
688.0	136.1
688.2	135.8
688.4	135.1
688.6	134.2
688.8	133.4
689.0	131.9
689.2	131.3
689.4	130.7
689.6	129.3
689.8	127.6
690.0	126.3
690.2	125.1
690.4	125.7
690.6	125.4
690.8	124.4
691.0	123.0
691.2	122.2
691.4	120.8
691.6	120.4
691.8	120.1
692.0	118.8
692.2	117.5
692.4	117.0
692.6	115.7
692.8	114.9
693.0	114.6
693.2	113.6
693.4	112.8
693.6	112.0
693.8	111.0
694.0	110.9
694.2	110.5
694.4	109.2
694.6	108.3
694.8	107.0
695.0	106.1
695.2	105.4
695.4	105.2
695.6	103.8
695.8	103.0
696.0	103.1
696.2	102.3
696.4	101.3
696.6	100.9
696.8	100.0
697.0	99.39
697.2	99.05
697.4	98.13
697.6	97.22
697.8	97.05
698.0	96.99
698.2	95.93
698.4	95.11
698.6	94.45
698.8	93.77
699.0	93.39
699.2	92.40
699.4	91.54
699.6	90.49
699.8	90.21
700.0	89.75
700.2	88.90
700.4	88.36
700.6	88.47
700.8	87.59
701.0	87.13
701.2	86.23
701.4	85.04
701.6	84.54
701.8	84.22
702.0	83.77
702.2	83.50
702.4	82.76
702.6	82.26
702.8	81.87
703.0	81.80
703.2	81.78
703.4	81.64
703.6	80.93
703.8	80.39
704.0	79.09
704.2	78.61
704.4	78.55
704.6	78.32
704.8	78.08
705.0	76.96
705.2	75.50
705.4	74.96
705.6	75.00
705.8	74.55
706.0	73.93
706.2	73.33
706.4	72.78
706.6	72.46
706.8	72.19
707.0	71.30
707.2	70.96
707.4	70.99
707.6	70.76
707.8	70.54
708.0	69.94
708.2	69.07
708.4	68.99
708.6	68.25
708.8	68.09
709.0	67.68
709.2	67.21
709.4	66.26
709.6	65.99
709.8	65.23
710.0	65.07
710.2	64.27
710.4	63.78
710.6	62.89
710.8	62.66
711.0	62.21
711.2	62.43
711.4	62.24
711.6	62.09
711.8	61.95
712.0	61.75
712.2	60.92
712.4	60.18
712.6	59.33
712.8	58.62
713.0	58.32
713.2	57.83
713.4	57.52
713.6	56.96
713.8	56.59
714.0	56.30
714.2	55.73
714.4	55.24
714.6	55.00
714.8	54.70
715.0	54.36
715.2	53.91
715.4	53.39
715.6	53.21
715.8	52.79
716.0	52.75
716.2	52.46
716.4	51.82
716.6	51.33
716.8	50.72
717.0	50.23
717.2	50.18
717.4	49.68
717.6	49.25
717.8	48.66
718.0	48.16
718.2	47.94
718.4	47.88
718.6	47.56
718.8	47.74
719.0	47.39
719.2	46.88
719.4	46.24
719.6	45.86
719.8	46.02
720.0	46.09
720.2	45.80
720.4	44.90
720.6	44.11
720.8	43.99
721.0	44.35
721.2	44.08
721.4	43.79
721.6	42.99
721.8	42.42
722.0	42.05
722.2	41.62
722.4	41.09
722.6	40.86
722.8	40.82
723.0	40.63
723.2	40.49
723.4	40.11
723.6	39.43
723.8	38.71
724.0	38.40
724.2	37.90
