Sample:	'20211010A(EM)
File name:	G-CDs 3 300.FDS
Run date:	'10:23:18, 06/11/2023
Operator:	Administrator
Comment:	'

Instrument
Model:	F-4700 FL Spectrophotometer
Serial number:	2019-001
ROM Version:	5J24010 00

Instrument parameters
Measurement type:	Wavelength scan
Scan mode:	Emission
Data mode:	Fluorescence
EX WL:	400.0 nm
EM  Start WL:	420.0 nm
EM  End WL:	800.0 nm
Scan speed:	1200 nm/min
Delay:	0.0 s
EX Slit:	10.0 nm
EM Slit:	10.0 nm
PMT Voltage:	440 V
Response:	0.002 s
Corrected spectra:	Off
Shutter control:	On

Processing performed
Savitsky-Golay smoothed
Smoothing order:	3
Number of points:	7
Number of times:	1

Peak integration
Integration method:	Rectangular
Sensitivity:	1
Threshold:	1.000

Peaks
No.	Start(nm)	Apex(nm)	End(nm)	Height(Data)	Valley(nm)	Valley(Data)
1	420.0	425.2	426.0	11.95	426.0	10.85
2	426.0	546.2	547.2	7422	547.2	7404
3	547.2	548.0	786.4	7437	786.4	6.166

Data points
nm	Data
420.0	10.85
420.2	11.31
420.4	11.40
420.6	11.30
420.8	11.30
421.0	11.39
421.2	11.27
421.4	11.24
421.6	11.21
421.8	11.25
422.0	11.23
422.2	11.13
422.4	10.92
422.6	10.82
422.8	11.16
423.0	11.42
423.2	11.50
423.4	11.37
423.6	11.32
423.8	10.94
424.0	11.08
424.2	11.07
424.4	11.27
424.6	11.34
424.8	11.66
425.0	11.80
425.2	11.95
425.4	11.79
425.6	11.63
425.8	11.12
426.0	10.85
426.2	10.94
426.4	11.01
426.6	11.24
426.8	11.49
427.0	11.40
427.2	11.38
427.4	11.58
427.6	11.67
427.8	11.63
428.0	11.51
428.2	11.29
428.4	11.27
428.6	11.27
428.8	11.38
429.0	11.32
429.2	11.20
429.4	11.39
429.6	11.74
429.8	11.94
430.0	12.07
430.2	12.19
430.4	12.13
430.6	12.16
430.8	12.21
431.0	12.14
431.2	12.14
431.4	12.03
431.6	12.12
431.8	12.16
432.0	12.25
432.2	12.30
432.4	12.44
432.6	12.33
432.8	12.70
433.0	12.82
433.2	12.96
433.4	13.06
433.6	13.05
433.8	12.85
434.0	13.07
434.2	13.09
434.4	13.33
434.6	13.83
434.8	14.13
435.0	14.04
435.2	13.87
435.4	13.56
435.6	13.46
435.8	13.88
436.0	14.25
436.2	14.28
436.4	14.50
436.6	14.62
436.8	14.82
437.0	15.03
437.2	15.00
437.4	15.08
437.6	15.64
437.8	15.86
438.0	16.11
438.2	16.02
438.4	15.80
438.6	15.94
438.8	16.13
439.0	16.20
439.2	16.70
439.4	16.95
439.6	17.17
439.8	17.47
440.0	17.66
440.2	17.80
440.4	18.23
440.6	18.36
440.8	18.56
441.0	19.00
441.2	19.13
441.4	19.30
441.6	19.64
441.8	19.93
442.0	20.63
442.2	20.93
442.4	20.74
442.6	20.88
442.8	21.19
443.0	21.75
443.2	22.43
443.4	22.72
443.6	22.86
443.8	23.07
444.0	23.30
444.2	23.43
444.4	23.33
444.6	23.77
444.8	24.27
445.0	24.84
445.2	25.71
445.4	26.07
445.6	26.60
445.8	26.90
446.0	27.38
446.2	27.77
446.4	28.29
446.6	28.42
446.8	28.52
447.0	28.53
447.2	28.90
447.4	29.65
447.6	30.49
447.8	30.89
448.0	30.95
448.2	31.16
448.4	31.18
448.6	31.98
448.8	32.60
449.0	32.70
449.2	32.91
449.4	33.13
449.6	33.00
449.8	33.32
450.0	33.16
450.2	33.43
450.4	33.85
450.6	34.58
450.8	35.29
451.0	35.74
451.2	35.89
451.4	36.42
451.6	36.45
451.8	36.44
452.0	36.88
452.2	37.22
452.4	37.59
452.6	37.95
452.8	37.78
453.0	37.41
453.2	37.62
453.4	37.89
453.6	38.35
453.8	38.51
454.0	38.13
454.2	38.45
454.4	38.74
454.6	38.91
454.8	39.57
455.0	39.39
455.2	39.20
455.4	39.65
455.6	39.86
455.8	39.62
456.0	40.11
456.2	40.28
456.4	40.75
456.6	41.35
456.8	41.77
457.0	41.36
457.2	41.40
457.4	41.37
457.6	41.04
457.8	41.23
458.0	41.05
458.2	40.95
458.4	41.67
458.6	42.07
458.8	42.02
459.0	42.10
459.2	41.99
459.4	41.85
459.6	42.24
459.8	42.23
460.0	42.27
460.2	42.09
460.4	42.54
460.6	43.13
460.8	43.32
461.0	43.52
461.2	43.87
461.4	44.05
461.6	44.42
461.8	44.62
462.0	44.53
462.2	44.63
462.4	45.20
462.6	46.04
462.8	46.36
463.0	46.28
463.2	46.06
463.4	45.93
463.6	46.12
463.8	46.87
464.0	47.51
464.2	48.57
464.4	48.98
464.6	49.47
464.8	49.55
465.0	49.65
465.2	49.55
465.4	50.16
465.6	50.45
465.8	51.50
466.0	52.13
466.2	52.96
466.4	53.44
466.6	54.12
466.8	55.34
467.0	56.67
467.2	57.35
467.4	58.52
467.6	59.23
467.8	59.83
468.0	60.75
468.2	61.24
468.4	62.16
468.6	63.51
468.8	64.40
469.0	65.48
469.2	66.46
469.4	67.82
469.6	69.61
469.8	71.02
470.0	72.39
470.2	73.96
470.4	75.11
470.6	76.24
470.8	77.83
471.0	78.76
471.2	80.44
471.4	82.34
471.6	83.77
471.8	84.82
472.0	86.77
472.2	88.59
472.4	90.78
472.6	93.17
472.8	95.14
473.0	97.58
473.2	99.70
473.4	101.7
473.6	103.7
473.8	104.9
474.0	107.5
474.2	110.6
474.4	113.8
474.6	116.5
474.8	119.1
475.0	120.8
475.2	123.6
475.4	125.3
475.6	128.2
475.8	130.9
476.0	133.9
476.2	137.3
476.4	140.1
476.6	143.6
476.8	146.9
477.0	149.3
477.2	152.3
477.4	156.0
477.6	159.4
477.8	163.5
478.0	167.0
478.2	169.7
478.4	172.4
478.6	175.9
478.8	179.7
479.0	184.3
479.2	189.0
479.4	193.8
479.6	197.8
479.8	201.9
480.0	205.5
480.2	209.5
480.4	213.1
480.6	217.6
480.8	221.7
481.0	226.6
481.2	230.6
481.4	234.8
481.6	239.2
481.8	245.1
482.0	250.3
482.2	256.3
482.4	260.8
482.6	265.7
482.8	271.3
483.0	277.2
483.2	282.0
483.4	287.0
483.6	291.4
483.8	296.7
484.0	303.2
484.2	310.6
484.4	317.3
484.6	323.2
484.8	328.6
485.0	335.1
485.2	341.3
485.4	348.2
485.6	353.7
485.8	358.9
486.0	364.1
486.2	371.1
486.4	377.7
486.6	385.6
486.8	393.8
487.0	401.2
487.2	408.5
487.4	416.5
487.6	423.4
487.8	431.7
488.0	439.8
488.2	447.5
488.4	455.5
488.6	465.0
488.8	472.9
489.0	481.1
489.2	487.7
489.4	495.2
489.6	503.9
489.8	513.8
490.0	525.0
490.2	536.2
490.4	545.8
490.6	555.5
490.8	564.3
491.0	574.2
491.2	586.1
491.4	597.7
491.6	608.8
491.8	620.3
492.0	630.0
492.2	642.0
492.4	652.6
492.6	664.2
492.8	674.5
493.0	687.4
493.2	699.1
493.4	710.5
493.6	722.2
493.8	736.6
494.0	749.3
494.2	765.6
494.4	779.2
494.6	790.9
494.8	805.2
495.0	822.4
495.2	839.0
495.4	855.5
495.6	869.5
495.8	883.4
496.0	896.9
496.2	913.9
496.4	930.2
496.6	947.2
496.8	964.5
497.0	983.1
497.2	998.8
497.4	1015
497.6	1031
497.8	1050
498.0	1069
498.2	1088
498.4	1107
498.6	1125
498.8	1144
499.0	1164
499.2	1184
499.4	1203
499.6	1224
499.8	1246
500.0	1270
500.2	1294
500.4	1316
500.6	1338
500.8	1359
501.0	1382
501.2	1408
501.4	1432
501.6	1454
501.8	1476
502.0	1498
502.2	1522
502.4	1551
502.6	1577
502.8	1602
503.0	1628
503.2	1654
503.4	1681
503.6	1708
503.8	1734
504.0	1761
504.2	1787
504.4	1814
504.6	1842
504.8	1869
505.0	1899
505.2	1930
505.4	1958
505.6	1988
505.8	2021
506.0	2054
506.2	2087
506.4	2115
506.6	2141
506.8	2164
507.0	2193
507.2	2226
507.4	2260
507.6	2296
507.8	2331
508.0	2361
508.2	2390
508.4	2419
508.6	2454
508.8	2486
509.0	2523
509.2	2554
509.4	2588
509.6	2624
509.8	2664
510.0	2699
510.2	2738
510.4	2770
510.6	2801
510.8	2837
511.0	2871
511.2	2908
511.4	2945
511.6	2982
511.8	3017
512.0	3055
512.2	3089
512.4	3120
512.6	3154
512.8	3190
513.0	3226
513.2	3266
513.4	3299
513.6	3332
513.8	3371
514.0	3410
514.2	3447
514.4	3485
514.6	3517
514.8	3557
515.0	3595
515.2	3634
515.4	3667
515.6	3705
515.8	3747
516.0	3789
516.2	3827
516.4	3864
516.6	3898
516.8	3934
517.0	3975
517.2	4017
517.4	4049
517.6	4081
517.8	4112
518.0	4146
518.2	4184
518.4	4227
518.6	4267
518.8	4305
519.0	4343
519.2	4381
519.4	4415
519.6	4448
519.8	4484
520.0	4519
520.2	4561
520.4	4601
520.6	4643
520.8	4683
521.0	4717
521.2	4745
521.4	4775
521.6	4810
521.8	4849
522.0	4890
522.2	4925
522.4	4953
522.6	4989
522.8	5030
523.0	5069
523.2	5108
523.4	5144
523.6	5178
523.8	5214
524.0	5245
524.2	5277
524.4	5308
524.6	5344
524.8	5378
525.0	5411
525.2	5439
525.4	5477
525.6	5513
525.8	5549
526.0	5583
526.2	5614
526.4	5640
526.6	5672
526.8	5701
527.0	5733
527.2	5763
527.4	5785
527.6	5808
527.8	5831
528.0	5862
528.2	5902
528.4	5942
528.6	5981
528.8	6009
529.0	6028
529.2	6054
529.4	6085
529.6	6114
529.8	6149
530.0	6178
530.2	6205
530.4	6232
530.6	6265
530.8	6290
531.0	6314
531.2	6342
531.4	6369
531.6	6394
531.8	6426
532.0	6444
532.2	6471
532.4	6496
532.6	6523
532.8	6551
533.0	6576
533.2	6590
533.4	6615
533.6	6634
533.8	6646
534.0	6665
534.2	6684
534.4	6708
534.6	6732
534.8	6760
535.0	6777
535.2	6804
535.4	6827
535.6	6853
535.8	6868
536.0	6886
536.2	6899
536.4	6913
536.6	6926
536.8	6942
537.0	6956
537.2	6977
537.4	6996
537.6	7016
537.8	7038
538.0	7053
538.2	7063
538.4	7072
538.6	7083
538.8	7096
539.0	7112
539.2	7135
539.4	7153
539.6	7168
539.8	7178
540.0	7184
540.2	7191
540.4	7199
540.6	7215
540.8	7226
541.0	7238
541.2	7256
541.4	7270
541.6	7277
541.8	7290
542.0	7303
542.2	7309
542.4	7321
542.6	7326
542.8	7332
543.0	7333
543.2	7336
543.4	7331
543.6	7339
543.8	7352
544.0	7363
544.2	7364
544.4	7368
544.6	7373
544.8	7384
545.0	7400
545.2	7407
545.4	7407
545.6	7413
545.8	7420
546.0	7418
546.2	7422
546.4	7420
546.6	7416
546.8	7412
547.0	7406
547.2	7404
547.4	7408
547.6	7415
547.8	7428
548.0	7437
548.2	7433
548.4	7425
548.6	7420
548.8	7412
549.0	7414
549.2	7416
549.4	7417
549.6	7408
549.8	7409
550.0	7405
550.2	7404
550.4	7401
550.6	7394
550.8	7391
551.0	7391
551.2	7388
551.4	7385
551.6	7376
551.8	7365
552.0	7359
552.2	7356
552.4	7350
552.6	7343
552.8	7335
553.0	7324
553.2	7313
553.4	7314
553.6	7315
553.8	7313
554.0	7305
554.2	7297
554.4	7283
554.6	7271
554.8	7259
555.0	7252
555.2	7247
555.4	7249
555.6	7235
555.8	7227
556.0	7212
556.2	7200
556.4	7189
556.6	7178
556.8	7160
557.0	7153
557.2	7148
557.4	7136
557.6	7119
557.8	7106
558.0	7086
558.2	7073
558.4	7075
558.6	7069
558.8	7060
559.0	7051
559.2	7030
559.4	7009
559.6	6996
559.8	6984
560.0	6978
560.2	6973
560.4	6962
560.6	6946
560.8	6927
561.0	6908
561.2	6889
561.4	6882
561.6	6865
561.8	6854
562.0	6838
562.2	6822
562.4	6807
562.6	6798
562.8	6782
563.0	6762
563.2	6747
563.4	6730
563.6	6715
563.8	6703
564.0	6690
564.2	6672
564.4	6655
564.6	6634
564.8	6613
565.0	6602
565.2	6590
565.4	6579
565.6	6551
565.8	6530
566.0	6505
566.2	6494
566.4	6482
566.6	6470
566.8	6453
567.0	6436
567.2	6412
567.4	6395
567.6	6374
567.8	6357
568.0	6340
568.2	6325
568.4	6309
568.6	6294
568.8	6278
569.0	6264
569.2	6244
569.4	6225
569.6	6207
569.8	6182
570.0	6162
570.2	6147
570.4	6127
570.6	6109
570.8	6090
571.0	6070
571.2	6048
571.4	6035
571.6	6018
571.8	5999
572.0	5981
572.2	5960
572.4	5935
572.6	5922
572.8	5909
573.0	5889
573.2	5866
573.4	5844
573.6	5822
573.8	5801
574.0	5787
574.2	5767
574.4	5747
574.6	5731
574.8	5715
575.0	5696
575.2	5679
575.4	5657
575.6	5637
575.8	5618
576.0	5601
576.2	5582
576.4	5562
576.6	5542
576.8	5520
577.0	5501
577.2	5491
577.4	5472
577.6	5449
577.8	5424
578.0	5395
578.2	5367
578.4	5356
578.6	5344
578.8	5330
579.0	5315
579.2	5294
579.4	5265
579.6	5237
579.8	5214
580.0	5193
580.2	5177
580.4	5162
580.6	5148
580.8	5126
581.0	5105
581.2	5082
581.4	5060
581.6	5040
581.8	5026
582.0	5011
582.2	4995
582.4	4974
582.6	4947
582.8	4925
583.0	4908
583.2	4890
583.4	4876
583.6	4862
583.8	4841
584.0	4825
584.2	4803
584.4	4777
584.6	4757
584.8	4740
585.0	4720
585.2	4706
585.4	4688
585.6	4669
585.8	4651
586.0	4630
586.2	4607
586.4	4589
586.6	4569
586.8	4549
587.0	4534
587.2	4519
587.4	4503
587.6	4488
587.8	4468
588.0	4443
588.2	4425
588.4	4406
588.6	4387
588.8	4372
589.0	4357
589.2	4337
589.4	4318
589.6	4296
589.8	4276
590.0	4258
590.2	4240
590.4	4228
590.6	4211
590.8	4191
591.0	4174
591.2	4153
591.4	4133
591.6	4116
591.8	4097
592.0	4081
592.2	4066
592.4	4045
592.6	4028
592.8	4010
593.0	3992
593.2	3975
593.4	3957
593.6	3936
593.8	3915
594.0	3897
594.2	3882
594.4	3863
594.6	3852
594.8	3838
595.0	3819
595.2	3804
595.4	3787
595.6	3759
595.8	3741
596.0	3727
596.2	3712
596.4	3699
596.6	3683
596.8	3663
597.0	3645
597.2	3629
597.4	3617
597.6	3603
597.8	3587
598.0	3573
598.2	3552
598.4	3528
598.6	3512
598.8	3492
599.0	3474
599.2	3459
599.4	3446
599.6	3433
599.8	3420
600.0	3404
600.2	3388
600.4	3368
600.6	3353
600.8	3333
601.0	3313
601.2	3297
601.4	3287
601.6	3275
601.8	3265
602.0	3249
602.2	3226
602.4	3206
602.6	3188
602.8	3170
603.0	3158
603.2	3150
603.4	3136
603.6	3121
603.8	3105
604.0	3085
604.2	3069
604.4	3056
604.6	3041
604.8	3025
605.0	3009
605.2	2993
605.4	2974
605.6	2958
605.8	2945
606.0	2930
606.2	2919
606.4	2907
606.6	2889
606.8	2869
607.0	2853
607.2	2839
607.4	2831
607.6	2820
607.8	2807
608.0	2787
608.2	2771
608.4	2752
608.6	2739
608.8	2724
609.0	2709
609.2	2693
609.4	2678
609.6	2664
609.8	2654
610.0	2640
610.2	2627
610.4	2614
610.6	2597
610.8	2585
611.0	2571
611.2	2556
611.4	2543
611.6	2532
611.8	2515
612.0	2498
612.2	2480
612.4	2464
612.6	2453
612.8	2443
613.0	2432
613.2	2416
613.4	2403
613.6	2390
613.8	2375
614.0	2363
614.2	2352
614.4	2337
614.6	2326
614.8	2316
615.0	2300
615.2	2286
615.4	2274
615.6	2261
615.8	2247
616.0	2232
616.2	2215
616.4	2201
616.6	2190
616.8	2181
617.0	2173
617.2	2159
617.4	2147
617.6	2134
617.8	2121
618.0	2107
618.2	2092
618.4	2077
618.6	2066
618.8	2055
619.0	2043
619.2	2031
619.4	2017
619.6	2004
619.8	1996
620.0	1987
620.2	1977
620.4	1968
620.6	1955
620.8	1940
621.0	1928
621.2	1915
621.4	1905
621.6	1895
621.8	1884
622.0	1871
622.2	1859
622.4	1848
622.6	1839
622.8	1829
623.0	1819
623.2	1804
623.4	1791
623.6	1780
623.8	1769
624.0	1761
624.2	1751
624.4	1739
624.6	1728
624.8	1720
625.0	1709
625.2	1700
625.4	1689
625.6	1679
625.8	1668
626.0	1658
626.2	1649
626.4	1639
626.6	1629
626.8	1620
627.0	1609
627.2	1595
627.4	1582
627.6	1569
627.8	1559
628.0	1552
628.2	1545
628.4	1536
628.6	1525
628.8	1515
629.0	1503
629.2	1493
629.4	1483
629.6	1472
629.8	1460
630.0	1453
630.2	1444
630.4	1437
630.6	1428
630.8	1418
631.0	1409
631.2	1401
631.4	1394
631.6	1384
631.8	1371
632.0	1363
632.2	1354
632.4	1348
632.6	1344
632.8	1336
633.0	1325
633.2	1317
633.4	1306
633.6	1296
633.8	1289
634.0	1280
634.2	1270
634.4	1261
634.6	1253
634.8	1245
635.0	1238
635.2	1231
635.4	1222
635.6	1213
635.8	1206
636.0	1198
636.2	1190
636.4	1182
636.6	1174
636.8	1166
637.0	1161
637.2	1155
637.4	1148
637.6	1139
637.8	1130
638.0	1123
638.2	1114
638.4	1106
638.6	1098
638.8	1092
639.0	1085
639.2	1079
639.4	1072
639.6	1066
639.8	1058
640.0	1051
640.2	1043
640.4	1035
640.6	1029
640.8	1023
641.0	1017
641.2	1009
641.4	1003
641.6	996.0
641.8	990.1
642.0	986.2
642.2	980.0
642.4	972.3
642.6	966.8
642.8	959.0
643.0	952.8
643.2	947.6
643.4	940.5
643.6	931.9
643.8	924.1
644.0	916.7
644.2	910.2
644.4	904.8
644.6	900.3
644.8	893.1
645.0	886.5
645.2	881.3
645.4	876.5
645.6	873.8
645.8	867.6
646.0	860.6
646.2	853.2
646.4	845.8
646.6	841.6
646.8	838.5
647.0	832.3
647.2	824.6
647.4	816.3
647.6	809.1
647.8	806.3
648.0	802.5
648.2	798.6
648.4	792.5
648.6	786.6
648.8	781.7
649.0	775.8
649.2	769.5
649.4	765.1
649.6	760.7
649.8	756.2
650.0	751.6
650.2	745.5
650.4	739.7
650.6	735.9
650.8	730.6
651.0	724.7
651.2	718.3
651.4	712.5
651.6	707.1
651.8	703.1
652.0	699.6
652.2	696.2
652.4	691.3
652.6	686.0
652.8	681.6
653.0	676.9
653.2	672.0
653.4	666.7
653.6	661.7
653.8	658.2
654.0	655.6
654.2	652.3
654.4	647.3
654.6	641.2
654.8	635.7
655.0	630.8
655.2	626.4
655.4	621.0
655.6	616.2
655.8	611.2
656.0	608.3
656.2	603.5
656.4	599.4
656.6	594.3
656.8	590.3
657.0	586.2
657.2	584.4
657.4	579.5
657.6	577.1
657.8	573.7
658.0	568.8
658.2	563.7
658.4	558.6
658.6	553.7
658.8	551.8
659.0	549.2
659.2	545.2
659.4	540.6
659.6	536.1
659.8	531.9
660.0	527.7
660.2	522.7
660.4	517.7
660.6	514.5
660.8	511.6
661.0	509.2
661.2	505.8
661.4	501.4
661.6	498.2
661.8	496.0
662.0	493.1
662.2	490.3
662.4	486.2
662.6	481.1
662.8	478.5
663.0	474.1
663.2	471.5
663.4	469.1
663.6	466.5
663.8	463.4
664.0	462.0
664.2	456.9
664.4	451.7
664.6	447.8
664.8	445.1
665.0	441.6
665.2	439.4
665.4	436.7
665.6	433.8
665.8	430.4
666.0	427.4
666.2	422.8
666.4	419.0
666.6	416.8
666.8	415.3
667.0	411.2
667.2	408.3
667.4	406.8
667.6	405.1
667.8	403.2
668.0	400.4
668.2	397.1
668.4	394.0
668.6	390.8
668.8	386.8
669.0	382.7
669.2	379.7
669.4	377.9
669.6	376.3
669.8	373.6
670.0	370.3
670.2	367.9
670.4	365.2
670.6	361.6
670.8	359.5
671.0	356.2
671.2	353.4
671.4	352.0
671.6	350.0
671.8	346.6
672.0	343.9
672.2	339.7
672.4	336.8
672.6	334.5
672.8	333.2
673.0	329.7
673.2	327.8
673.4	324.4
673.6	322.6
673.8	320.6
674.0	319.1
674.2	316.4
674.4	315.0
674.6	311.4
674.8	308.1
675.0	304.9
675.2	302.3
675.4	299.9
675.6	298.9
675.8	296.7
676.0	295.0
676.2	293.8
676.4	292.3
676.6	289.4
676.8	287.2
677.0	284.4
677.2	282.9
677.4	281.7
677.6	279.0
677.8	275.9
678.0	274.0
678.2	271.1
678.4	269.7
678.6	267.5
678.8	264.9
679.0	262.4
679.2	260.8
679.4	258.8
679.6	258.0
679.8	256.3
680.0	254.7
680.2	252.0
680.4	249.8
680.6	247.5
680.8	246.2
681.0	244.2
681.2	242.3
681.4	240.0
681.6	238.2
681.8	236.7
682.0	234.9
682.2	233.5
682.4	231.3
682.6	229.8
682.8	227.8
683.0	226.1
683.2	225.1
683.4	224.0
683.6	222.8
683.8	221.3
684.0	219.8
684.2	217.6
684.4	216.3
684.6	214.1
684.8	212.8
685.0	211.1
685.2	210.3
685.4	209.1
685.6	207.5
685.8	205.5
686.0	203.3
686.2	201.6
686.4	200.0
686.6	198.5
686.8	197.2
687.0	195.2
687.2	193.2
687.4	191.6
687.6	190.8
687.8	189.5
688.0	188.2
688.2	185.9
688.4	185.1
688.6	183.9
688.8	182.7
689.0	181.5
689.2	180.1
689.4	179.2
689.6	178.9
689.8	177.8
690.0	175.8
690.2	173.2
690.4	171.7
690.6	171.1
690.8	169.8
691.0	168.4
691.2	166.8
691.4	164.0
691.6	162.9
691.8	162.0
692.0	160.8
692.2	160.8
692.4	160.9
692.6	160.2
692.8	159.3
693.0	157.6
693.2	155.6
693.4	154.0
693.6	152.8
693.8	151.7
694.0	151.0
694.2	150.1
694.4	149.6
694.6	148.8
694.8	147.9
695.0	146.3
695.2	144.6
695.4	142.8
695.6	142.2
695.8	141.7
696.0	141.8
696.2	141.3
696.4	139.9
696.6	138.0
696.8	137.0
697.0	136.2
697.2	135.1
697.4	134.6
697.6	133.1
697.8	131.6
698.0	131.5
698.2	130.7
698.4	129.9
698.6	129.3
698.8	128.5
699.0	127.5
699.2	127.0
699.4	126.2
699.6	125.7
699.8	124.9
700.0	124.2
700.2	122.9
700.4	121.6
700.6	120.4
700.8	118.7
701.0	117.6
701.2	116.7
701.4	117.1
701.6	117.1
701.8	116.6
702.0	115.6
702.2	115.0
702.4	113.6
702.6	112.9
702.8	111.7
703.0	111.2
703.2	111.1
703.4	110.2
703.6	109.7
703.8	109.0
704.0	107.9
704.2	107.2
704.4	106.6
704.6	105.4
704.8	105.0
705.0	105.2
705.2	104.5
705.4	103.2
705.6	102.1
705.8	100.9
706.0	100.0
706.2	100.3
706.4	100.7
706.6	100.5
706.8	99.27
707.0	98.05
707.2	97.11
707.4	96.51
707.6	96.47
707.8	96.12
708.0	95.08
708.2	94.63
708.4	94.08
708.6	93.15
708.8	91.81
709.0	90.75
709.2	90.13
709.4	90.17
709.6	90.45
709.8	90.12
710.0	89.17
710.2	87.97
710.4	87.26
710.6	86.46
710.8	85.94
711.0	85.19
711.2	84.60
711.4	84.86
711.6	85.01
711.8	84.44
712.0	83.13
712.2	81.82
712.4	80.80
712.6	80.48
712.8	80.18
713.0	79.75
713.2	78.41
713.4	77.77
713.6	77.31
713.8	77.16
714.0	77.39
714.2	77.14
714.4	76.20
714.6	75.45
714.8	74.66
715.0	74.01
715.2	73.23
715.4	73.04
715.6	72.48
715.8	72.25
716.0	71.91
716.2	71.06
716.4	70.64
716.6	70.72
716.8	70.00
717.0	69.70
717.2	69.28
717.4	68.29
717.6	67.84
717.8	66.88
718.0	66.05
718.2	65.56
718.4	65.51
718.6	65.48
718.8	65.32
719.0	64.32
719.2	63.32
719.4	62.46
719.6	61.56
719.8	61.12
720.0	61.10
720.2	61.01
720.4	60.63
720.6	60.69
720.8	60.31
721.0	59.62
721.2	59.05
721.4	58.27
721.6	57.44
721.8	56.99
722.0	56.84
722.2	56.22
722.4	55.64
722.6	55.07
722.8	54.60
723.0	53.92
723.2	53.61
723.4	53.25
723.6	52.97
