Sample:	'20211010A(EM)
File name:	500uM.FDS
Run date:	'11:00:21, 03/23/2023
Operator:	Administrator
Comment:	'

Instrument
Model:	F-4700 FL Spectrophotometer
Serial number:	2019-001
ROM Version:	5J24010 00

Instrument parameters
Measurement type:	Wavelength scan
Scan mode:	Emission
Data mode:	Fluorescence
EX WL:	520.0 nm
EM  Start WL:	540.0 nm
EM  End WL:	900.0 nm
Scan speed:	1200 nm/min
Delay:	0.0 s
EX Slit:	10.0 nm
EM Slit:	10.0 nm
PMT Voltage:	570 V
Response:	0.002 s
Corrected spectra:	Off
Shutter control:	On

Processing performed
Savitsky-Golay smoothed
Smoothing order:	3
Number of points:	7
Number of times:	1

Peak integration
Integration method:	Rectangular
Sensitivity:	1
Threshold:	1.000

Peaks
No.	Start(nm)	Apex(nm)	End(nm)	Height(Data)	Valley(nm)	Valley(Data)
1	540.0	621.4	622.2	*****   	622.2	9991
2	622.2	623.4	624.2	*****   	624.2	9982
3	624.2	625.0	789.6	*****   	789.6	69.54
4	789.6	790.2	798.8	71.70	798.8	56.78
5	798.8	799.4	805.4	58.26	805.4	47.20
6	805.4	806.0	813.0	49.53	813.0	39.21
7	813.0	813.8	816.8	40.35	816.8	34.82
8	816.8	817.8	900.0	36.67	900.0	3.511

Data points
nm	Data
540.0	2175
540.2	2184
540.4	2193
540.6	2204
540.8	2218
541.0	2235
541.2	2247
541.4	2249
541.6	2243
541.8	2243
542.0	2250
542.2	2266
542.4	2281
542.6	2293
542.8	2295
543.0	2303
543.2	2309
543.4	2310
543.6	2314
543.8	2316
544.0	2319
544.2	2330
544.4	2341
544.6	2349
544.8	2359
545.0	2368
545.2	2377
545.4	2387
545.6	2392
545.8	2399
546.0	2402
546.2	2409
546.4	2420
546.6	2427
546.8	2434
547.0	2443
547.2	2451
547.4	2460
547.6	2471
547.8	2478
548.0	2483
548.2	2483
548.4	2489
548.6	2500
548.8	2513
549.0	2528
549.2	2537
549.4	2546
549.6	2552
549.8	2561
550.0	2567
550.2	2581
550.4	2588
550.6	2599
550.8	2606
551.0	2616
551.2	2623
551.4	2636
551.6	2642
551.8	2649
552.0	2664
552.2	2676
552.4	2681
552.6	2689
552.8	2703
553.0	2713
553.2	2732
553.4	2748
553.6	2757
553.8	2771
554.0	2787
554.2	2794
554.4	2808
554.6	2825
554.8	2837
555.0	2841
555.2	2851
555.4	2859
555.6	2876
555.8	2896
556.0	2910
556.2	2912
556.4	2925
556.6	2939
556.8	2960
557.0	2982
557.2	2996
557.4	3006
557.6	3018
557.8	3035
558.0	3053
558.2	3069
558.4	3084
558.6	3107
558.8	3123
559.0	3143
559.2	3160
559.4	3174
559.6	3188
559.8	3208
560.0	3222
560.2	3247
560.4	3273
560.6	3296
560.8	3317
561.0	3334
561.2	3352
561.4	3380
561.6	3402
561.8	3421
562.0	3440
562.2	3460
562.4	3475
562.6	3494
562.8	3520
563.0	3547
563.2	3575
563.4	3603
563.6	3622
563.8	3636
564.0	3659
564.2	3680
564.4	3707
564.6	3727
564.8	3752
565.0	3781
565.2	3806
565.4	3835
565.6	3859
565.8	3878
566.0	3906
566.2	3931
566.4	3956
566.6	3989
566.8	4015
567.0	4044
567.2	4077
567.4	4097
567.6	4122
567.8	4160
568.0	4185
568.2	4215
568.4	4240
568.6	4259
568.8	4276
569.0	4306
569.2	4337
569.4	4375
569.6	4406
569.8	4439
570.0	4472
570.2	4504
570.4	4530
570.6	4554
570.8	4580
571.0	4610
571.2	4655
571.4	4693
571.6	4721
571.8	4757
572.0	4788
572.2	4818
572.4	4848
572.6	4881
572.8	4904
573.0	4937
573.2	4968
573.4	5002
573.6	5031
573.8	5068
574.0	5091
574.2	5128
574.4	5163
574.6	5198
574.8	5234
575.0	5269
575.2	5301
575.4	5347
575.6	5380
575.8	5411
576.0	5442
576.2	5465
576.4	5501
576.6	5545
576.8	5580
577.0	5619
577.2	5653
577.4	5676
577.6	5706
577.8	5741
578.0	5773
578.2	5813
578.4	5845
578.6	5880
578.8	5922
579.0	5953
579.2	5982
579.4	6013
579.6	6035
579.8	6075
580.0	6121
580.2	6155
580.4	6196
580.6	6237
580.8	6267
581.0	6300
581.2	6328
581.4	6361
581.6	6398
581.8	6433
582.0	6460
582.2	6490
582.4	6518
582.6	6556
582.8	6590
583.0	6614
583.2	6646
583.4	6677
583.6	6706
583.8	6733
584.0	6753
584.2	6779
584.4	6810
584.6	6842
584.8	6879
585.0	6918
585.2	6951
585.4	6995
585.6	7034
585.8	7070
586.0	7096
586.2	7121
586.4	7140
586.6	7169
586.8	7206
587.0	7245
587.2	7279
587.4	7311
587.6	7332
587.8	7350
588.0	7372
588.2	7395
588.4	7425
588.6	7461
588.8	7495
589.0	7527
589.2	7568
589.4	7595
589.6	7621
589.8	7643
590.0	7670
590.2	7703
590.4	7743
590.6	7773
590.8	7800
591.0	7817
591.2	7839
591.4	7867
591.6	7897
591.8	7931
592.0	7958
592.2	7988
592.4	8008
592.6	8028
592.8	8044
593.0	8055
593.2	8078
593.4	8107
593.6	8145
593.8	8177
594.0	8207
594.2	8236
594.4	8261
594.6	8276
594.8	8298
595.0	8310
595.2	8324
595.4	8354
595.6	8378
595.8	8405
596.0	8430
596.2	8461
596.4	8471
596.6	8491
596.8	8506
597.0	8519
597.2	8532
597.4	8560
597.6	8585
597.8	8612
598.0	8629
598.2	8648
598.4	8665
598.6	8688
598.8	8711
599.0	8737
599.2	8763
599.4	8785
599.6	8806
599.8	8821
600.0	8831
600.2	8854
600.4	8874
600.6	8894
600.8	8912
601.0	8929
601.2	8950
601.4	8957
601.6	8972
601.8	8989
602.0	9005
602.2	9022
602.4	9038
602.6	9054
602.8	9078
603.0	9103
603.2	9132
603.4	9146
603.6	9152
603.8	9171
604.0	9188
604.2	9203
604.4	9226
604.6	9240
604.8	9242
605.0	9254
605.2	9274
605.4	9283
605.6	9281
605.8	9303
606.0	9320
606.2	9358
606.4	9385
606.6	9404
606.8	9408
607.0	9430
607.2	9444
607.4	9451
607.6	9461
607.8	9476
608.0	9501
608.2	9525
608.4	9527
608.6	9527
608.8	9537
609.0	9551
609.2	9568
609.4	9582
609.6	9592
609.8	9610
610.0	9612
610.2	9626
610.4	9634
610.6	9657
610.8	9679
611.0	9687
611.2	9679
611.4	9688
611.6	9694
611.8	9721
612.0	9735
612.2	9752
612.4	9754
612.6	9775
612.8	9783
613.0	9784
613.2	9781
613.4	9794
613.6	9802
613.8	9818
614.0	9828
614.2	9828
614.4	9831
614.6	9838
614.8	9850
615.0	9855
615.2	9864
615.4	9871
615.6	9872
615.8	9865
616.0	9873
616.2	9884
616.4	9900
616.6	9914
616.8	9917
617.0	9905
617.2	9901
617.4	9910
617.6	9933
617.8	9954
618.0	9960
618.2	9950
618.4	9946
618.6	9941
618.8	9962
619.0	9970
619.2	9974
619.4	9979
619.6	9987
619.8	9986
620.0	9997
620.2	9993
620.4	9991
620.6	9991
620.8	9991
621.0	9991
621.2	9995
621.4	9999.9
621.6	9998
621.8	9994
622.0	9994
622.2	9991
622.4	9991
622.6	9996
622.8	9994
623.0	9997
623.2	9999.9
623.4	9999.9
623.6	9996
623.8	9997
624.0	9986
624.2	9982
624.4	9982
624.6	9989
624.8	9992
625.0	9999.9
625.2	9999.9
625.4	9988
625.6	9981
625.8	9981
626.0	9989
626.2	9993
626.4	9990
626.6	9975
626.8	9967
627.0	9958
627.2	9970
627.4	9968
627.6	9963
627.8	9963
628.0	9958
628.2	9949
628.4	9946
628.6	9932
628.8	9916
629.0	9919
629.2	9924
629.4	9923
629.6	9907
629.8	9891
630.0	9880
630.2	9872
630.4	9873
630.6	9856
630.8	9840
631.0	9830
631.2	9825
631.4	9806
631.6	9803
631.8	9801
632.0	9802
632.2	9799
632.4	9790
632.6	9777
632.8	9765
633.0	9763
633.2	9754
633.4	9736
633.6	9730
633.8	9719
634.0	9695
634.2	9681
634.4	9655
634.6	9639
634.8	9642
635.0	9636
635.2	9625
635.4	9600
635.6	9573
635.8	9555
636.0	9551
636.2	9549
636.4	9542
636.6	9523
636.8	9506
637.0	9477
637.2	9453
637.4	9434
637.6	9408
637.8	9399
638.0	9386
638.2	9372
638.4	9353
638.6	9340
638.8	9310
639.0	9293
639.2	9285
639.4	9267
639.6	9259
639.8	9234
640.0	9202
640.2	9177
640.4	9165
640.6	9143
640.8	9139
641.0	9114
641.2	9101
641.4	9082
641.6	9061
641.8	9024
642.0	8989
642.2	8961
642.4	8943
642.6	8917
642.8	8893
643.0	8870
643.2	8857
643.4	8844
643.6	8816
643.8	8772
644.0	8738
644.2	8710
644.4	8694
644.6	8681
644.8	8656
645.0	8619
645.2	8600
645.4	8565
645.6	8547
645.8	8533
646.0	8511
646.2	8480
646.4	8455
646.6	8414
646.8	8386
647.0	8357
647.2	8335
647.4	8316
647.6	8299
647.8	8280
648.0	8246
648.2	8208
648.4	8169
648.6	8135
648.8	8105
649.0	8077
649.2	8046
649.4	8013
649.6	7997
649.8	7975
650.0	7963
650.2	7946
650.4	7919
650.6	7884
650.8	7868
651.0	7836
651.2	7809
651.4	7776
651.6	7740
651.8	7699
652.0	7670
652.2	7631
652.4	7593
652.6	7559
652.8	7532
653.0	7500
653.2	7470
653.4	7444
653.6	7415
653.8	7394
654.0	7366
654.2	7331
654.4	7297
654.6	7264
654.8	7224
655.0	7198
655.2	7163
655.4	7143
655.6	7126
655.8	7097
656.0	7071
656.2	7033
656.4	6981
656.6	6951
656.8	6925
657.0	6906
657.2	6884
657.4	6844
657.6	6794
657.8	6753
658.0	6721
658.2	6703
658.4	6673
658.6	6644
658.8	6607
659.0	6582
659.2	6552
659.4	6532
659.6	6503
659.8	6468
660.0	6433
660.2	6406
660.4	6363
660.6	6336
660.8	6310
661.0	6279
661.2	6253
661.4	6223
661.6	6180
661.8	6145
662.0	6113
662.2	6083
662.4	6045
662.6	6015
662.8	5978
663.0	5946
663.2	5914
663.4	5879
663.6	5838
663.8	5809
664.0	5784
664.2	5759
664.4	5734
664.6	5705
664.8	5675
665.0	5644
665.2	5616
665.4	5577
665.6	5542
665.8	5507
666.0	5476
666.2	5451
666.4	5428
666.6	5400
666.8	5364
667.0	5330
667.2	5294
667.4	5266
667.6	5246
667.8	5222
668.0	5191
668.2	5173
668.4	5142
668.6	5115
668.8	5089
669.0	5054
669.2	5023
669.4	4994
669.6	4960
669.8	4927
670.0	4893
670.2	4869
670.4	4851
670.6	4825
670.8	4795
671.0	4756
671.2	4719
671.4	4691
671.6	4667
671.8	4646
672.0	4618
672.2	4588
672.4	4555
672.6	4526
672.8	4502
673.0	4469
673.2	4447
673.4	4418
673.6	4386
673.8	4357
674.0	4333
674.2	4305
674.4	4294
674.6	4271
674.8	4244
675.0	4210
675.2	4180
675.4	4154
675.6	4129
675.8	4104
676.0	4085
676.2	4058
676.4	4030
676.6	4004
676.8	3981
677.0	3962
677.2	3942
677.4	3911
677.6	3880
677.8	3845
678.0	3828
678.2	3811
678.4	3784
678.6	3759
678.8	3739
679.0	3717
679.2	3696
679.4	3668
679.6	3640
679.8	3619
680.0	3599
680.2	3580
680.4	3548
680.6	3521
680.8	3504
681.0	3488
681.2	3472
681.4	3454
681.6	3422
681.8	3395
682.0	3366
682.2	3341
682.4	3318
682.6	3299
682.8	3283
683.0	3269
683.2	3243
683.4	3222
683.6	3196
683.8	3170
684.0	3148
684.2	3130
684.4	3105
684.6	3091
684.8	3075
685.0	3051
685.2	3030
685.4	3010
685.6	2985
685.8	2963
686.0	2943
686.2	2918
686.4	2899
686.6	2883
686.8	2872
687.0	2856
687.2	2842
687.4	2821
687.6	2801
687.8	2784
688.0	2768
688.2	2748
688.4	2730
688.6	2705
688.8	2687
689.0	2673
689.2	2651
689.4	2637
689.6	2629
689.8	2618
690.0	2600
690.2	2577
690.4	2552
690.6	2536
690.8	2524
691.0	2510
691.2	2493
691.4	2473
691.6	2460
691.8	2445
692.0	2430
692.2	2406
692.4	2394
692.6	2380
692.8	2373
693.0	2361
693.2	2346
693.4	2324
693.6	2308
693.8	2291
694.0	2282
694.2	2264
694.4	2247
694.6	2238
694.8	2227
695.0	2215
695.2	2206
695.4	2187
695.6	2177
695.8	2166
696.0	2153
696.2	2137
696.4	2129
696.6	2111
696.8	2101
697.0	2085
697.2	2076
697.4	2069
697.6	2062
697.8	2047
698.0	2030
698.2	2007
698.4	1991
698.6	1978
698.8	1968
699.0	1959
699.2	1949
699.4	1938
699.6	1928
699.8	1917
700.0	1910
700.2	1902
700.4	1890
700.6	1883
700.8	1870
701.0	1853
701.2	1842
701.4	1830
701.6	1817
701.8	1812
702.0	1803
702.2	1789
702.4	1780
702.6	1771
702.8	1757
703.0	1744
703.2	1732
703.4	1720
703.6	1712
703.8	1708
704.0	1700
704.2	1689
704.4	1679
704.6	1665
704.8	1657
705.0	1648
705.2	1637
705.4	1626
705.6	1617
705.8	1603
706.0	1596
706.2	1586
706.4	1577
706.6	1569
706.8	1561
707.0	1550
707.2	1542
707.4	1531
707.6	1523
707.8	1514
708.0	1501
708.2	1491
708.4	1482
708.6	1472
708.8	1462
709.0	1452
709.2	1443
709.4	1437
709.6	1431
709.8	1421
710.0	1410
710.2	1400
710.4	1394
710.6	1383
710.8	1373
711.0	1362
711.2	1357
711.4	1353
711.6	1348
711.8	1333
712.0	1322
712.2	1309
712.4	1301
712.6	1290
712.8	1282
713.0	1272
713.2	1268
713.4	1262
713.6	1253
713.8	1239
714.0	1225
714.2	1217
714.4	1212
714.6	1210
714.8	1205
715.0	1196
715.2	1187
715.4	1177
715.6	1167
715.8	1158
716.0	1151
716.2	1145
716.4	1136
716.6	1125
716.8	1117
717.0	1110
717.2	1102
717.4	1095
717.6	1087
717.8	1081
718.0	1073
718.2	1067
718.4	1057
718.6	1046
718.8	1037
719.0	1031
719.2	1022
719.4	1017
719.6	1013
719.8	1004
720.0	995.5
720.2	989.2
720.4	979.6
720.6	969.4
720.8	959.5
721.0	950.8
721.2	944.2
721.4	940.2
721.6	934.7
721.8	928.9
722.0	922.0
722.2	918.7
722.4	909.1
722.6	900.6
722.8	895.6
723.0	888.6
723.2	880.0
723.4	873.9
723.6	865.6
723.8	858.7
724.0	853.2
724.2	846.7
724.4	834.3
724.6	824.7
724.8	817.3
725.0	813.2
725.2	809.2
725.4	810.9
725.6	805.8
725.8	799.3
726.0	792.4
726.2	786.0
726.4	779.8
726.6	777.7
726.8	773.9
727.0	766.1
727.2	757.9
727.4	745.6
727.6	735.7
727.8	728.7
728.0	724.7
728.2	722.3
728.4	719.3
728.6	714.2
728.8	706.9
729.0	699.4
729.2	691.4
729.4	683.9
729.6	679.9
729.8	677.4
730.0	671.7
730.2	666.7
730.4	661.3
730.6	656.0
730.8	654.0
731.0	649.7
731.2	643.3
731.4	634.5
731.6	628.5
731.8	624.2
732.0	619.0
732.2	614.8
732.4	609.4
732.6	602.6
732.8	600.5
733.0	596.4
733.2	590.8
733.4	586.0
733.6	580.3
733.8	574.9
734.0	574.5
734.2	569.9
734.4	564.7
734.6	559.1
734.8	555.0
735.0	549.4
735.2	547.2
735.4	542.4
735.6	539.4
735.8	535.0
736.0	531.7
736.2	526.1
736.4	519.6
736.6	513.6
736.8	509.9
737.0	506.4
737.2	504.8
737.4	501.6
737.6	495.3
737.8	491.0
738.0	486.7
738.2	483.9
738.4	481.3
738.6	479.4
738.8	473.0
739.0	466.9
739.2	463.1
739.4	458.2
739.6	454.3
739.8	454.0
740.0	450.3
740.2	445.2
740.4	441.9
740.6	437.0
740.8	433.8
741.0	431.6
741.2	428.1
741.4	424.3
741.6	419.9
741.8	417.8
742.0	415.5
742.2	411.7
742.4	410.3
742.6	405.8
742.8	400.9
743.0	398.8
743.2	395.8
743.4	394.4
743.6	394.6
743.8	390.1
744.0	383.9
744.2	378.9
744.4	373.9
744.6	373.2
744.8	372.5
745.0	370.8
745.2	367.8
745.4	364.4
745.6	362.5
745.8	362.0
746.0	360.7
746.2	356.6
746.4	351.8
746.6	346.7
746.8	344.5
747.0	340.6
747.2	337.5
747.4	333.5
747.6	331.6
747.8	331.0
748.0	330.1
748.2	325.6
748.4	321.7
748.6	317.3
748.8	316.6
749.0	316.1
749.2	313.5
749.4	309.6
749.6	306.8
749.8	303.7
750.0	302.6
750.2	300.4
750.4	299.3
750.6	298.2
750.8	296.1
751.0	293.1
751.2	290.1
751.4	285.2
751.6	282.2
751.8	280.5
752.0	278.7
752.2	278.2
752.4	276.0
752.6	272.3
752.8	269.9
753.0	267.0
753.2	265.8
753.4	263.8
753.6	260.6
753.8	259.7
754.0	258.8
754.2	257.5
754.4	256.9
754.6	254.6
754.8	251.2
755.0	248.3
755.2	243.4
755.4	240.1
755.6	240.5
755.8	241.2
756.0	241.3
756.2	240.9
756.4	237.5
756.6	232.8
756.8	231.3
757.0	228.0
757.2	226.3
757.4	225.3
757.6	224.0
757.8	220.4
758.0	219.1
758.2	216.9
758.4	216.5
758.6	214.7
758.8	213.2
759.0	210.5
759.2	208.7
759.4	207.3
759.6	206.7
759.8	204.4
760.0	201.1
760.2	199.0
760.4	197.4
760.6	197.1
760.8	196.9
761.0	196.2
761.2	194.2
761.4	191.1
761.6	189.4
761.8	188.0
762.0	188.2
762.2	188.2
762.4	186.4
762.6	184.3
762.8	183.6
763.0	180.7
763.2	179.9
763.4	178.2
763.6	175.3
763.8	174.8
764.0	175.6
764.2	174.5
764.4	173.7
764.6	171.9
764.8	170.4
765.0	168.4
765.2	165.8
765.4	163.2
765.6	161.0
765.8	159.4
766.0	158.9
766.2	157.5
766.4	156.2
766.6	155.0
766.8	153.6
767.0	153.2
767.2	152.6
767.4	151.3
767.6	150.8
767.8	149.0
768.0	147.2
768.2	146.0
768.4	145.4
768.6	143.8
768.8	143.0
769.0	140.8
769.2	139.5
769.4	138.5
769.6	138.6
769.8	137.9
770.0	136.5
770.2	134.1
770.4	132.9
770.6	130.1
770.8	128.9
771.0	128.1
771.2	127.5
771.4	127.2
771.6	128.1
771.8	126.1
772.0	125.4
772.2	124.1
772.4	123.5
772.6	122.5
772.8	121.9
773.0	120.0
773.2	119.7
773.4	118.3
773.6	117.2
773.8	116.5
774.0	115.2
774.2	114.3
774.4	113.7
774.6	113.4
774.8	113.0
775.0	112.8
775.2	111.3
775.4	111.0
775.6	109.4
775.8	108.8
776.0	107.9
776.2	106.1
776.4	104.7
776.6	104.5
776.8	105.4
777.0	105.6
777.2	105.5
777.4	103.8
777.6	101.9
777.8	100.2
778.0	100.0
778.2	99.81
778.4	99.23
778.6	97.64
778.8	96.30
779.0	95.39
779.2	95.68
779.4	96.21
779.6	96.17
779.8	94.71
780.0	93.75
780.2	93.51
780.4	92.94
780.6	91.94
780.8	91.50
781.0	90.05
781.2	89.91
781.4	89.99
781.6	89.69
781.8	90.04
782.0	89.36
782.2	87.55
782.4	86.29
782.6	84.88
782.8	84.45
783.0	85.38
783.2	85.16
783.4	84.88
783.6	83.96
783.8	83.41
784.0	82.15
784.2	82.07
784.4	81.26
784.6	81.59
784.8	81.01
785.0	81.35
785.2	80.48
785.4	79.95
785.6	78.71
785.8	78.55
786.0	78.34
786.2	79.25
786.4	79.28
786.6	78.59
786.8	77.57
787.0	75.81
787.2	75.22
787.4	75.96
787.6	75.37
787.8	74.46
788.0	73.30
788.2	72.55
788.4	72.61
788.6	72.88
788.8	71.57
789.0	71.10
789.2	70.11
789.4	69.90
789.6	69.54
789.8	70.19
790.0	70.71
790.2	71.70
790.4	71.08
790.6	70.01
790.8	68.98
791.0	68.03
791.2	68.48
791.4	68.70
791.6	68.56
791.8	69.04
792.0	69.23
792.2	67.18
792.4	66.99
792.6	65.67
792.8	64.10
793.0	64.10
793.2	64.70
793.4	64.62
793.6	65.21
793.8	65.06
794.0	63.77
794.2	62.87
794.4	61.83
794.6	62.21
794.8	62.45
795.0	63.50
795.2	63.36
795.4	62.37
795.6	61.29
795.8	61.20
796.0	60.62
796.2	61.30
796.4	61.26
796.6	60.61
796.8	60.04
797.0	59.39
797.2	59.31
797.4	59.30
797.6	59.31
797.8	59.00
798.0	58.65
798.2	58.07
798.4	57.74
798.6	57.12
798.8	56.78
799.0	57.05
799.2	57.82
799.4	58.26
799.6	58.20
799.8	58.17
800.0	57.39
800.2	56.12
800.4	55.24
800.6	54.70
800.8	54.97
801.0	55.57
801.2	55.95
801.4	54.95
801.6	54.10
801.8	53.02
802.0	53.32
802.2	53.76
802.4	53.89
802.6	53.36
802.8	53.15
803.0	51.98
803.2	51.91
803.4	51.81
803.6	50.61
803.8	50.66
804.0	50.56
804.2	50.37
804.4	51.02
804.6	51.15
804.8	49.97
805.0	49.23
805.2	47.89
805.4	47.20
805.6	48.31
805.8	49.40
806.0	49.53
806.2	49.47
806.4	49.13
806.6	48.01
806.8	47.84
807.0	47.46
807.2	47.41
807.4	47.22
807.6	47.13
807.8	46.45
808.0	45.95
808.2	45.60
808.4	46.12
808.6	45.87
808.8	45.53
809.0	44.96
809.2	44.08
809.4	43.02
809.6	42.61
809.8	42.98
810.0	43.01
810.2	43.22
810.4	42.92
810.6	42.65
810.8	42.97
811.0	43.53
811.2	43.25
811.4	43.37
811.6	43.31
811.8	43.26
812.0	42.98
812.2	42.08
812.4	40.81
812.6	40.31
812.8	39.69
813.0	39.21
813.2	39.97
813.4	39.82
813.6	39.84
813.8	40.35
814.0	39.81
814.2	39.45
814.4	39.91
814.6	39.17
814.8	39.00
815.0	38.80
815.2	38.02
815.4	37.10
815.6	36.35
815.8	36.55
816.0	36.82
816.2	36.41
816.4	36.09
816.6	35.64
816.8	34.82
817.0	34.91
817.2	34.90
817.4	35.23
817.6	36.08
817.8	36.67
818.0	36.08
818.2	35.21
818.4	34.21
818.6	33.85
818.8	34.12
819.0	34.28
819.2	34.02
819.4	33.59
819.6	32.50
819.8	32.36
820.0	32.69
820.2	32.84
820.4	32.55
820.6	31.96
820.8	30.85
821.0	30.87
821.2	31.10
821.4	31.59
821.6	31.53
821.8	31.08
822.0	30.62
822.2	30.29
822.4	29.70
822.6	29.86
822.8	29.47
823.0	29.40
823.2	29.81
823.4	29.54
823.6	29.31
823.8	29.16
824.0	28.23
824.2	27.54
824.4	27.79
824.6	27.76
824.8	27.76
825.0	27.34
825.2	26.78
825.4	26.07
825.6	25.79
825.8	25.97
826.0	25.82
826.2	25.90
826.4	26.32
826.6	26.44
826.8	25.87
827.0	25.48
827.2	24.82
827.4	24.09
827.6	23.86
827.8	23.87
828.0	23.93
828.2	24.18
828.4	24.15
828.6	24.16
828.8	23.73
829.0	23.49
829.2	22.96
829.4	22.35
829.6	21.83
829.8	21.85
830.0	21.57
830.2	22.23
830.4	22.41
830.6	22.16
830.8	21.95
831.0	22.05
831.2	21.79
831.4	21.62
831.6	21.15
831.8	20.36
832.0	19.79
832.2	19.99
832.4	19.77
832.6	19.28
832.8	19.55
833.0	19.72
833.2	19.60
833.4	19.35
833.6	18.70
833.8	17.94
834.0	17.80
834.2	17.82
834.4	17.65
834.6	17.37
834.8	17.71
835.0	18.03
835.2	17.99
835.4	17.83
835.6	17.62
835.8	17.32
836.0	17.06
836.2	16.89
836.4	16.61
836.6	16.05
836.8	16.04
837.0	15.57
837.2	14.94
837.4	14.93
837.6	14.73
837.8	14.62
838.0	14.90
838.2	15.13
838.4	15.15
838.6	14.94
838.8	14.45
839.0	14.24
839.2	13.68
839.4	13.88
839.6	13.71
839.8	13.07
840.0	13.24
840.2	13.46
840.4	13.27
840.6	13.44
840.8	13.40
841.0	13.27
841.2	12.96
841.4	12.57
841.6	11.95
841.8	11.73
842.0	11.74
842.2	11.62
842.4	11.57
842.6	11.67
842.8	11.38
843.0	11.19
843.2	10.66
