Sample:	'20211010A(EM)
File name:	600uM.FDS
Run date:	'11:02:31, 03/23/2023
Operator:	Administrator
Comment:	'

Instrument
Model:	F-4700 FL Spectrophotometer
Serial number:	2019-001
ROM Version:	5J24010 00

Instrument parameters
Measurement type:	Wavelength scan
Scan mode:	Emission
Data mode:	Fluorescence
EX WL:	520.0 nm
EM  Start WL:	540.0 nm
EM  End WL:	900.0 nm
Scan speed:	1200 nm/min
Delay:	0.0 s
EX Slit:	10.0 nm
EM Slit:	10.0 nm
PMT Voltage:	570 V
Response:	0.002 s
Corrected spectra:	Off
Shutter control:	On

Processing performed
Savitsky-Golay smoothed
Smoothing order:	3
Number of points:	7
Number of times:	1

Peak integration
Integration method:	Rectangular
Sensitivity:	1
Threshold:	1.000

Peaks
No.	Start(nm)	Apex(nm)	End(nm)	Height(Data)	Valley(nm)	Valley(Data)
1	540.0	594.4	798.0	*****   	798.0	57.53
2	798.0	798.8	801.8	59.64	801.8	52.71
3	801.8	802.6	804.2	54.42	804.2	49.05
4	804.2	805.0	886.2	51.81	886.2	3.218

Data points
nm	Data
540.0	2214
540.2	2227
540.4	2234
540.6	2238
540.8	2246
541.0	2249
541.2	2252
541.4	2268
541.6	2275
541.8	2284
542.0	2294
542.2	2299
542.4	2307
542.6	2316
542.8	2318
543.0	2324
543.2	2330
543.4	2337
543.6	2348
543.8	2356
544.0	2363
544.2	2374
544.4	2389
544.6	2401
544.8	2414
545.0	2422
545.2	2429
545.4	2433
545.6	2443
545.8	2449
546.0	2460
546.2	2464
546.4	2466
546.6	2475
546.8	2482
547.0	2487
547.2	2497
547.4	2506
547.6	2518
547.8	2535
548.0	2548
548.2	2554
548.4	2562
548.6	2573
548.8	2582
549.0	2586
549.2	2596
549.4	2605
549.6	2623
549.8	2640
550.0	2651
550.2	2651
550.4	2657
550.6	2662
550.8	2679
551.0	2691
551.2	2709
551.4	2719
551.6	2730
551.8	2737
552.0	2747
552.2	2765
552.4	2783
552.6	2793
552.8	2801
553.0	2805
553.2	2819
553.4	2841
553.6	2855
553.8	2865
554.0	2877
554.2	2885
554.4	2903
554.6	2921
554.8	2929
555.0	2941
555.2	2955
555.4	2975
555.6	2994
555.8	3018
556.0	3037
556.2	3051
556.4	3062
556.6	3078
556.8	3097
557.0	3111
557.2	3127
557.4	3140
557.6	3152
557.8	3172
558.0	3198
558.2	3218
558.4	3235
558.6	3259
558.8	3274
559.0	3296
559.2	3319
559.4	3346
559.6	3360
559.8	3387
560.0	3406
560.2	3423
560.4	3446
560.6	3468
560.8	3489
561.0	3515
561.2	3541
561.4	3560
561.6	3585
561.8	3604
562.0	3624
562.2	3647
562.4	3677
562.6	3708
562.8	3746
563.0	3769
563.2	3791
563.4	3820
563.6	3846
563.8	3871
564.0	3899
564.2	3920
564.4	3949
564.6	3979
564.8	4008
565.0	4036
565.2	4070
565.4	4105
565.6	4141
565.8	4174
566.0	4203
566.2	4232
566.4	4255
566.6	4291
566.8	4321
567.0	4359
567.2	4386
567.4	4414
567.6	4437
567.8	4483
568.0	4515
568.2	4558
568.4	4597
568.6	4635
568.8	4663
569.0	4693
569.2	4714
569.4	4752
569.6	4794
569.8	4840
570.0	4875
570.2	4917
570.4	4948
570.6	4983
570.8	5017
571.0	5054
571.2	5088
571.4	5140
571.6	5177
571.8	5215
572.0	5251
572.2	5283
572.4	5320
572.6	5368
572.8	5400
573.0	5444
573.2	5482
573.4	5522
573.6	5573
573.8	5631
574.0	5668
574.2	5713
574.4	5752
574.6	5788
574.8	5835
575.0	5885
575.2	5918
575.4	5958
575.6	5997
575.8	6031
576.0	6084
576.2	6138
576.4	6190
576.6	6248
576.8	6290
577.0	6320
577.2	6362
577.4	6396
577.6	6429
577.8	6477
578.0	6515
578.2	6546
578.4	6592
578.6	6635
578.8	6676
579.0	6729
579.2	6780
579.4	6822
579.6	6873
579.8	6927
580.0	6962
580.2	7004
580.4	7052
580.6	7105
580.8	7156
581.0	7200
581.2	7228
581.4	7265
581.6	7307
581.8	7361
582.0	7418
582.2	7462
582.4	7516
582.6	7559
582.8	7604
583.0	7636
583.2	7681
583.4	7713
583.6	7764
583.8	7811
584.0	7860
584.2	7906
584.4	7955
584.6	7995
584.8	8047
585.0	8089
585.2	8131
585.4	8173
585.6	8224
585.8	8272
586.0	8328
586.2	8375
586.4	8422
586.6	8453
586.8	8496
587.0	8531
587.2	8570
587.4	8618
587.6	8666
587.8	8709
588.0	8757
588.2	8795
588.4	8839
588.6	8893
588.8	8931
589.0	8969
589.2	9000
589.4	9028
589.6	9068
589.8	9116
590.0	9165
590.2	9218
590.4	9259
590.6	9301
590.8	9334
591.0	9369
591.2	9424
591.4	9483
591.6	9523
591.8	9567
592.0	9593
592.2	9626
592.4	9672
592.6	9714
592.8	9745
593.0	9795
593.2	9835
593.4	9875
593.6	9915
593.8	9947
594.0	9971
594.2	9993
594.4	9999.9
594.6	9999.9
594.8	9999.9
595.0	9999.9
595.2	9999.9
595.4	9999.9
595.6	9999.9
595.8	9999.9
596.0	9999.9
596.2	9999.9
596.4	9999.9
596.6	9999.9
596.8	9999.9
597.0	9999.9
597.2	9999.9
597.4	9999.9
597.6	9999.9
597.8	9999.9
598.0	9999.9
598.2	9999.9
598.4	9999.9
598.6	9999.9
598.8	9999.9
599.0	9999.9
599.2	9999.9
599.4	9999.9
599.6	9999.9
599.8	9999.9
600.0	9999.9
600.2	9999.9
600.4	9999.9
600.6	9999.9
600.8	9999.9
601.0	9999.9
601.2	9999.9
601.4	9999.9
601.6	9999.9
601.8	9999.9
602.0	9999.9
602.2	9999.9
602.4	9999.9
602.6	9999.9
602.8	9999.9
603.0	9999.9
603.2	9999.9
603.4	9999.9
603.6	9999.9
603.8	9999.9
604.0	9999.9
604.2	9999.9
604.4	9999.9
604.6	9999.9
604.8	9999.9
605.0	9999.9
605.2	9999.9
605.4	9999.9
605.6	9999.9
605.8	9999.9
606.0	9999.9
606.2	9999.9
606.4	9999.9
606.6	9999.9
606.8	9999.9
607.0	9999.9
607.2	9999.9
607.4	9999.9
607.6	9999.9
607.8	9999.9
608.0	9999.9
608.2	9999.9
608.4	9999.9
608.6	9999.9
608.8	9999.9
609.0	9999.9
609.2	9999.9
609.4	9999.9
609.6	9999.9
609.8	9999.9
610.0	9999.9
610.2	9999.9
610.4	9999.9
610.6	9999.9
610.8	9999.9
611.0	9999.9
611.2	9999.9
611.4	9999.9
611.6	9999.9
611.8	9999.9
612.0	9999.9
612.2	9999.9
612.4	9999.9
612.6	9999.9
612.8	9999.9
613.0	9999.9
613.2	9999.9
613.4	9999.9
613.6	9999.9
613.8	9999.9
614.0	9999.9
614.2	9999.9
614.4	9999.9
614.6	9999.9
614.8	9999.9
615.0	9999.9
615.2	9999.9
615.4	9999.9
615.6	9999.9
615.8	9999.9
616.0	9999.9
616.2	9999.9
616.4	9999.9
616.6	9999.9
616.8	9999.9
617.0	9999.9
617.2	9999.9
617.4	9999.9
617.6	9999.9
617.8	9999.9
618.0	9999.9
618.2	9999.9
618.4	9999.9
618.6	9999.9
618.8	9999.9
619.0	9999.9
619.2	9999.9
619.4	9999.9
619.6	9999.9
619.8	9999.9
620.0	9999.9
620.2	9999.9
620.4	9999.9
620.6	9999.9
620.8	9999.9
621.0	9999.9
621.2	9999.9
621.4	9999.9
621.6	9999.9
621.8	9999.9
622.0	9999.9
622.2	9999.9
622.4	9999.9
622.6	9999.9
622.8	9999.9
623.0	9999.9
623.2	9999.9
623.4	9999.9
623.6	9999.9
623.8	9999.9
624.0	9999.9
624.2	9999.9
624.4	9999.9
624.6	9999.9
624.8	9999.9
625.0	9999.9
625.2	9999.9
625.4	9999.9
625.6	9999.9
625.8	9999.9
626.0	9999.9
626.2	9999.9
626.4	9999.9
626.6	9999.9
626.8	9999.9
627.0	9999.9
627.2	9999.9
627.4	9999.9
627.6	9999.9
627.8	9999.9
628.0	9999.9
628.2	9999.9
628.4	9999.9
628.6	9999.9
628.8	9999.9
629.0	9999.9
629.2	9999.9
629.4	9999.9
629.6	9999.9
629.8	9999.9
630.0	9999.9
630.2	9999.9
630.4	9999.9
630.6	9999.9
630.8	9999.9
631.0	9999.9
631.2	9999.9
631.4	9999.9
631.6	9999.9
631.8	9999.9
632.0	9999.9
632.2	9999.9
632.4	9999.9
632.6	9999.9
632.8	9999.9
633.0	9999.9
633.2	9999.9
633.4	9999.9
633.6	9999.9
633.8	9999.9
634.0	9999.9
634.2	9999.9
634.4	9999.9
634.6	9999.9
634.8	9999.9
635.0	9999.9
635.2	9999.9
635.4	9999.9
635.6	9999.9
635.8	9999.9
636.0	9999.9
636.2	9999.9
636.4	9999.9
636.6	9999.9
636.8	9999.9
637.0	9999.9
637.2	9999.9
637.4	9999.9
637.6	9999.9
637.8	9999.9
638.0	9999.9
638.2	9999.9
638.4	9999.9
638.6	9999.9
638.8	9999.9
639.0	9999.9
639.2	9999.9
639.4	9999.9
639.6	9999.9
639.8	9999.9
640.0	9999.9
640.2	9999.9
640.4	9999.9
640.6	9999.9
640.8	9999.9
641.0	9999.9
641.2	9999.9
641.4	9999.9
641.6	9999.9
641.8	9999.9
642.0	9999.9
642.2	9999.9
642.4	9999.9
642.6	9999.9
642.8	9999.9
643.0	9999.9
643.2	9999.9
643.4	9999.9
643.6	9999.9
643.8	9985
644.0	9948
644.2	9919
644.4	9894
644.6	9868
644.8	9846
645.0	9811
645.2	9773
645.4	9741
645.6	9710
645.8	9674
646.0	9630
646.2	9583
646.4	9545
646.6	9502
646.8	9466
647.0	9430
647.2	9389
647.4	9360
647.6	9331
647.8	9297
648.0	9263
648.2	9216
648.4	9178
648.6	9131
648.8	9088
649.0	9047
649.2	9011
649.4	8983
649.6	8952
649.8	8921
650.0	8887
650.2	8847
650.4	8809
650.6	8775
650.8	8736
651.0	8706
651.2	8664
651.4	8624
651.6	8585
651.8	8544
652.0	8498
652.2	8452
652.4	8398
652.6	8355
652.8	8318
653.0	8286
653.2	8261
653.4	8239
653.6	8195
653.8	8152
654.0	8110
654.2	8060
654.4	8026
654.6	7992
654.8	7951
655.0	7915
655.2	7883
655.4	7842
655.6	7808
655.8	7774
656.0	7742
656.2	7708
656.4	7674
656.6	7632
656.8	7589
657.0	7547
657.2	7512
657.4	7483
657.6	7451
657.8	7417
658.0	7365
658.2	7314
658.4	7269
658.6	7225
658.8	7199
659.0	7168
659.2	7131
659.4	7097
659.6	7065
659.8	7019
660.0	6982
660.2	6939
660.4	6901
660.6	6863
660.8	6835
661.0	6803
661.2	6776
661.4	6738
661.6	6697
661.8	6654
662.0	6613
662.2	6582
662.4	6553
662.6	6525
662.8	6495
663.0	6460
663.2	6422
663.4	6390
663.6	6341
663.8	6311
664.0	6272
664.2	6233
664.4	6200
664.6	6172
664.8	6127
665.0	6092
665.2	6050
665.4	6019
665.6	5983
665.8	5959
666.0	5924
666.2	5899
666.4	5862
666.6	5834
666.8	5793
667.0	5759
667.2	5727
667.4	5697
667.6	5658
667.8	5625
668.0	5586
668.2	5553
668.4	5524
668.6	5493
668.8	5468
669.0	5434
669.2	5403
669.4	5359
669.6	5326
669.8	5289
670.0	5259
670.2	5227
670.4	5206
670.6	5172
670.8	5148
671.0	5112
671.2	5082
671.4	5050
671.6	5020
671.8	4982
672.0	4954
672.2	4927
672.4	4908
672.6	4878
672.8	4841
673.0	4809
673.2	4782
673.4	4756
673.6	4732
673.8	4700
674.0	4667
674.2	4638
674.4	4608
674.6	4572
674.8	4544
675.0	4519
675.2	4492
675.4	4457
675.6	4424
675.8	4383
676.0	4351
676.2	4331
676.4	4318
676.6	4300
676.8	4276
677.0	4236
677.2	4204
677.4	4177
677.6	4156
677.8	4137
678.0	4111
678.2	4079
678.4	4050
678.6	4026
678.8	4001
679.0	3979
679.2	3961
679.4	3933
679.6	3898
679.8	3875
680.0	3850
680.2	3816
680.4	3794
680.6	3766
680.8	3747
681.0	3728
681.2	3715
681.4	3688
681.6	3660
681.8	3633
682.0	3613
682.2	3588
682.4	3572
682.6	3552
682.8	3529
683.0	3505
683.2	3482
683.4	3445
683.6	3415
683.8	3386
684.0	3370
684.2	3354
684.4	3335
684.6	3312
684.8	3284
685.0	3257
685.2	3245
685.4	3227
685.6	3204
685.8	3182
686.0	3150
686.2	3124
686.4	3109
686.6	3090
686.8	3074
687.0	3051
687.2	3032
687.4	3014
687.6	2996
687.8	2975
688.0	2961
688.2	2944
688.4	2924
688.6	2907
688.8	2884
689.0	2857
689.2	2834
689.4	2814
689.6	2797
689.8	2787
690.0	2769
690.2	2752
690.4	2732
690.6	2714
690.8	2697
691.0	2681
691.2	2664
691.4	2649
691.6	2627
691.8	2606
692.0	2581
692.2	2563
692.4	2556
692.6	2547
692.8	2534
693.0	2525
693.2	2501
693.4	2485
693.6	2471
693.8	2451
694.0	2431
694.2	2420
694.4	2402
694.6	2391
694.8	2379
695.0	2354
695.2	2335
695.4	2319
695.6	2306
695.8	2296
696.0	2281
696.2	2263
696.4	2249
696.6	2236
696.8	2220
697.0	2205
697.2	2192
697.4	2177
697.6	2171
697.8	2166
698.0	2152
698.2	2134
698.4	2116
698.6	2095
698.8	2084
699.0	2073
699.2	2062
699.4	2049
699.6	2036
699.8	2028
700.0	2018
700.2	2007
700.4	1994
700.6	1985
700.8	1976
701.0	1964
701.2	1954
701.4	1936
701.6	1923
701.8	1917
702.0	1911
702.2	1902
702.4	1889
702.6	1867
702.8	1851
703.0	1840
703.2	1832
703.4	1823
703.6	1811
703.8	1802
704.0	1795
704.2	1785
704.4	1776
704.6	1763
704.8	1750
705.0	1738
705.2	1727
705.4	1711
705.6	1699
705.8	1691
706.0	1680
706.2	1664
706.4	1646
706.6	1633
706.8	1625
707.0	1620
707.2	1617
707.4	1604
707.6	1591
707.8	1582
708.0	1572
708.2	1565
708.4	1564
708.6	1554
708.8	1543
709.0	1529
709.2	1514
709.4	1500
709.6	1488
709.8	1479
710.0	1472
710.2	1464
710.4	1460
710.6	1454
710.8	1443
711.0	1434
711.2	1419
711.4	1401
711.6	1392
711.8	1387
712.0	1383
712.2	1379
712.4	1371
712.6	1352
712.8	1338
713.0	1325
713.2	1318
713.4	1311
713.6	1307
713.8	1295
714.0	1286
714.2	1274
714.4	1266
714.6	1258
714.8	1250
715.0	1244
715.2	1237
715.4	1231
715.6	1222
715.8	1213
716.0	1201
716.2	1190
716.4	1177
716.6	1170
716.8	1162
717.0	1155
717.2	1147
717.4	1138
717.6	1129
717.8	1122
718.0	1114
718.2	1104
718.4	1096
718.6	1087
718.8	1079
719.0	1067
719.2	1059
719.4	1051
719.6	1051
719.8	1045
720.0	1038
720.2	1028
720.4	1021
720.6	1011
720.8	1003
721.0	993.6
721.2	984.2
721.4	976.1
721.6	966.5
721.8	955.7
722.0	948.8
722.2	941.7
722.4	938.1
722.6	933.2
722.8	928.1
723.0	918.7
723.2	911.6
723.4	905.3
723.6	898.0
723.8	889.1
724.0	883.2
724.2	870.4
724.4	862.5
724.6	860.2
724.8	855.5
725.0	852.0
725.2	847.0
725.4	836.3
725.6	826.4
725.8	818.4
726.0	811.4
726.2	806.8
726.4	803.4
726.6	800.9
726.8	796.0
727.0	788.6
727.2	778.4
727.4	769.5
727.6	764.9
727.8	760.8
728.0	753.3
728.2	748.8
728.4	741.6
728.6	734.1
728.8	730.4
729.0	723.2
729.2	714.2
729.4	708.1
729.6	702.6
729.8	696.2
730.0	693.3
730.2	687.9
730.4	682.6
730.6	677.0
730.8	672.8
731.0	669.2
731.2	662.4
731.4	656.8
731.6	650.2
731.8	646.3
732.0	642.2
732.2	639.0
732.4	631.2
732.6	625.7
732.8	620.4
733.0	615.8
733.2	609.2
733.4	603.7
733.6	601.1
733.8	594.3
734.0	590.8
734.2	586.9
734.4	580.9
734.6	575.9
734.8	571.8
735.0	565.1
735.2	559.7
735.4	557.1
735.6	551.0
735.8	545.9
736.0	542.0
736.2	541.1
736.4	537.8
736.6	534.9
736.8	529.1
737.0	523.8
737.2	516.9
737.4	513.9
737.6	512.3
737.8	508.9
738.0	504.7
738.2	501.3
738.4	494.0
738.6	487.9
738.8	485.9
739.0	480.4
739.2	474.6
739.4	470.3
739.6	467.9
739.8	465.1
740.0	462.9
740.2	459.3
740.4	454.5
740.6	449.8
740.8	446.3
741.0	441.4
741.2	437.1
741.4	433.0
741.6	432.1
741.8	432.2
742.0	430.8
742.2	425.2
742.4	420.7
742.6	412.7
742.8	409.5
743.0	408.4
743.2	406.9
743.4	403.8
743.6	402.4
743.8	397.8
744.0	394.6
744.2	392.0
744.4	388.5
744.6	383.8
744.8	381.6
745.0	379.4
745.2	379.0
745.4	378.2
745.6	377.1
745.8	372.2
746.0	367.0
746.2	362.0
746.4	356.1
746.6	354.9
746.8	353.1
747.0	350.5
747.2	347.9
747.4	343.2
747.6	338.8
747.8	338.6
748.0	338.5
748.2	336.2
748.4	332.9
748.6	326.3
748.8	324.2
749.0	322.5
749.2	323.0
749.4	321.6
749.6	318.1
749.8	313.0
750.0	310.0
750.2	306.6
750.4	304.2
750.6	303.9
750.8	302.3
751.0	300.7
751.2	298.7
751.4	297.6
751.6	293.0
751.8	291.4
752.0	289.0
752.2	285.4
752.4	282.7
752.6	281.3
752.8	277.9
753.0	276.4
753.2	274.2
753.4	271.4
753.6	268.8
753.8	267.3
754.0	267.2
754.2	266.3
754.4	264.0
754.6	262.2
754.8	259.2
755.0	255.5
755.2	253.7
755.4	252.8
755.6	251.5
755.8	249.4
756.0	246.8
756.2	242.8
756.4	241.7
756.6	241.3
756.8	240.8
757.0	238.6
757.2	235.6
757.4	233.3
757.6	233.1
757.8	229.9
758.0	227.3
758.2	225.0
758.4	223.0
758.6	221.4
758.8	219.8
759.0	213.7
759.2	210.3
759.4	209.4
759.6	210.1
759.8	208.8
760.0	209.8
760.2	207.3
760.4	206.2
760.6	204.5
760.8	202.4
761.0	199.6
761.2	199.4
761.4	197.5
761.6	197.1
761.8	195.0
762.0	192.8
762.2	191.7
762.4	189.6
762.6	187.3
762.8	187.5
763.0	187.1
763.2	186.1
763.4	185.6
763.6	182.4
763.8	180.2
764.0	178.3
764.2	175.5
764.4	173.4
764.6	173.1
764.8	171.4
765.0	172.1
765.2	170.4
765.4	167.6
765.6	166.5
765.8	165.9
766.0	165.3
766.2	165.7
766.4	164.2
766.6	161.4
766.8	160.0
767.0	157.8
767.2	156.2
767.4	155.8
767.6	155.8
767.8	155.0
768.0	153.9
768.2	150.4
768.4	148.3
768.6	147.7
768.8	146.7
769.0	145.6
769.2	143.2
769.4	141.4
769.6	142.1
769.8	142.6
770.0	142.2
770.2	140.3
770.4	137.0
770.6	134.5
770.8	132.8
771.0	131.4
771.2	132.7
771.4	131.4
771.6	130.1
771.8	127.9
772.0	127.1
772.2	125.5
772.4	127.5
772.6	125.6
772.8	125.4
773.0	124.6
773.2	124.4
773.4	123.4
773.6	122.9
773.8	120.3
774.0	118.3
774.2	117.0
774.4	115.5
774.6	116.3
774.8	115.9
775.0	114.6
775.2	113.5
775.4	112.3
775.6	111.7
775.8	112.7
776.0	112.7
776.2	112.0
776.4	112.1
776.6	109.9
776.8	108.6
777.0	107.1
777.2	105.9
777.4	105.0
777.6	104.6
777.8	104.0
778.0	103.2
778.2	102.8
778.4	102.6
778.6	101.6
778.8	100.3
779.0	100.0
779.2	100.1
779.4	99.49
779.6	99.27
779.8	98.86
780.0	97.19
780.2	95.86
780.4	95.51
780.6	93.06
780.8	93.10
781.0	93.17
781.2	92.20
781.4	91.50
781.6	90.92
781.8	89.56
782.0	90.75
782.2	91.06
782.4	91.04
782.6	90.38
782.8	88.50
783.0	86.83
783.2	87.11
783.4	86.60
783.6	86.08
783.8	85.30
784.0	84.54
784.2	84.51
784.4	84.80
784.6	83.96
784.8	83.23
785.0	83.68
785.2	83.35
785.4	82.56
785.6	82.62
785.8	81.51
786.0	80.29
786.2	80.06
786.4	78.56
786.6	77.04
786.8	77.53
787.0	77.07
787.2	76.66
787.4	76.30
787.6	76.11
787.8	75.72
788.0	75.54
788.2	75.86
788.4	75.94
788.6	75.55
788.8	74.25
789.0	73.50
789.2	72.88
789.4	72.71
789.6	72.34
789.8	71.84
790.0	70.69
790.2	70.56
790.4	70.22
790.6	70.27
790.8	70.05
791.0	69.62
791.2	68.69
791.4	68.65
791.6	68.42
791.8	68.21
792.0	67.80
792.2	67.70
792.4	67.08
792.6	67.59
792.8	67.98
793.0	67.46
793.2	67.33
793.4	67.18
793.6	66.57
793.8	66.44
794.0	65.32
794.2	63.94
794.4	63.20
794.6	62.99
794.8	62.05
795.0	62.22
795.2	62.72
795.4	62.71
795.6	62.99
795.8	63.23
796.0	62.48
796.2	61.62
796.4	61.12
796.6	60.52
796.8	60.98
797.0	60.71
797.2	60.84
797.4	59.84
797.6	58.58
797.8	57.60
798.0	57.53
798.2	57.74
798.4	58.51
798.6	59.50
798.8	59.64
799.0	59.64
799.2	58.34
799.4	57.74
799.6	56.69
799.8	56.63
800.0	56.01
800.2	56.98
800.4	56.54
800.6	56.71
800.8	56.15
801.0	56.15
801.2	54.92
801.4	54.38
801.6	52.78
801.8	52.71
802.0	52.91
802.2	53.84
802.4	54.03
802.6	54.42
802.8	54.32
803.0	54.36
803.2	54.06
803.4	52.60
803.6	51.33
803.8	50.18
804.0	49.71
804.2	49.05
804.4	50.38
804.6	51.11
804.8	51.73
805.0	51.81
805.2	51.66
805.4	50.23
805.6	50.12
805.8	50.72
806.0	50.75
806.2	50.57
806.4	49.74
806.6	48.61
806.8	48.03
807.0	48.74
807.2	48.32
807.4	48.32
807.6	47.61
807.8	47.18
808.0	46.62
808.2	46.86
808.4	46.53
808.6	46.66
808.8	46.54
809.0	46.00
809.2	45.67
809.4	45.35
809.6	45.42
809.8	44.93
810.0	44.24
810.2	44.15
810.4	43.73
810.6	43.25
810.8	43.42
811.0	43.38
811.2	43.00
811.4	43.12
811.6	42.75
811.8	43.04
812.0	42.67
812.2	42.43
812.4	40.88
812.6	40.28
812.8	40.02
813.0	40.60
813.2	40.99
813.4	41.46
813.6	40.41
813.8	40.63
814.0	40.05
814.2	39.73
814.4	39.44
814.6	39.35
814.8	38.51
815.0	38.97
815.2	39.19
815.4	39.15
815.6	38.47
815.8	37.86
816.0	36.56
816.2	35.88
816.4	35.70
816.6	36.04
816.8	35.96
817.0	37.13
817.2	36.68
817.4	35.95
817.6	35.35
817.8	35.42
818.0	35.50
818.2	36.11
818.4	35.95
818.6	35.52
818.8	34.96
819.0	34.34
819.2	33.88
819.4	33.00
819.6	32.78
819.8	32.65
820.0	32.67
820.2	32.53
820.4	32.67
820.6	32.98
820.8	31.90
821.0	31.57
821.2	31.99
821.4	31.89
821.6	31.69
821.8	31.81
822.0	30.52
822.2	29.98
822.4	30.80
822.6	31.42
822.8	31.41
823.0	31.18
823.2	30.31
823.4	28.97
823.6	28.56
823.8	28.63
824.0	28.87
824.2	29.45
824.4	29.61
824.6	29.12
824.8	28.52
825.0	27.94
825.2	27.91
825.4	27.68
825.6	27.26
825.8	27.39
826.0	27.42
826.2	27.33
826.4	27.20
826.6	26.41
826.8	25.60
827.0	25.65
827.2	25.47
827.4	26.00
827.6	25.63
827.8	25.38
828.0	25.13
828.2	25.15
828.4	24.68
828.6	25.33
828.8	24.82
829.0	24.49
829.2	23.86
829.4	23.54
829.6	23.51
829.8	23.86
830.0	23.70
830.2	23.23
830.4	22.50
830.6	21.71
830.8	21.52
831.0	21.71
831.2	21.54
831.4	21.52
831.6	21.18
831.8	21.16
832.0	21.02
832.2	21.17
832.4	21.02
832.6	20.45
832.8	19.35
833.0	19.22
833.2	19.00
833.4	19.27
833.6	19.45
833.8	19.26
834.0	18.79
834.2	18.36
834.4	17.88
834.6	17.92
834.8	18.04
835.0	17.79
835.2	18.03
835.4	17.65
835.6	17.07
835.8	17.07
836.0	17.28
836.2	17.25
836.4	17.67
836.6	17.09
836.8	16.45
837.0	16.07
837.2	16.23
837.4	16.25
837.6	16.30
837.8	15.70
838.0	15.12
838.2	15.06
838.4	15.46
