Sample:	'20211010A(EM)
File name:	B-NI 6 600.FDS
Run date:	'10:07:05, 06/20/2023
Operator:	Administrator
Comment:	'

Instrument
Model:	F-4700 FL Spectrophotometer
Serial number:	2019-001
ROM Version:	5J24010 00

Instrument parameters
Measurement type:	Wavelength scan
Scan mode:	Emission
Data mode:	Fluorescence
EX WL:	350.0 nm
EM  Start WL:	370.0 nm
EM  End WL:	700.0 nm
Scan speed:	1200 nm/min
Delay:	0.0 s
EX Slit:	10.0 nm
EM Slit:	10.0 nm
PMT Voltage:	312 V
Response:	0.002 s
Corrected spectra:	Off
Shutter control:	On

Processing performed
Savitsky-Golay smoothed
Smoothing order:	3
Number of points:	7
Number of times:	1

Peak integration
Integration method:	Rectangular
Sensitivity:	1
Threshold:	1.000

Peaks
No.	Start(nm)	Apex(nm)	End(nm)	Height(Data)	Valley(nm)	Valley(Data)
1	370.0	442.2	700.0	3558	700.0	2.794

Data points
nm	Data
370.0	12.19
370.2	12.60
370.4	12.87
370.6	13.07
370.8	13.27
371.0	13.62
371.2	14.10
371.4	14.53
371.6	14.86
371.8	15.18
372.0	15.51
372.2	15.84
372.4	16.34
372.6	16.73
372.8	17.10
373.0	17.56
373.2	18.09
373.4	18.43
373.6	18.89
373.8	19.32
374.0	19.80
374.2	20.33
374.4	20.95
374.6	21.43
374.8	21.98
375.0	22.56
375.2	23.15
375.4	23.78
375.6	24.33
375.8	25.06
376.0	25.82
376.2	26.51
376.4	27.22
376.6	27.98
376.8	28.64
377.0	29.57
377.2	30.39
377.4	31.25
377.6	32.15
377.8	33.12
378.0	33.95
378.2	34.77
378.4	35.50
378.6	36.44
378.8	37.56
379.0	38.80
379.2	39.98
379.4	41.25
379.6	42.48
379.8	43.73
380.0	45.05
380.2	46.37
380.4	47.73
380.6	49.04
380.8	50.48
381.0	51.93
381.2	53.55
381.4	55.25
381.6	57.09
381.8	58.85
382.0	60.72
382.2	62.50
382.4	64.05
382.6	65.69
382.8	67.65
383.0	69.86
383.2	72.19
383.4	74.30
383.6	76.30
383.8	78.62
384.0	81.00
384.2	83.42
384.4	85.93
384.6	88.56
384.8	91.13
385.0	94.01
385.2	96.83
385.4	99.81
385.6	102.8
385.8	106.5
386.0	109.8
386.2	113.1
386.4	116.6
386.6	120.1
386.8	123.7
387.0	127.6
387.2	131.5
387.4	135.2
387.6	138.8
387.8	142.7
388.0	146.8
388.2	151.2
388.4	156.2
388.6	161.1
388.8	165.6
389.0	170.3
389.2	174.9
389.4	179.6
389.6	185.1
389.8	190.7
390.0	196.6
390.2	202.7
390.4	208.7
390.6	215.0
390.8	221.3
391.0	226.8
391.2	233.2
391.4	239.3
391.6	246.1
391.8	253.1
392.0	260.3
392.2	266.4
392.4	273.8
392.6	280.9
392.8	288.5
393.0	296.1
393.2	304.0
393.4	310.9
393.6	318.6
393.8	327.7
394.0	336.5
394.2	346.3
394.4	356.0
394.6	365.3
394.8	374.7
395.0	384.5
395.2	393.4
395.4	403.5
395.6	414.0
395.8	426.1
396.0	437.7
396.2	448.8
396.4	458.6
396.6	468.2
396.8	478.7
397.0	490.9
397.2	502.2
397.4	515.2
397.6	526.5
397.8	538.6
398.0	551.2
398.2	563.8
398.4	575.7
398.6	589.3
398.8	602.0
399.0	617.6
399.2	632.8
399.4	646.7
399.6	660.1
399.8	673.7
400.0	687.3
400.2	702.9
400.4	719.2
400.6	735.3
400.8	751.1
401.0	767.4
401.2	782.4
401.4	797.2
401.6	811.7
401.8	827.6
402.0	844.7
402.2	862.1
402.4	878.7
402.6	894.0
402.8	908.6
403.0	925.6
403.2	943.6
403.4	960.8
403.6	978.4
403.8	995.3
404.0	1012
404.2	1031
404.4	1050
404.6	1067
404.8	1086
405.0	1105
405.2	1122
405.4	1140
405.6	1161
405.8	1180
406.0	1201
406.2	1221
406.4	1238
406.6	1254
406.8	1275
407.0	1293
407.2	1313
407.4	1331
407.6	1350
407.8	1372
408.0	1393
408.2	1413
408.4	1431
408.6	1448
408.8	1467
409.0	1486
409.2	1507
409.4	1529
409.6	1549
409.8	1568
410.0	1587
410.2	1608
410.4	1628
410.6	1650
410.8	1672
411.0	1694
411.2	1711
411.4	1732
411.6	1748
411.8	1768
412.0	1790
412.2	1812
412.4	1828
412.6	1848
412.8	1863
413.0	1885
413.2	1907
413.4	1928
413.6	1947
413.8	1966
414.0	1982
414.2	2007
414.4	2027
414.6	2046
414.8	2066
415.0	2085
415.2	2105
415.4	2127
415.6	2146
415.8	2166
416.0	2186
416.2	2206
416.4	2225
416.6	2241
416.8	2259
417.0	2279
417.2	2296
417.4	2313
417.6	2327
417.8	2344
418.0	2359
418.2	2376
418.4	2393
418.6	2410
418.8	2427
419.0	2449
419.2	2466
419.4	2488
419.6	2508
419.8	2526
420.0	2541
420.2	2557
420.4	2573
420.6	2593
420.8	2611
421.0	2628
421.2	2643
421.4	2657
421.6	2671
421.8	2687
422.0	2700
422.2	2716
422.4	2733
422.6	2749
422.8	2766
423.0	2778
423.2	2790
423.4	2808
423.6	2826
423.8	2843
424.0	2859
424.2	2872
424.4	2884
424.6	2899
424.8	2915
425.0	2929
425.2	2944
425.4	2959
425.6	2972
425.8	2985
426.0	2997
426.2	3012
426.4	3026
426.6	3036
426.8	3048
427.0	3060
427.2	3069
427.4	3082
427.6	3095
427.8	3108
428.0	3124
428.2	3136
428.4	3145
428.6	3150
428.8	3162
429.0	3174
429.2	3191
429.4	3204
429.6	3215
429.8	3223
430.0	3232
430.2	3237
430.4	3251
430.6	3266
430.8	3280
431.0	3290
431.2	3296
431.4	3300
431.6	3306
431.8	3319
432.0	3330
432.2	3340
432.4	3353
432.6	3362
432.8	3363
433.0	3371
433.2	3374
433.4	3381
433.6	3394
433.8	3404
434.0	3409
434.2	3416
434.4	3418
434.6	3423
434.8	3431
435.0	3441
435.2	3444
435.4	3453
435.6	3457
435.8	3464
436.0	3472
436.2	3477
436.4	3482
436.6	3492
436.8	3492
437.0	3498
437.2	3501
437.4	3500
437.6	3504
437.8	3508
438.0	3508
438.2	3515
438.4	3523
438.6	3526
438.8	3526
439.0	3526
439.2	3525
439.4	3531
439.6	3539
439.8	3541
440.0	3538
440.2	3540
440.4	3540
440.6	3544
440.8	3547
441.0	3551
441.2	3548
441.4	3550
441.6	3551
441.8	3554
442.0	3555
442.2	3558
442.4	3557
442.6	3554
442.8	3551
443.0	3549
443.2	3545
443.4	3543
443.6	3546
443.8	3544
444.0	3542
444.2	3546
444.4	3543
444.6	3543
444.8	3547
445.0	3544
445.2	3543
445.4	3542
445.6	3538
445.8	3535
446.0	3533
446.2	3531
446.4	3528
446.6	3523
446.8	3521
447.0	3515
447.2	3514
447.4	3515
447.6	3514
447.8	3510
448.0	3509
448.2	3505
448.4	3502
448.6	3499
448.8	3494
449.0	3487
449.2	3479
449.4	3474
449.6	3474
449.8	3471
450.0	3465
450.2	3461
450.4	3453
450.6	3450
450.8	3448
451.0	3444
451.2	3440
451.4	3433
451.6	3428
451.8	3424
452.0	3415
452.2	3408
452.4	3406
452.6	3403
452.8	3404
453.0	3404
453.2	3399
453.4	3390
453.6	3380
453.8	3374
454.0	3372
454.2	3369
454.4	3363
454.6	3359
454.8	3354
455.0	3344
455.2	3330
455.4	3316
455.6	3308
455.8	3307
456.0	3304
456.2	3298
456.4	3287
456.6	3275
456.8	3265
457.0	3260
457.2	3252
457.4	3251
457.6	3249
457.8	3244
458.0	3241
458.2	3230
458.4	3214
458.6	3204
458.8	3193
459.0	3186
459.2	3185
459.4	3178
459.6	3174
459.8	3169
460.0	3158
460.2	3150
460.4	3138
460.6	3129
460.8	3126
461.0	3121
461.2	3110
461.4	3100
461.6	3092
461.8	3090
462.0	3085
462.2	3081
462.4	3061
462.6	3047
462.8	3035
463.0	3028
463.2	3019
463.4	3012
463.6	3001
463.8	2998
464.0	2989
464.2	2982
464.4	2972
464.6	2967
464.8	2962
465.0	2952
465.2	2939
465.4	2926
465.6	2913
465.8	2910
466.0	2904
466.2	2899
466.4	2893
466.6	2884
466.8	2875
467.0	2863
467.2	2856
467.4	2846
467.6	2833
467.8	2822
468.0	2811
468.2	2799
468.4	2794
468.6	2785
468.8	2777
469.0	2764
469.2	2754
469.4	2743
469.6	2732
469.8	2723
470.0	2715
470.2	2705
470.4	2698
470.6	2686
470.8	2672
471.0	2662
471.2	2652
471.4	2643
471.6	2637
471.8	2631
472.0	2623
472.2	2617
472.4	2607
472.6	2598
472.8	2587
473.0	2574
473.2	2561
473.4	2551
473.6	2538
473.8	2530
474.0	2517
474.2	2507
474.4	2499
474.6	2493
474.8	2483
475.0	2477
475.2	2465
475.4	2458
475.6	2447
475.8	2437
476.0	2426
476.2	2416
476.4	2405
476.6	2398
476.8	2391
477.0	2382
477.2	2374
477.4	2363
477.6	2355
477.8	2346
478.0	2337
478.2	2327
478.4	2319
478.6	2310
478.8	2305
479.0	2297
479.2	2288
479.4	2276
479.6	2263
479.8	2251
480.0	2243
480.2	2233
480.4	2227
480.6	2220
480.8	2210
481.0	2202
481.2	2194
481.4	2184
481.6	2177
481.8	2170
482.0	2157
482.2	2146
482.4	2135
482.6	2127
482.8	2119
483.0	2113
483.2	2105
483.4	2098
483.6	2092
483.8	2083
484.0	2070
484.2	2060
484.4	2052
484.6	2043
484.8	2039
485.0	2032
485.2	2024
485.4	2016
485.6	2008
485.8	1999
486.0	1993
486.2	1984
486.4	1976
486.6	1965
486.8	1956
487.0	1946
487.2	1936
487.4	1928
487.6	1920
487.8	1913
488.0	1906
488.2	1897
488.4	1886
488.6	1877
488.8	1868
489.0	1857
489.2	1849
489.4	1846
489.6	1841
489.8	1832
490.0	1823
490.2	1811
490.4	1802
490.6	1795
490.8	1790
491.0	1780
491.2	1769
491.4	1759
491.6	1748
491.8	1738
492.0	1733
492.2	1728
492.4	1724
492.6	1719
492.8	1711
493.0	1700
493.2	1689
493.4	1680
493.6	1674
493.8	1669
494.0	1663
494.2	1653
494.4	1641
494.6	1632
494.8	1627
495.0	1618
495.2	1609
495.4	1601
495.6	1596
495.8	1589
496.0	1581
496.2	1571
496.4	1560
496.6	1552
496.8	1549
497.0	1542
497.2	1533
497.4	1526
497.6	1517
497.8	1508
498.0	1502
498.2	1496
498.4	1488
498.6	1480
498.8	1473
499.0	1466
499.2	1458
499.4	1447
499.6	1438
499.8	1427
500.0	1419
500.2	1412
500.4	1408
500.6	1398
500.8	1393
501.0	1386
501.2	1377
501.4	1368
501.6	1362
501.8	1355
502.0	1349
502.2	1340
502.4	1331
502.6	1324
502.8	1319
503.0	1314
503.2	1306
503.4	1300
503.6	1293
503.8	1286
504.0	1280
504.2	1273
504.4	1265
504.6	1260
504.8	1253
505.0	1244
505.2	1236
505.4	1230
505.6	1222
505.8	1215
506.0	1208
506.2	1198
506.4	1190
506.6	1183
506.8	1177
507.0	1169
507.2	1162
507.4	1157
507.6	1155
507.8	1152
508.0	1145
508.2	1138
508.4	1129
508.6	1122
508.8	1117
509.0	1111
509.2	1103
509.4	1095
509.6	1087
509.8	1081
510.0	1076
510.2	1069
510.4	1063
510.6	1056
510.8	1050
511.0	1045
511.2	1039
511.4	1032
511.6	1027
511.8	1020
512.0	1015
512.2	1010
512.4	1007
512.6	1002
512.8	994.5
513.0	984.9
513.2	978.1
513.4	970.6
513.6	965.8
513.8	960.9
514.0	955.9
514.2	950.6
514.4	945.1
514.6	939.2
514.8	934.0
515.0	926.7
515.2	920.5
515.4	914.4
515.6	908.0
515.8	904.1
516.0	901.3
516.2	896.5
516.4	890.6
516.6	886.3
516.8	879.3
517.0	873.4
517.2	869.0
517.4	864.2
517.6	858.5
517.8	854.3
518.0	847.9
518.2	841.7
518.4	836.7
518.6	832.8
518.8	827.2
519.0	822.1
519.2	817.7
519.4	812.0
519.6	807.9
519.8	803.8
520.0	799.7
520.2	794.6
520.4	789.3
520.6	782.7
520.8	777.3
521.0	773.1
521.2	770.1
521.4	765.5
521.6	760.8
521.8	754.4
522.0	749.4
522.2	746.4
522.4	740.9
522.6	735.6
522.8	730.3
523.0	724.3
523.2	720.3
523.4	718.2
523.6	714.0
523.8	709.1
524.0	703.7
524.2	698.7
524.4	692.8
524.6	689.9
524.8	687.3
525.0	684.1
525.2	680.0
525.4	673.7
525.6	667.9
525.8	664.6
526.0	660.6
526.2	657.0
526.4	652.8
526.6	648.1
526.8	646.5
527.0	644.3
527.2	640.8
527.4	636.6
527.6	631.6
527.8	626.8
528.0	623.1
528.2	618.9
528.4	615.2
528.6	611.2
528.8	607.6
529.0	604.0
529.2	601.0
529.4	597.2
529.6	593.6
529.8	589.4
530.0	585.7
530.2	582.5
530.4	579.5
530.6	575.6
530.8	571.2
531.0	566.8
531.2	562.7
531.4	559.6
531.6	556.4
531.8	553.5
532.0	549.3
532.2	545.9
532.4	542.6
532.6	539.1
532.8	535.7
533.0	532.6
533.2	528.7
533.4	525.7
533.6	522.2
533.8	518.2
534.0	514.8
534.2	511.0
534.4	507.9
534.6	504.9
534.8	502.1
535.0	498.0
535.2	494.9
535.4	491.5
535.6	488.6
535.8	485.4
536.0	482.7
536.2	478.7
536.4	476.0
536.6	472.9
536.8	470.0
537.0	467.5
537.2	464.7
537.4	461.5
537.6	459.1
537.8	456.0
538.0	453.3
538.2	450.2
538.4	447.3
538.6	443.7
538.8	441.1
539.0	437.8
539.2	434.9
539.4	432.8
539.6	430.4
539.8	426.7
540.0	424.3
540.2	421.6
540.4	419.3
540.6	418.2
540.8	416.0
541.0	411.7
541.2	408.3
541.4	405.0
541.6	401.6
541.8	399.6
542.0	397.2
542.2	393.8
542.4	391.9
542.6	389.4
542.8	387.4
543.0	385.7
543.2	382.9
543.4	379.8
543.6	377.5
543.8	374.6
544.0	372.5
544.2	369.6
544.4	367.0
544.6	364.5
544.8	362.2
545.0	359.9
545.2	357.4
545.4	354.5
545.6	351.9
545.8	349.6
546.0	347.5
546.2	345.4
546.4	343.3
546.6	341.1
546.8	338.8
547.0	336.5
547.2	334.5
547.4	332.3
547.6	330.0
547.8	327.5
548.0	324.9
548.2	322.2
548.4	320.0
548.6	318.3
548.8	317.0
549.0	315.7
549.2	313.4
549.4	310.7
549.6	308.5
549.8	305.8
550.0	303.6
550.2	302.2
550.4	300.2
550.6	298.0
550.8	296.0
551.0	293.4
551.2	291.3
551.4	289.9
551.6	288.3
551.8	286.2
552.0	284.6
552.2	282.2
552.4	280.3
552.6	278.8
552.8	276.8
553.0	275.0
553.2	273.4
553.4	271.5
553.6	269.4
553.8	268.1
554.0	265.8
554.2	263.6
554.4	261.2
554.6	259.7
554.8	257.6
555.0	256.6
555.2	255.1
555.4	253.7
555.6	252.1
555.8	250.6
556.0	248.4
556.2	246.9
556.4	245.3
556.6	244.0
556.8	242.4
557.0	240.3
557.2	238.1
557.4	236.9
557.6	235.7
557.8	234.3
558.0	232.9
558.2	230.9
558.4	229.0
558.6	227.7
558.8	226.1
559.0	224.7
559.2	223.2
559.4	221.7
559.6	220.4
559.8	219.1
560.0	217.8
560.2	216.4
560.4	214.2
560.6	212.4
560.8	211.0
561.0	209.5
561.2	208.3
561.4	207.1
561.6	205.0
561.8	203.3
562.0	201.7
562.2	200.2
562.4	199.0
562.6	198.2
562.8	197.2
563.0	196.0
563.2	195.0
563.4	193.3
563.6	191.7
563.8	190.1
564.0	188.5
564.2	187.0
564.4	186.0
564.6	184.8
564.8	183.8
565.0	182.4
565.2	180.5
565.4	179.2
565.6	178.2
565.8	177.6
566.0	177.0
566.2	175.7
566.4	173.9
566.6	172.8
566.8	171.6
567.0	170.3
567.2	169.5
567.4	168.4
567.6	167.0
567.8	166.0
568.0	164.6
568.2	163.2
568.4	161.9
568.6	161.2
568.8	160.4
569.0	159.6
569.2	158.8
569.4	157.6
569.6	156.1
569.8	154.7
570.0	153.6
570.2	152.4
570.4	151.8
570.6	151.0
570.8	150.3
571.0	149.5
571.2	148.3
571.4	146.9
571.6	145.7
571.8	144.5
572.0	143.5
572.2	142.9
572.4	141.6
572.6	140.6
572.8	139.5
573.0	138.9
573.2	138.1
573.4	137.3
573.6	135.9
573.8	134.9
574.0	133.6
574.2	132.9
574.4	132.1
574.6	131.2
574.8	130.5
575.0	129.7
575.2	129.2
575.4	128.4
575.6	127.7
575.8	126.4
576.0	125.2
576.2	124.1
576.4	123.5
576.6	122.4
576.8	121.9
577.0	121.2
577.2	120.6
577.4	119.9
577.6	119.2
577.8	118.3
578.0	117.2
578.2	116.2
578.4	115.4
578.6	114.5
578.8	113.7
579.0	113.2
579.2	112.1
579.4	111.2
579.6	110.5
579.8	109.9
580.0	109.3
580.2	109.0
580.4	108.2
580.6	107.2
580.8	106.3
581.0	105.5
581.2	104.7
581.4	103.9
581.6	103.3
581.8	102.5
582.0	101.6
582.2	101.1
582.4	100.7
582.6	100.1
582.8	99.69
583.0	99.00
583.2	98.06
583.4	96.91
583.6	96.32
583.8	95.68
584.0	95.29
584.2	94.77
584.4	94.60
584.6	93.42
584.8	92.58
585.0	91.67
585.2	90.93
585.4	90.23
585.6	90.25
585.8	89.66
586.0	88.97
586.2	88.31
586.4	87.59
586.6	86.78
586.8	86.24
587.0	85.79
587.2	85.00
587.4	84.61
587.6	84.01
587.8	83.45
588.0	82.86
588.2	82.55
588.4	82.22
588.6	81.93
588.8	81.14
589.0	80.48
589.2	79.65
589.4	79.07
589.6	78.81
589.8	78.45
590.0	77.52
590.2	77.00
590.4	76.07
590.6	75.59
590.8	75.34
591.0	75.03
591.2	74.43
591.4	74.01
591.6	73.42
591.8	72.82
592.0	72.09
592.2	71.50
592.4	71.09
592.6	70.82
592.8	70.71
593.0	70.18
593.2	69.63
593.4	69.31
593.6	68.72
593.8	68.07
594.0	67.55
594.2	66.91
594.4	66.35
594.6	65.96
594.8	65.68
595.0	65.10
595.2	64.67
595.4	64.27
595.6	63.80
595.8	63.47
596.0	63.34
596.2	62.70
596.4	62.15
596.6	61.84
596.8	61.63
597.0	61.40
597.2	61.00
597.4	60.34
597.6	59.70
597.8	59.29
598.0	59.11
598.2	58.76
598.4	58.34
598.6	57.71
598.8	57.27
599.0	56.93
599.2	56.74
599.4	56.41
599.6	56.25
599.8	55.79
600.0	55.42
600.2	54.83
600.4	54.38
600.6	54.02
600.8	53.68
601.0	53.54
601.2	53.14
601.4	52.75
601.6	52.29
601.8	51.87
602.0	51.18
602.2	50.84
602.4	50.56
602.6	50.38
602.8	50.19
603.0	49.99
603.2	49.47
603.4	49.14
603.6	48.85
603.8	48.55
604.0	48.40
604.2	48.09
604.4	47.56
604.6	47.35
604.8	46.84
605.0	46.48
605.2	46.17
605.4	45.80
605.6	45.39
605.8	45.07
606.0	44.61
606.2	44.31
606.4	44.05
606.6	43.90
606.8	43.89
607.0	43.47
607.2	42.97
607.4	42.53
607.6	42.15
607.8	41.99
608.0	41.95
608.2	41.71
608.4	41.31
608.6	40.85
608.8	40.45
609.0	40.12
609.2	39.90
609.4	39.68
609.6	39.43
609.8	39.07
610.0	38.90
610.2	38.63
610.4	38.60
610.6	38.49
610.8	38.43
611.0	38.14
611.2	37.64
611.4	37.02
611.6	36.77
611.8	36.69
612.0	36.63
612.2	36.33
612.4	35.76
612.6	35.30
612.8	35.12
613.0	34.93
613.2	34.72
613.4	34.53
613.6	34.30
613.8	34.18
614.0	34.19
614.2	33.93
614.4	33.59
614.6	33.32
614.8	33.00
615.0	32.68
615.2	32.43
615.4	32.24
615.6	31.99
615.8	31.83
616.0	31.57
616.2	31.44
616.4	31.16
616.6	31.01
616.8	30.84
617.0	30.56
617.2	30.25
617.4	30.13
617.6	29.82
617.8	29.62
618.0	29.46
618.2	29.36
618.4	29.17
618.6	28.96
618.8	28.61
619.0	28.34
619.2	28.01
619.4	27.97
619.6	27.88
619.8	27.73
620.0	27.57
620.2	27.37
620.4	27.10
620.6	26.92
620.8	26.65
621.0	26.32
621.2	26.28
621.4	26.17
621.6	26.14
621.8	25.77
622.0	25.43
622.2	25.23
622.4	25.11
622.6	24.95
622.8	24.72
623.0	24.39
623.2	24.36
623.4	24.36
623.6	24.28
623.8	24.10
624.0	23.79
624.2	23.71
624.4	23.58
624.6	23.42
624.8	23.28
625.0	23.08
625.2	22.91
625.4	22.83
625.6	22.65
625.8	22.43
626.0	22.27
626.2	22.04
626.4	21.82
626.6	21.64
626.8	21.47
627.0	21.31
627.2	21.26
627.4	21.04
627.6	20.88
627.8	20.65
628.0	20.46
628.2	20.43
628.4	20.24
628.6	20.08
628.8	19.96
629.0	19.70
629.2	19.55
629.4	19.48
629.6	19.23
629.8	19.21
630.0	19.16
630.2	19.08
630.4	19.08
630.6	18.83
630.8	18.57
631.0	18.35
631.2	18.16
631.4	18.15
631.6	18.27
631.8	18.08
632.0	18.04
632.2	17.77
632.4	17.71
632.6	17.66
632.8	17.59
633.0	17.38
633.2	17.18
633.4	16.96
633.6	16.81
633.8	16.62
634.0	16.48
634.2	16.44
634.4	16.31
634.6	16.22
634.8	16.08
635.0	15.87
635.2	15.82
635.4	15.73
635.6	15.74
635.8	15.64
636.0	15.58
636.2	15.33
636.4	15.27
636.6	15.10
636.8	15.08
637.0	14.99
637.2	14.96
637.4	14.78
637.6	14.64
637.8	14.51
638.0	14.36
638.2	14.21
638.4	14.30
638.6	14.16
638.8	14.04
639.0	13.89
639.2	13.81
639.4	13.68
639.6	13.57
639.8	13.42
640.0	13.37
640.2	13.27
640.4	13.33
640.6	13.30
640.8	13.15
641.0	13.03
641.2	12.90
641.4	12.77
641.6	12.75
641.8	12.62
642.0	12.51
642.2	12.35
642.4	12.25
642.6	12.17
642.8	12.05
643.0	11.92
643.2	11.94
643.4	11.88
643.6	11.88
643.8	11.77
644.0	11.57
644.2	11.43
644.4	11.31
644.6	11.23
644.8	11.21
645.0	11.13
645.2	11.03
645.4	10.92
645.6	10.84
645.8	10.92
646.0	10.96
646.2	10.99
646.4	10.79
646.6	10.63
646.8	10.46
647.0	10.35
647.2	10.24
647.4	10.20
647.6	10.13
647.8	10.13
648.0	10.10
648.2	10.06
648.4	9.957
648.6	9.862
648.8	9.907
649.0	9.855
649.2	9.817
649.4	9.705
649.6	9.510
649.8	9.407
650.0	9.332
650.2	9.293
650.4	9.317
650.6	9.172
650.8	9.044
651.0	9.049
651.2	8.968
651.4	8.935
651.6	8.944
651.8	8.838
652.0	8.702
652.2	8.700
652.4	8.619
652.6	8.549
652.8	8.525
653.0	8.529
653.2	8.495
653.4	8.498
653.6	8.387
653.8	8.247
654.0	8.061
654.2	7.918
654.4	7.943
654.6	7.972
654.8	7.922
655.0	7.847
655.2	7.710
655.4	7.627
655.6	7.633
655.8	7.611
656.0	7.541
656.2	7.572
656.4	7.514
656.6	7.477
656.8	7.477
657.0	7.471
657.2	7.419
657.4	7.401
657.6	7.356
657.8	7.212
658.0	7.156
658.2	7.087
658.4	7.054
658.6	6.994
658.8	7.040
659.0	6.943
659.2	6.851
659.4	6.804
659.6	6.767
659.8	6.637
660.0	6.614
660.2	6.567
660.4	6.549
660.6	6.620
660.8	6.693
661.0	6.550
661.2	6.395
661.4	6.306
661.6	6.265
661.8	6.272
662.0	6.260
662.2	6.159
662.4	6.084
662.6	6.052
662.8	6.052
663.0	6.120
663.2	6.113
663.4	6.136
663.6	6.130
663.8	6.019
664.0	5.887
664.2	5.734
664.4	5.623
664.6	5.619
664.8	5.672
665.0	5.739
665.2	5.750
665.4	5.634
665.6	5.537
665.8	5.450
666.0	5.405
666.2	5.392
666.4	5.398
666.6	5.313
666.8	5.251
667.0	5.192
667.2	5.224
667.4	5.223
667.6	5.228
667.8	5.136
668.0	5.074
668.2	4.995
668.4	5.013
668.6	4.982
668.8	4.979
669.0	4.973
669.2	4.949
669.4	4.913
669.6	4.930
669.8	4.789
670.0	4.788
670.2	4.765
670.4	4.772
670.6	4.803
670.8	4.775
671.0	4.692
671.2	4.697
671.4	4.603
671.6	4.507
671.8	4.474
672.0	4.416
672.2	4.466
