Sample:	'20211010A(EM)
File name:	B-NI 2 200.FDS
Run date:	'09:53:11, 06/20/2023
Operator:	Administrator
Comment:	'

Instrument
Model:	F-4700 FL Spectrophotometer
Serial number:	2019-001
ROM Version:	5J24010 00

Instrument parameters
Measurement type:	Wavelength scan
Scan mode:	Emission
Data mode:	Fluorescence
EX WL:	350.0 nm
EM  Start WL:	370.0 nm
EM  End WL:	700.0 nm
Scan speed:	1200 nm/min
Delay:	0.0 s
EX Slit:	10.0 nm
EM Slit:	10.0 nm
PMT Voltage:	320 V
Response:	0.002 s
Corrected spectra:	Off
Shutter control:	On

Processing performed
Savitsky-Golay smoothed
Smoothing order:	3
Number of points:	7
Number of times:	1

Peak integration
Integration method:	Rectangular
Sensitivity:	1
Threshold:	1.000

Peaks
No.	Start(nm)	Apex(nm)	End(nm)	Height(Data)	Valley(nm)	Valley(Data)
1	370.0	442.6	443.2	9240	443.2	9211
2	443.2	444.8	446.8	9268	446.8	9217
3	446.8	447.6	700.0	9239	700.0	5.901

Data points
nm	Data
370.0	30.06
370.2	30.61
370.4	31.40
370.6	32.31
370.8	33.16
371.0	33.93
371.2	34.62
371.4	35.41
371.6	36.15
371.8	37.05
372.0	37.84
372.2	38.99
372.4	40.00
372.6	41.02
372.8	41.58
373.0	42.33
373.2	43.16
373.4	44.45
373.6	45.78
373.8	47.07
374.0	48.18
374.2	49.41
374.4	50.62
374.6	52.11
374.8	53.42
375.0	54.53
375.2	55.72
375.4	57.24
375.6	58.72
375.8	60.69
376.0	62.33
376.2	63.85
376.4	65.16
376.6	66.92
376.8	68.47
377.0	70.23
377.2	71.86
377.4	73.77
377.6	75.64
377.8	78.10
378.0	80.40
378.2	82.71
378.4	85.08
378.6	87.51
378.8	89.93
379.0	92.54
379.2	94.90
379.4	97.41
379.6	100.0
379.8	102.8
380.0	105.7
380.2	108.6
380.4	111.9
380.6	115.3
380.8	118.9
381.0	122.6
381.2	126.1
381.4	129.8
381.6	133.8
381.8	137.5
382.0	141.3
382.2	144.9
382.4	148.5
382.6	152.8
382.8	157.2
383.0	162.1
383.2	166.6
383.4	171.5
383.6	176.0
383.8	181.5
384.0	187.2
384.2	193.2
384.4	199.1
384.6	205.6
384.8	211.9
385.0	218.2
385.2	224.7
385.4	230.9
385.6	237.6
385.8	244.7
386.0	252.2
386.2	259.7
386.4	267.8
386.6	275.9
386.8	284.1
387.0	292.2
387.2	300.8
387.4	310.2
387.6	319.3
387.8	328.4
388.0	337.7
388.2	347.7
388.4	357.4
388.6	367.9
388.8	377.8
389.0	388.7
389.2	399.7
389.4	412.1
389.6	424.0
389.8	436.9
390.0	449.8
390.2	463.4
390.4	476.4
390.6	490.3
390.8	504.2
391.0	519.3
391.2	534.2
391.4	548.5
391.6	563.4
391.8	578.5
392.0	593.9
392.2	609.9
392.4	625.8
392.6	643.0
392.8	661.9
393.0	679.5
393.2	697.9
393.4	715.2
393.6	732.2
393.8	750.2
394.0	770.3
394.2	791.1
394.4	813.4
394.6	835.9
394.8	858.2
395.0	880.2
395.2	904.0
395.4	929.2
395.6	951.8
395.8	977.2
396.0	1001
396.2	1026
396.4	1050
396.6	1076
396.8	1101
397.0	1129
397.2	1154
397.4	1182
397.6	1210
397.8	1240
398.0	1269
398.2	1300
398.4	1328
398.6	1358
398.8	1389
399.0	1423
399.2	1456
399.4	1492
399.6	1525
399.8	1559
400.0	1592
400.2	1628
400.4	1663
400.6	1701
400.8	1740
401.0	1777
401.2	1813
401.4	1851
401.6	1886
401.8	1927
402.0	1970
402.2	2014
402.4	2053
402.6	2090
402.8	2121
403.0	2160
403.2	2199
403.4	2242
403.6	2284
403.8	2330
404.0	2374
404.2	2418
404.4	2460
404.6	2501
404.8	2540
405.0	2585
405.2	2631
405.4	2682
405.6	2731
405.8	2781
406.0	2826
406.2	2870
406.4	2914
406.6	2961
406.8	3007
407.0	3056
407.2	3103
407.4	3153
407.6	3199
407.8	3246
408.0	3295
408.2	3349
408.4	3398
408.6	3448
408.8	3494
409.0	3545
409.2	3598
409.4	3650
409.6	3694
409.8	3739
410.0	3783
410.2	3835
410.4	3895
410.6	3951
410.8	4003
411.0	4053
411.2	4095
411.4	4141
411.6	4192
411.8	4250
412.0	4304
412.2	4358
412.4	4410
412.6	4460
412.8	4505
413.0	4554
413.2	4603
413.4	4656
413.6	4711
413.8	4754
414.0	4802
414.2	4851
414.4	4910
414.6	4967
414.8	5022
415.0	5068
415.2	5116
415.4	5162
415.6	5213
415.8	5268
416.0	5318
416.2	5367
416.4	5413
416.6	5459
416.8	5513
417.0	5568
417.2	5612
417.4	5658
417.6	5692
417.8	5734
418.0	5784
418.2	5833
418.4	5887
418.6	5937
418.8	5976
419.0	6020
419.2	6061
419.4	6112
419.6	6170
419.8	6217
420.0	6267
420.2	6314
420.4	6357
420.6	6406
420.8	6442
421.0	6489
421.2	6535
421.4	6582
421.6	6623
421.8	6669
422.0	6702
422.2	6755
422.4	6792
422.6	6835
422.8	6874
423.0	6922
423.2	6963
423.4	7001
423.6	7032
423.8	7071
424.0	7112
424.2	7160
424.4	7199
424.6	7238
424.8	7275
425.0	7317
425.2	7358
425.4	7396
425.6	7429
425.8	7467
426.0	7512
426.2	7552
426.4	7589
426.6	7630
426.8	7661
427.0	7696
427.2	7733
427.4	7761
427.6	7777
427.8	7808
428.0	7845
428.2	7879
428.4	7910
428.6	7945
428.8	7969
429.0	8007
429.2	8051
429.4	8085
429.6	8117
429.8	8141
430.0	8176
430.2	8210
430.4	8231
430.6	8264
430.8	8288
431.0	8308
431.2	8352
431.4	8383
431.6	8400
431.8	8431
432.0	8455
432.2	8466
432.4	8502
432.6	8543
432.8	8571
433.0	8601
433.2	8627
433.4	8628
433.6	8634
433.8	8664
434.0	8689
434.2	8711
434.4	8748
434.6	8772
434.8	8777
435.0	8794
435.2	8807
435.4	8816
435.6	8842
435.8	8864
436.0	8883
436.2	8908
436.4	8920
436.6	8937
436.8	8960
437.0	8967
437.2	8981
437.4	8990
437.6	8998
437.8	9013
438.0	9033
438.2	9043
438.4	9062
438.6	9069
438.8	9085
439.0	9104
439.2	9110
439.4	9126
439.6	9140
439.8	9140
440.0	9147
440.2	9153
440.4	9153
440.6	9163
440.8	9180
441.0	9185
441.2	9201
441.4	9211
441.6	9218
441.8	9215
442.0	9226
442.2	9230
442.4	9238
442.6	9240
442.8	9233
443.0	9211
443.2	9211
443.4	9227
443.6	9238
443.8	9254
444.0	9253
444.2	9250
444.4	9257
444.6	9259
444.8	9268
445.0	9268
445.2	9245
445.4	9239
445.6	9240
445.8	9243
446.0	9258
446.2	9250
446.4	9239
446.6	9224
446.8	9217
447.0	9222
447.2	9231
447.4	9237
447.6	9239
447.8	9239
448.0	9228
448.2	9215
448.4	9198
448.6	9180
448.8	9166
449.0	9169
449.2	9171
449.4	9167
449.6	9159
449.8	9147
450.0	9137
450.2	9136
450.4	9142
450.6	9129
450.8	9118
451.0	9098
451.2	9082
451.4	9080
451.6	9065
451.8	9050
452.0	9030
452.2	9020
452.4	9013
452.6	9004
452.8	8992
453.0	8984
453.2	8975
453.4	8964
453.6	8959
453.8	8944
454.0	8938
454.2	8927
454.4	8917
454.6	8906
454.8	8899
455.0	8880
455.2	8855
455.4	8827
455.6	8802
455.8	8791
456.0	8782
456.2	8765
456.4	8749
456.6	8729
456.8	8720
457.0	8696
457.2	8696
457.4	8677
457.6	8668
457.8	8654
458.0	8642
458.2	8607
458.4	8600
458.6	8568
458.8	8550
459.0	8536
459.2	8527
459.4	8518
459.6	8503
459.8	8479
460.0	8459
460.2	8433
460.4	8416
460.6	8398
460.8	8373
461.0	8360
461.2	8345
461.4	8322
461.6	8298
461.8	8280
462.0	8259
462.2	8236
462.4	8218
462.6	8186
462.8	8165
463.0	8159
463.2	8148
463.4	8128
463.6	8103
463.8	8074
464.0	8049
464.2	8041
464.4	8025
464.6	8009
464.8	7980
465.0	7961
465.2	7926
465.4	7913
465.6	7889
465.8	7868
466.0	7853
466.2	7830
466.4	7798
466.6	7778
466.8	7751
467.0	7735
467.2	7719
467.4	7699
467.6	7669
467.8	7640
468.0	7617
468.2	7597
468.4	7572
468.6	7558
468.8	7525
469.0	7499
469.2	7475
469.4	7443
469.6	7413
469.8	7389
470.0	7362
470.2	7340
470.4	7315
470.6	7293
470.8	7266
471.0	7245
471.2	7230
471.4	7212
471.6	7183
471.8	7158
472.0	7119
472.2	7089
472.4	7074
472.6	7054
472.8	7032
473.0	7017
473.2	6992
473.4	6974
473.6	6954
473.8	6917
474.0	6886
474.2	6846
474.4	6814
474.6	6790
474.8	6769
475.0	6749
475.2	6732
475.4	6709
475.6	6685
475.8	6661
476.0	6636
476.2	6609
476.4	6588
476.6	6565
476.8	6540
477.0	6512
477.2	6479
477.4	6447
477.6	6423
477.8	6401
478.0	6398
478.2	6378
478.4	6361
478.6	6341
478.8	6312
479.0	6273
479.2	6247
479.4	6210
479.6	6184
479.8	6166
480.0	6156
480.2	6133
480.4	6121
480.6	6099
480.8	6074
481.0	6048
481.2	6028
481.4	5995
481.6	5976
481.8	5951
482.0	5929
482.2	5902
482.4	5877
482.6	5853
482.8	5832
483.0	5815
483.2	5796
483.4	5770
483.6	5744
483.8	5724
484.0	5698
484.2	5678
484.4	5660
484.6	5634
484.8	5608
485.0	5589
485.2	5573
485.4	5551
485.6	5530
485.8	5500
486.0	5473
486.2	5450
486.4	5434
486.6	5414
486.8	5394
487.0	5378
487.2	5353
487.4	5325
487.6	5298
487.8	5272
488.0	5249
488.2	5234
488.4	5208
488.6	5186
488.8	5163
489.0	5145
489.2	5120
489.4	5097
489.6	5072
489.8	5046
490.0	5028
490.2	5015
490.4	4995
490.6	4972
490.8	4949
491.0	4925
491.2	4905
491.4	4885
491.6	4860
491.8	4830
492.0	4803
492.2	4781
492.4	4763
492.6	4749
492.8	4729
493.0	4703
493.2	4677
493.4	4649
493.6	4624
493.8	4605
494.0	4587
494.2	4575
494.4	4558
494.6	4534
494.8	4505
495.0	4479
495.2	4461
495.4	4444
495.6	4423
495.8	4399
496.0	4372
496.2	4349
496.4	4330
496.6	4313
496.8	4297
497.0	4278
497.2	4257
497.4	4232
497.6	4209
497.8	4186
498.0	4166
498.2	4150
498.4	4127
498.6	4103
498.8	4083
499.0	4062
499.2	4043
499.4	4023
499.6	3995
499.8	3975
500.0	3956
500.2	3938
500.4	3919
500.6	3895
500.8	3872
501.0	3854
501.2	3833
501.4	3811
501.6	3789
501.8	3772
502.0	3755
502.2	3738
502.4	3716
502.6	3695
502.8	3674
503.0	3656
503.2	3634
503.4	3615
503.6	3596
503.8	3578
504.0	3558
504.2	3535
504.4	3514
504.6	3498
504.8	3480
505.0	3458
505.2	3438
505.4	3416
505.6	3400
505.8	3390
506.0	3373
506.2	3352
506.4	3330
506.6	3303
506.8	3285
507.0	3269
507.2	3252
507.4	3234
507.6	3215
507.8	3196
508.0	3181
508.2	3162
508.4	3145
508.6	3125
508.8	3109
509.0	3091
509.2	3077
509.4	3059
509.6	3042
509.8	3026
510.0	3011
510.2	2992
510.4	2976
510.6	2954
510.8	2933
511.0	2914
511.2	2899
511.4	2885
511.6	2872
511.8	2858
512.0	2840
512.2	2821
512.4	2803
512.6	2785
512.8	2769
513.0	2755
513.2	2740
513.4	2724
513.6	2708
513.8	2690
514.0	2674
514.2	2659
514.4	2643
514.6	2628
514.8	2609
515.0	2590
515.2	2575
515.4	2562
515.6	2552
515.8	2539
516.0	2520
516.2	2504
516.4	2490
516.6	2475
516.8	2464
517.0	2447
517.2	2432
517.4	2419
517.6	2406
517.8	2392
518.0	2378
518.2	2362
518.4	2347
518.6	2332
518.8	2317
519.0	2304
519.2	2290
519.4	2277
519.6	2265
519.8	2250
520.0	2236
520.2	2223
520.4	2207
520.6	2193
520.8	2180
521.0	2166
521.2	2154
521.4	2141
521.6	2127
521.8	2111
522.0	2097
522.2	2086
522.4	2075
522.6	2067
522.8	2054
523.0	2040
523.2	2026
523.4	2013
523.6	2003
523.8	1992
524.0	1980
524.2	1967
524.4	1954
524.6	1941
524.8	1931
525.0	1915
525.2	1902
525.4	1889
525.6	1878
525.8	1867
526.0	1860
526.2	1849
526.4	1840
526.6	1828
526.8	1815
527.0	1800
527.2	1786
527.4	1776
527.6	1767
527.8	1760
528.0	1751
528.2	1738
528.4	1724
528.6	1712
528.8	1703
529.0	1693
529.2	1682
529.4	1671
529.6	1660
529.8	1650
530.0	1641
530.2	1629
530.4	1618
530.6	1608
530.8	1598
531.0	1589
531.2	1580
531.4	1570
531.6	1561
531.8	1550
532.0	1539
532.2	1529
532.4	1520
532.6	1510
532.8	1500
533.0	1490
533.2	1479
533.4	1469
533.6	1462
533.8	1452
534.0	1443
534.2	1434
534.4	1423
534.6	1415
534.8	1407
535.0	1398
535.2	1389
535.4	1381
535.6	1372
535.8	1365
536.0	1357
536.2	1347
536.4	1336
536.6	1328
536.8	1320
537.0	1312
537.2	1304
537.4	1296
537.6	1286
537.8	1279
538.0	1270
538.2	1259
538.4	1250
538.6	1244
538.8	1238
539.0	1232
539.2	1225
539.4	1214
539.6	1203
539.8	1193
540.0	1186
540.2	1179
540.4	1172
540.6	1165
540.8	1157
541.0	1149
541.2	1143
541.4	1137
541.6	1129
541.8	1122
542.0	1112
542.2	1103
542.4	1098
542.6	1091
542.8	1083
543.0	1078
543.2	1070
543.4	1064
543.6	1058
543.8	1051
544.0	1043
544.2	1036
544.4	1029
544.6	1023
544.8	1017
545.0	1011
545.2	1004
545.4	997.5
545.6	992.0
545.8	984.4
546.0	975.2
546.2	968.5
546.4	962.1
546.6	957.7
546.8	952.4
547.0	945.5
547.2	938.5
547.4	932.2
547.6	925.0
547.8	917.7
548.0	910.7
548.2	904.7
548.4	899.2
548.6	893.4
548.8	887.1
549.0	879.7
549.2	873.3
549.4	867.8
549.6	863.9
549.8	859.8
550.0	854.8
550.2	848.2
550.4	840.0
550.6	833.2
550.8	827.6
551.0	821.3
551.2	816.6
551.4	812.9
551.6	809.3
551.8	806.3
552.0	801.2
552.2	793.7
552.4	786.8
552.6	779.8
552.8	773.7
553.0	768.4
553.2	764.0
553.4	759.8
553.6	755.7
553.8	750.2
554.0	744.6
554.2	739.5
554.4	734.6
554.6	730.7
554.8	726.8
555.0	722.3
555.2	717.0
555.4	712.0
555.6	706.3
555.8	700.0
556.0	695.5
556.2	691.6
556.4	686.6
556.6	683.3
556.8	678.3
557.0	672.4
557.2	668.6
557.4	664.3
557.6	660.1
557.8	656.6
558.0	651.9
558.2	647.5
558.4	643.3
558.6	638.8
558.8	634.9
559.0	630.1
559.2	624.8
559.4	619.8
559.6	615.6
559.8	611.1
560.0	607.5
560.2	603.6
560.4	599.2
560.6	595.0
560.8	591.5
561.0	587.4
561.2	583.8
561.4	580.9
561.6	577.8
561.8	574.4
562.0	570.0
562.2	565.0
562.4	559.8
562.6	555.7
562.8	552.1
563.0	548.5
563.2	545.5
563.4	541.4
563.6	537.3
563.8	533.5
564.0	529.7
564.2	527.1
564.4	524.4
564.6	520.5
564.8	516.5
565.0	512.0
565.2	508.6
565.4	505.8
565.6	501.6
565.8	497.7
566.0	493.8
566.2	490.4
566.4	488.5
566.6	486.3
566.8	483.8
567.0	480.5
567.2	476.3
567.4	472.4
567.6	468.9
567.8	465.5
568.0	462.4
568.2	459.1
568.4	456.3
568.6	453.5
568.8	450.7
569.0	448.1
569.2	445.8
569.4	442.4
569.6	439.3
569.8	435.3
570.0	430.9
570.2	427.5
570.4	425.8
570.6	423.5
570.8	421.7
571.0	419.4
571.2	416.2
571.4	412.6
571.6	409.4
571.8	405.5
572.0	401.6
572.2	398.8
572.4	395.9
572.6	393.1
572.8	390.5
573.0	387.9
573.2	385.0
573.4	382.5
573.6	379.7
573.8	377.2
574.0	375.4
574.2	373.5
574.4	371.7
574.6	368.8
574.8	366.3
575.0	363.4
575.2	360.6
575.4	357.4
575.6	355.4
575.8	353.0
576.0	351.3
576.2	349.2
576.4	345.5
576.6	341.8
576.8	340.5
577.0	338.9
577.2	337.3
577.4	335.4
577.6	331.7
577.8	328.5
578.0	327.0
578.2	325.8
578.4	323.7
578.6	321.5
578.8	318.8
579.0	316.5
579.2	314.7
579.4	313.6
579.6	311.2
579.8	308.7
580.0	305.9
580.2	303.2
580.4	301.2
580.6	299.3
580.8	297.6
581.0	295.8
581.2	294.1
581.4	291.5
581.6	289.2
581.8	286.9
582.0	285.5
582.2	283.9
582.4	281.9
582.6	279.5
582.8	278.1
583.0	276.5
583.2	275.0
583.4	273.0
583.6	270.6
583.8	268.4
584.0	267.3
584.2	265.5
584.4	264.0
584.6	262.2
584.8	260.6
585.0	258.4
585.2	256.6
585.4	254.3
585.6	252.3
585.8	250.7
586.0	249.8
586.2	247.9
586.4	246.3
586.6	244.5
586.8	242.9
587.0	241.4
587.2	239.6
587.4	237.8
587.6	235.9
587.8	234.2
588.0	232.3
588.2	230.7
588.4	228.9
588.6	228.1
588.8	226.9
589.0	225.6
589.2	224.1
589.4	222.2
589.6	220.3
589.8	218.5
590.0	216.9
590.2	215.6
590.4	214.8
590.6	213.7
590.8	212.2
591.0	210.5
591.2	208.9
591.4	207.3
591.6	206.3
591.8	205.0
592.0	203.4
592.2	201.5
592.4	200.4
592.6	199.0
592.8	197.7
593.0	196.2
593.2	194.6
593.4	192.9
593.6	192.1
593.8	191.0
594.0	189.7
594.2	188.3
594.4	187.0
594.6	185.8
594.8	184.7
595.0	183.5
595.2	182.0
595.4	180.8
595.6	179.6
595.8	179.0
596.0	177.8
596.2	176.3
596.4	174.9
596.6	173.6
596.8	172.0
597.0	171.3
597.2	170.1
597.4	169.1
597.6	167.8
597.8	166.2
598.0	164.7
598.2	163.8
598.4	163.2
598.6	162.4
598.8	161.4
599.0	160.0
599.2	158.7
599.4	157.4
599.6	156.6
599.8	155.3
600.0	154.3
600.2	153.1
600.4	151.7
600.6	150.7
600.8	150.1
601.0	149.2
601.2	148.5
601.4	147.3
601.6	145.9
601.8	144.7
602.0	143.6
602.2	142.5
602.4	141.7
602.6	140.6
602.8	139.6
603.0	138.9
603.2	138.2
603.4	137.2
603.6	136.4
603.8	135.5
604.0	134.9
604.2	134.1
604.4	133.3
604.6	132.2
604.8	130.9
605.0	129.9
605.2	128.9
605.4	127.9
605.6	127.4
605.8	126.6
606.0	125.8
606.2	124.8
606.4	123.7
606.6	123.0
606.8	122.4
607.0	121.4
607.2	120.6
607.4	119.4
607.6	118.6
607.8	117.7
608.0	117.2
608.2	116.5
608.4	115.6
608.6	114.5
608.8	113.9
609.0	113.3
609.2	112.9
609.4	111.9
609.6	110.7
609.8	109.5
610.0	108.8
610.2	108.4
610.4	107.8
610.6	107.0
610.8	106.0
611.0	105.2
611.2	104.8
611.4	104.1
611.6	103.4
611.8	102.7
612.0	101.8
612.2	100.9
612.4	100.3
612.6	99.56
612.8	98.90
613.0	98.47
613.2	97.92
613.4	97.33
613.6	96.61
613.8	95.55
614.0	94.82
614.2	94.09
614.4	93.33
614.6	92.68
614.8	91.92
615.0	91.28
615.2	90.90
615.4	90.24
615.6	89.70
615.8	89.33
616.0	88.81
616.2	88.20
616.4	87.59
616.6	86.71
616.8	85.84
617.0	85.16
617.2	84.55
617.4	83.68
617.6	83.23
617.8	82.86
618.0	82.26
618.2	81.81
618.4	81.27
618.6	80.52
618.8	79.90
619.0	79.39
619.2	78.83
619.4	78.32
619.6	77.58
619.8	76.99
620.0	76.24
620.2	75.84
620.4	75.52
620.6	75.39
620.8	74.89
621.0	74.39
621.2	73.55
621.4	72.85
621.6	72.06
621.8	71.54
622.0	70.86
622.2	70.30
622.4	69.85
622.6	69.55
622.8	69.15
623.0	68.67
623.2	68.32
623.4	67.82
623.6	67.46
623.8	66.95
624.0	66.45
624.2	65.94
624.4	65.43
624.6	64.92
624.8	64.56
625.0	64.07
625.2	63.62
625.4	63.29
625.6	62.82
625.8	62.45
626.0	62.21
626.2	61.68
626.4	61.10
626.6	60.66
626.8	60.22
627.0	59.70
627.2	59.17
627.4	58.67
627.6	58.44
627.8	58.25
628.0	57.94
628.2	57.09
628.4	56.28
628.6	55.73
628.8	55.64
629.0	55.63
629.2	55.58
629.4	55.19
629.6	54.68
629.8	53.91
630.0	53.45
630.2	53.08
630.4	52.75
630.6	52.44
630.8	52.17
631.0	51.61
631.2	51.19
631.4	50.72
631.6	50.33
631.8	50.06
632.0	49.96
632.2	49.61
632.4	49.25
632.6	48.78
632.8	48.39
633.0	47.85
633.2	47.43
633.4	47.22
633.6	47.04
633.8	46.76
634.0	46.34
634.2	45.71
634.4	45.15
634.6	45.01
634.8	44.88
635.0	44.73
635.2	44.50
635.4	44.19
635.6	43.84
635.8	43.63
636.0	43.37
636.2	43.05
636.4	42.57
636.6	42.17
636.8	41.80
637.0	41.53
637.2	41.35
637.4	41.05
637.6	40.47
637.8	39.89
638.0	39.49
638.2	39.39
638.4	39.50
638.6	39.57
638.8	39.33
639.0	38.84
639.2	38.49
639.4	37.97
639.6	37.64
639.8	37.57
640.0	37.49
640.2	37.27
640.4	36.92
640.6	36.40
640.8	35.83
641.0	35.67
641.2	35.62
641.4	35.51
641.6	35.19
641.8	34.85
642.0	34.40
642.2	34.27
642.4	34.15
642.6	33.97
642.8	33.71
643.0	33.50
643.2	33.24
643.4	33.00
643.6	32.59
643.8	32.28
644.0	32.28
644.2	32.21
644.4	32.02
644.6	31.71
644.8	31.37
645.0	31.02
645.2	30.90
645.4	30.65
645.6	30.36
645.8	30.06
646.0	29.98
646.2	29.69
646.4	29.70
646.6	29.53
646.8	29.31
647.0	29.09
647.2	28.99
647.4	28.79
647.6	28.63
647.8	28.22
648.0	27.97
648.2	27.59
648.4	27.42
648.6	27.34
648.8	27.05
649.0	26.93
649.2	26.85
649.4	26.56
649.6	26.46
649.8	26.36
650.0	26.10
650.2	25.99
650.4	25.76
650.6	25.55
650.8	25.43
651.0	25.23
651.2	25.08
651.4	24.83
651.6	24.64
651.8	24.48
652.0	24.32
652.2	24.14
652.4	24.00
652.6	23.85
652.8	23.79
653.0	23.62
653.2	23.51
653.4	23.25
653.6	23.08
653.8	22.94
654.0	22.86
654.2	22.70
654.4	22.52
654.6	22.21
654.8	22.20
655.0	22.15
655.2	22.10
655.4	21.89
655.6	21.65
655.8	21.31
656.0	21.18
656.2	21.03
656.4	20.73
656.6	20.60
656.8	20.63
657.0	20.43
657.2	20.40
657.4	20.27
657.6	20.04
657.8	19.99
658.0	19.80
658.2	19.59
658.4	19.50
658.6	19.26
658.8	19.11
659.0	19.03
659.2	18.87
659.4	18.63
659.6	18.53
659.8	18.45
660.0	18.41
660.2	18.36
660.4	18.20
660.6	17.84
660.8	17.70
661.0	17.68
661.2	17.63
661.4	17.55
661.6	17.33
661.8	17.26
662.0	17.29
662.2	17.28
662.4	17.13
662.6	16.94
662.8	16.80
663.0	16.78
663.2	16.68
663.4	16.54
663.6	16.30
663.8	16.11
664.0	16.11
664.2	16.11
664.4	16.08
664.6	15.87
664.8	15.69
665.0	15.47
665.2	15.45
665.4	15.33
665.6	15.27
665.8	15.05
666.0	14.90
666.2	14.75
666.4	14.80
666.6	14.71
666.8	14.72
667.0	14.61
667.2	14.40
667.4	14.35
667.6	14.28
667.8	14.10
668.0	14.06
668.2	13.99
668.4	13.73
668.6	13.69
668.8	13.63
669.0	13.48
669.2	13.46
669.4	13.41
669.6	13.16
669.8	13.03
670.0	12.99
670.2	12.95
670.4	13.03
670.6	13.07
670.8	13.04
671.0	12.90
671.2	12.71
671.4	12.60
671.6	12.59
671.8	12.62
672.0	12.57
672.2	12.33
672.4	12.15
672.6	11.98
672.8	11.86
673.0	11.83
673.2	11.78
673.4	11.75
673.6	11.83
673.8	11.72
674.0	11.59
674.2	11.52
