Sample:	'20211010A(EM)
File name:	R-CDs 1.FDS
Run date:	'10:59:36, 06/11/2023
Operator:	Administrator
Comment:	'

Instrument
Model:	F-4700 FL Spectrophotometer
Serial number:	2019-001
ROM Version:	5J24010 00

Instrument parameters
Measurement type:	Wavelength scan
Scan mode:	Emission
Data mode:	Fluorescence
EX WL:	520.0 nm
EM  Start WL:	540.0 nm
EM  End WL:	900.0 nm
Scan speed:	1200 nm/min
Delay:	0.0 s
EX Slit:	10.0 nm
EM Slit:	10.0 nm
PMT Voltage:	515 V
Response:	0.002 s
Corrected spectra:	Off
Shutter control:	On

Processing performed
Savitsky-Golay smoothed
Smoothing order:	3
Number of points:	7
Number of times:	1

Peak integration
Integration method:	Rectangular
Sensitivity:	1
Threshold:	1.000

Peaks
No.	Start(nm)	Apex(nm)	End(nm)	Height(Data)	Valley(nm)	Valley(Data)
1	540.0	606.6	607.8	9601	607.8	9585
2	607.8	609.2	797.4	9602	797.4	52.99
3	797.4	798.2	800.6	54.27	800.6	50.24
4	800.6	801.6	900.0	51.73	900.0	1.752

Data points
nm	Data
540.0	530.9
540.2	544.6
540.4	553.1
540.6	559.3
540.8	567.3
541.0	578.5
541.2	588.7
541.4	599.5
541.6	608.4
541.8	615.6
542.0	623.7
542.2	633.6
542.4	642.0
542.6	655.2
542.8	666.4
543.0	676.9
543.2	686.9
543.4	693.1
543.6	700.4
543.8	715.1
544.0	727.3
544.2	739.7
544.4	754.5
544.6	762.8
544.8	770.9
545.0	785.1
545.2	796.0
545.4	807.2
545.6	822.4
545.8	833.5
546.0	843.7
546.2	858.9
546.4	869.0
546.6	881.0
546.8	893.4
547.0	907.4
547.2	921.2
547.4	938.8
547.6	952.4
547.8	964.2
548.0	976.9
548.2	990.5
548.4	1007
548.6	1027
548.8	1044
549.0	1057
549.2	1070
549.4	1084
549.6	1103
549.8	1122
550.0	1139
550.2	1157
550.4	1173
550.6	1192
550.8	1212
551.0	1228
551.2	1242
551.4	1259
551.6	1272
551.8	1286
552.0	1308
552.2	1331
552.4	1352
552.6	1373
552.8	1388
553.0	1408
553.2	1427
553.4	1446
553.6	1463
553.8	1482
554.0	1503
554.2	1530
554.4	1552
554.6	1575
554.8	1597
555.0	1619
555.2	1638
555.4	1662
555.6	1682
555.8	1709
556.0	1733
556.2	1760
556.4	1784
556.6	1811
556.8	1830
557.0	1851
557.2	1874
557.4	1901
557.6	1927
557.8	1957
558.0	1983
558.2	2010
558.4	2039
558.6	2064
558.8	2088
559.0	2113
559.2	2144
559.4	2172
559.6	2203
559.8	2231
560.0	2260
560.2	2285
560.4	2313
560.6	2337
560.8	2370
561.0	2398
561.2	2433
561.4	2465
561.6	2494
561.8	2527
562.0	2562
562.2	2598
562.4	2634
562.6	2667
562.8	2693
563.0	2727
563.2	2756
563.4	2791
563.6	2825
563.8	2863
564.0	2895
564.2	2930
564.4	2961
564.6	3003
564.8	3038
565.0	3084
565.2	3117
565.4	3154
565.6	3186
565.8	3224
566.0	3259
566.2	3297
566.4	3331
566.6	3375
566.8	3409
567.0	3446
567.2	3490
567.4	3527
567.6	3566
567.8	3608
568.0	3638
568.2	3681
568.4	3724
568.6	3767
568.8	3807
569.0	3845
569.2	3881
569.4	3927
569.6	3971
569.8	4016
570.0	4049
570.2	4084
570.4	4120
570.6	4161
570.8	4208
571.0	4252
571.2	4290
571.4	4334
571.6	4377
571.8	4423
572.0	4470
572.2	4510
572.4	4548
572.6	4591
572.8	4640
573.0	4686
573.2	4728
573.4	4769
573.6	4811
573.8	4862
574.0	4908
574.2	4953
574.4	4996
574.6	5038
574.8	5079
575.0	5124
575.2	5168
575.4	5208
575.6	5260
575.8	5309
576.0	5352
576.2	5392
576.4	5425
576.6	5453
576.8	5503
577.0	5556
577.2	5612
577.4	5657
577.6	5700
577.8	5739
578.0	5784
578.2	5833
578.4	5883
578.6	5925
578.8	5971
579.0	6011
579.2	6054
579.4	6099
579.6	6143
579.8	6186
580.0	6219
580.2	6260
580.4	6304
580.6	6347
580.8	6393
581.0	6443
581.2	6483
581.4	6531
581.6	6570
581.8	6613
582.0	6643
582.2	6682
582.4	6716
582.6	6764
582.8	6807
583.0	6852
583.2	6890
583.4	6925
583.6	6955
583.8	7001
584.0	7038
584.2	7081
584.4	7126
584.6	7163
584.8	7201
585.0	7242
585.2	7280
585.4	7323
585.6	7367
585.8	7401
586.0	7431
586.2	7460
586.4	7498
586.6	7536
586.8	7581
587.0	7621
587.2	7648
587.4	7680
587.6	7712
587.8	7751
588.0	7791
588.2	7833
588.4	7864
588.6	7896
588.8	7920
589.0	7952
589.2	7980
589.4	8016
589.6	8048
589.8	8090
590.0	8124
590.2	8164
590.4	8198
590.6	8230
590.8	8243
591.0	8266
591.2	8295
591.4	8334
591.6	8370
591.8	8405
592.0	8423
592.2	8435
592.4	8462
592.6	8493
592.8	8524
593.0	8557
593.2	8583
593.4	8597
593.6	8618
593.8	8646
594.0	8683
594.2	8712
594.4	8751
594.6	8774
594.8	8794
595.0	8807
595.2	8826
595.4	8850
595.6	8880
595.8	8913
596.0	8937
596.2	8952
596.4	8956
596.6	8976
596.8	8987
597.0	9015
597.2	9041
597.4	9074
597.6	9093
597.8	9113
598.0	9124
598.2	9130
598.4	9146
598.6	9170
598.8	9193
599.0	9227
599.2	9254
599.4	9266
599.6	9274
599.8	9287
600.0	9297
600.2	9319
600.4	9337
600.6	9349
600.8	9347
601.0	9361
601.2	9364
601.4	9385
601.6	9404
601.8	9430
602.0	9440
602.2	9452
602.4	9454
602.6	9459
602.8	9451
603.0	9459
603.2	9460
603.4	9473
603.6	9487
603.8	9499
604.0	9505
604.2	9513
604.4	9525
604.6	9540
604.8	9553
605.0	9567
605.2	9564
605.4	9568
605.6	9573
605.8	9576
606.0	9588
606.2	9598
606.4	9598
606.6	9601
606.8	9595
607.0	9598
607.2	9593
607.4	9593
607.6	9589
607.8	9585
608.0	9586
608.2	9596
608.4	9594
608.6	9600
608.8	9599
609.0	9599
609.2	9602
609.4	9601
609.6	9602
609.8	9600
610.0	9601
610.2	9584
610.4	9582
610.6	9578
610.8	9580
611.0	9569
611.2	9564
611.4	9544
611.6	9546
611.8	9548
612.0	9555
612.2	9545
612.4	9542
612.6	9546
612.8	9546
613.0	9539
613.2	9539
613.4	9533
613.6	9524
613.8	9510
614.0	9498
614.2	9482
614.4	9480
614.6	9484
614.8	9471
615.0	9459
615.2	9449
615.4	9437
615.6	9422
615.8	9408
616.0	9399
616.2	9393
616.4	9392
616.6	9395
616.8	9382
617.0	9356
617.2	9339
617.4	9320
617.6	9314
617.8	9306
618.0	9287
618.2	9269
618.4	9250
618.6	9242
618.8	9237
619.0	9219
619.2	9203
619.4	9191
619.6	9166
619.8	9148
620.0	9140
620.2	9117
620.4	9101
620.6	9081
620.8	9059
621.0	9038
621.2	9042
621.4	9021
621.6	9004
621.8	8985
622.0	8965
622.2	8949
622.4	8938
622.6	8923
622.8	8897
623.0	8875
623.2	8846
623.4	8826
623.6	8810
623.8	8797
624.0	8768
624.2	8749
624.4	8714
624.6	8697
624.8	8684
625.0	8674
625.2	8652
625.4	8635
625.6	8612
625.8	8581
626.0	8557
626.2	8547
626.4	8522
626.6	8512
626.8	8496
627.0	8456
627.2	8434
627.4	8410
627.6	8382
627.8	8356
628.0	8328
628.2	8306
628.4	8282
628.6	8262
628.8	8241
629.0	8211
629.2	8190
629.4	8169
629.6	8144
629.8	8126
630.0	8090
630.2	8058
630.4	8038
630.6	8014
630.8	7996
631.0	7980
631.2	7948
631.4	7923
631.6	7906
631.8	7885
632.0	7855
632.2	7832
632.4	7802
632.6	7783
632.8	7766
633.0	7747
633.2	7717
633.4	7695
633.6	7674
633.8	7656
634.0	7625
634.2	7599
634.4	7563
634.6	7535
634.8	7508
635.0	7472
635.2	7436
635.4	7406
635.6	7382
635.8	7359
636.0	7338
636.2	7310
636.4	7288
636.6	7268
636.8	7255
637.0	7227
637.2	7207
637.4	7171
637.6	7135
637.8	7105
638.0	7079
638.2	7055
638.4	7035
638.6	7010
638.8	6976
639.0	6944
639.2	6917
639.4	6896
639.6	6872
639.8	6850
640.0	6817
640.2	6787
640.4	6760
640.6	6740
640.8	6720
641.0	6693
641.2	6659
641.4	6628
641.6	6592
641.8	6570
642.0	6539
642.2	6511
642.4	6483
642.6	6455
642.8	6429
643.0	6404
643.2	6378
643.4	6359
643.6	6335
643.8	6313
644.0	6295
644.2	6261
644.4	6237
644.6	6205
644.8	6168
645.0	6137
645.2	6117
645.4	6094
645.6	6078
645.8	6048
646.0	6017
646.2	5986
646.4	5957
646.6	5932
646.8	5909
647.0	5883
647.2	5858
647.4	5840
647.6	5813
647.8	5779
648.0	5750
648.2	5718
648.4	5680
648.6	5654
648.8	5631
649.0	5610
649.2	5597
649.4	5571
649.6	5543
649.8	5515
650.0	5493
650.2	5475
650.4	5455
650.6	5425
650.8	5403
651.0	5373
651.2	5346
651.4	5323
651.6	5296
651.8	5270
652.0	5253
652.2	5222
652.4	5196
652.6	5173
652.8	5147
653.0	5118
653.2	5099
653.4	5075
653.6	5056
653.8	5033
654.0	5003
654.2	4974
654.4	4956
654.6	4932
654.8	4904
655.0	4877
655.2	4843
655.4	4818
655.6	4802
655.8	4779
656.0	4754
656.2	4733
656.4	4713
656.6	4695
656.8	4667
657.0	4640
657.2	4611
657.4	4586
657.6	4568
657.8	4548
658.0	4532
658.2	4510
658.4	4488
658.6	4466
658.8	4444
659.0	4420
659.2	4394
659.4	4368
659.6	4347
659.8	4323
660.0	4297
660.2	4267
660.4	4233
660.6	4212
660.8	4202
661.0	4187
661.2	4169
661.4	4146
661.6	4123
661.8	4095
662.0	4073
662.2	4054
662.4	4037
662.6	4017
662.8	3998
663.0	3975
663.2	3952
663.4	3930
663.6	3912
663.8	3890
664.0	3865
664.2	3843
664.4	3819
664.6	3795
664.8	3776
665.0	3761
665.2	3743
665.4	3729
665.6	3717
665.8	3691
666.0	3666
666.2	3643
666.4	3621
666.6	3602
666.8	3589
667.0	3568
667.2	3551
667.4	3533
667.6	3517
667.8	3495
668.0	3474
668.2	3452
668.4	3427
668.6	3403
668.8	3390
669.0	3376
669.2	3357
669.4	3338
669.6	3321
669.8	3299
670.0	3281
670.2	3262
670.4	3241
670.6	3223
670.8	3205
671.0	3185
671.2	3164
671.4	3151
671.6	3137
671.8	3119
672.0	3096
672.2	3077
672.4	3060
672.6	3049
672.8	3035
673.0	3014
673.2	2991
673.4	2973
673.6	2962
673.8	2948
674.0	2931
674.2	2908
674.4	2889
674.6	2876
674.8	2864
675.0	2850
675.2	2834
675.4	2815
675.6	2802
675.8	2786
676.0	2764
676.2	2745
676.4	2726
676.6	2710
676.8	2699
677.0	2685
677.2	2669
677.4	2653
677.6	2636
677.8	2618
678.0	2601
678.2	2584
678.4	2571
678.6	2558
678.8	2546
679.0	2534
679.2	2516
679.4	2500
679.6	2483
679.8	2461
680.0	2445
680.2	2432
680.4	2419
680.6	2407
680.8	2392
681.0	2378
681.2	2369
681.4	2358
681.6	2346
681.8	2327
682.0	2309
682.2	2293
682.4	2275
682.6	2264
682.8	2251
683.0	2237
683.2	2227
683.4	2214
683.6	2200
683.8	2188
684.0	2172
684.2	2154
684.4	2138
684.6	2125
684.8	2116
685.0	2107
685.2	2099
685.4	2085
685.6	2071
685.8	2055
686.0	2042
686.2	2032
686.4	2024
686.6	2014
686.8	2003
687.0	1985
687.2	1973
687.4	1961
687.6	1951
687.8	1935
688.0	1923
688.2	1909
688.4	1901
688.6	1889
688.8	1877
689.0	1865
689.2	1854
689.4	1843
689.6	1833
689.8	1822
690.0	1816
690.2	1804
690.4	1793
690.6	1779
690.8	1766
691.0	1759
691.2	1750
691.4	1733
691.6	1724
691.8	1716
692.0	1710
692.2	1702
692.4	1694
692.6	1679
692.8	1669
693.0	1660
693.2	1650
693.4	1637
693.6	1630
693.8	1618
694.0	1609
694.2	1598
694.4	1589
694.6	1582
694.8	1575
695.0	1566
695.2	1557
695.4	1547
695.6	1537
695.8	1532
696.0	1521
696.2	1510
696.4	1500
696.6	1495
696.8	1489
697.0	1485
697.2	1479
697.4	1466
697.6	1454
697.8	1445
698.0	1439
698.2	1432
698.4	1427
698.6	1416
698.8	1407
699.0	1400
699.2	1396
699.4	1390
699.6	1381
699.8	1372
700.0	1364
700.2	1357
700.4	1349
700.6	1339
700.8	1329
701.0	1321
701.2	1311
701.4	1305
701.6	1300
701.8	1296
702.0	1288
702.2	1286
702.4	1280
702.6	1273
702.8	1268
703.0	1262
703.2	1251
703.4	1244
703.6	1235
703.8	1226
704.0	1220
704.2	1214
704.4	1211
704.6	1204
704.8	1198
705.0	1190
705.2	1180
705.4	1174
705.6	1169
705.8	1162
706.0	1156
706.2	1147
706.4	1138
706.6	1130
706.8	1127
707.0	1120
707.2	1115
707.4	1106
707.6	1097
707.8	1094
708.0	1089
708.2	1084
708.4	1080
708.6	1069
708.8	1056
709.0	1050
709.2	1044
709.4	1043
709.6	1041
709.8	1034
710.0	1025
710.2	1015
710.4	1009
710.6	1000
710.8	994.6
711.0	989.6
711.2	987.1
711.4	980.8
711.6	975.9
711.8	967.2
712.0	963.3
712.2	958.2
712.4	953.9
712.6	945.8
712.8	938.6
713.0	930.3
713.2	926.0
713.4	922.8
713.6	919.8
713.8	912.4
714.0	902.1
714.2	894.0
714.4	887.5
714.6	882.4
714.8	880.3
715.0	872.8
715.2	863.4
715.4	857.4
715.6	851.3
715.8	846.8
716.0	843.8
716.2	838.2
716.4	832.5
716.6	825.2
716.8	819.6
717.0	815.5
717.2	809.4
717.4	801.9
717.6	795.3
717.8	790.3
718.0	786.1
718.2	780.2
718.4	776.6
718.6	769.5
718.8	764.1
719.0	762.1
719.2	757.7
719.4	750.6
719.6	747.5
719.8	742.3
720.0	735.4
720.2	728.6
720.4	722.4
720.6	717.0
720.8	713.4
721.0	710.4
721.2	705.9
721.4	700.2
721.6	693.9
721.8	688.3
722.0	683.1
722.2	679.7
722.4	675.9
722.6	671.0
722.8	665.4
723.0	662.9
723.2	655.4
723.4	650.1
723.6	644.4
723.8	640.8
724.0	638.0
724.2	637.4
724.4	629.9
724.6	623.5
724.8	616.8
725.0	612.6
725.2	607.1
725.4	603.8
725.6	601.6
725.8	599.1
726.0	595.5
726.2	589.5
726.4	583.4
726.6	579.8
726.8	578.7
727.0	575.3
727.2	570.5
727.4	565.5
727.6	559.0
727.8	553.4
728.0	549.6
728.2	544.2
728.4	540.1
728.6	537.4
728.8	531.8
729.0	527.8
729.2	525.3
729.4	520.2
729.6	517.2
729.8	513.6
730.0	508.5
730.2	505.5
730.4	502.7
730.6	496.2
730.8	493.9
731.0	493.0
731.2	490.4
731.4	487.0
731.6	482.8
731.8	475.7
732.0	472.5
732.2	471.1
732.4	468.6
732.6	464.6
732.8	459.9
733.0	455.3
733.2	453.2
733.4	451.2
733.6	448.1
733.8	445.2
734.0	441.5
734.2	436.6
734.4	434.0
734.6	431.9
734.8	429.3
735.0	425.1
735.2	420.0
735.4	415.1
735.6	411.7
735.8	410.8
736.0	409.1
736.2	404.3
736.4	399.1
736.6	395.7
736.8	392.5
737.0	391.2
737.2	388.8
737.4	385.5
737.6	384.3
737.8	382.8
738.0	379.5
738.2	375.9
738.4	371.7
738.6	367.9
738.8	366.6
739.0	366.2
739.2	361.6
739.4	357.4
739.6	354.7
739.8	352.6
740.0	351.8
740.2	351.1
740.4	348.2
740.6	344.4
740.8	341.9
741.0	338.7
741.2	335.0
741.4	331.8
741.6	330.5
741.8	326.9
742.0	326.1
742.2	324.8
742.4	321.4
742.6	318.5
742.8	317.0
743.0	313.9
743.2	312.6
743.4	310.6
743.6	306.5
743.8	303.2
744.0	301.0
744.2	299.1
744.4	299.1
744.6	299.3
744.8	297.2
745.0	294.8
745.2	291.3
745.4	288.9
745.6	288.8
745.8	287.0
746.0	283.4
746.2	279.6
746.4	275.3
746.6	274.2
746.8	272.5
747.0	271.5
747.2	270.9
747.4	269.3
747.6	267.0
747.8	266.7
748.0	264.1
748.2	262.1
748.4	260.7
748.6	256.8
748.8	254.0
749.0	252.8
749.2	251.1
749.4	248.0
749.6	246.0
749.8	243.4
750.0	243.7
750.2	242.3
750.4	241.8
750.6	239.9
750.8	236.1
751.0	233.2
751.2	231.8
751.4	230.0
751.6	230.5
751.8	229.9
752.0	228.3
752.2	226.6
752.4	224.6
752.6	223.1
752.8	221.2
753.0	218.4
753.2	216.8
753.4	215.7
753.6	213.2
753.8	211.9
754.0	210.7
754.2	208.9
754.4	208.0
754.6	207.2
754.8	203.6
755.0	202.5
755.2	202.4
755.4	200.9
755.6	200.5
755.8	198.9
756.0	196.1
756.2	194.6
756.4	194.3
756.6	192.5
756.8	190.7
757.0	188.3
757.2	186.0
757.4	184.4
757.6	184.0
757.8	183.6
758.0	182.9
758.2	182.7
758.4	182.0
758.6	180.2
758.8	178.1
759.0	176.8
759.2	174.7
759.4	174.0
759.6	173.2
759.8	171.9
760.0	170.4
760.2	169.9
760.4	167.7
760.6	165.3
760.8	164.7
761.0	162.7
761.2	161.6
761.4	161.3
761.6	160.2
761.8	157.9
762.0	157.0
762.2	154.7
762.4	154.1
762.6	154.3
762.8	154.3
763.0	153.7
763.2	152.3
763.4	150.2
763.6	147.9
763.8	146.0
764.0	144.2
764.2	143.5
764.4	142.8
764.6	142.7
764.8	142.0
765.0	141.2
765.2	139.9
765.4	138.2
765.6	137.2
765.8	137.2
766.0	137.0
766.2	136.3
766.4	135.3
766.6	134.2
766.8	133.5
767.0	131.5
767.2	129.0
767.4	126.9
767.6	125.6
767.8	125.8
768.0	125.2
768.2	124.1
768.4	123.2
768.6	123.7
768.8	122.9
769.0	122.2
769.2	121.2
769.4	120.1
769.6	119.6
769.8	118.6
770.0	116.8
770.2	115.1
770.4	114.1
770.6	114.1
770.8	113.8
771.0	112.7
771.2	113.1
771.4	112.7
771.6	111.7
771.8	110.6
772.0	109.5
772.2	108.2
772.4	107.8
772.6	107.8
772.8	106.7
773.0	105.5
773.2	105.5
773.4	104.7
773.6	104.7
773.8	104.4
774.0	102.7
774.2	100.8
774.4	99.45
774.6	97.88
774.8	97.48
775.0	97.63
775.2	97.53
775.4	96.75
775.6	96.82
775.8	96.27
776.0	94.86
776.2	94.24
776.4	92.34
776.6	90.91
776.8	90.46
777.0	89.83
777.2	89.68
777.4	90.57
777.6	90.24
777.8	90.34
778.0	89.39
778.2	86.96
778.4	85.50
778.6	85.67
778.8	85.46
779.0	86.20
779.2	85.64
779.4	85.00
779.6	84.53
779.8	84.84
780.0	84.86
780.2	84.73
780.4	83.13
780.6	81.76
780.8	80.73
781.0	80.09
781.2	79.75
781.4	79.26
781.6	78.91
781.8	79.00
782.0	78.66
782.2	78.30
782.4	77.86
782.6	76.84
782.8	76.53
783.0	75.71
783.2	75.09
783.4	74.22
783.6	73.79
783.8	73.67
784.0	74.31
784.2	73.80
784.4	73.86
784.6	72.57
784.8	70.89
785.0	69.90
785.2	70.46
785.4	71.09
785.6	71.47
785.8	71.30
786.0	69.90
786.2	68.56
786.4	68.86
786.6	68.93
786.8	69.05
787.0	68.59
787.2	68.30
787.4	67.41
787.6	66.80
787.8	66.13
788.0	66.02
788.2	65.50
788.4	65.99
788.6	66.40
788.8	66.12
789.0	66.39
789.2	66.07
789.4	64.90
789.6	64.52
789.8	64.96
790.0	64.30
790.2	64.46
790.4	63.92
790.6	62.46
790.8	62.03
791.0	61.89
791.2	61.49
791.4	62.16
791.6	62.17
791.8	61.69
792.0	60.76
792.2	59.95
792.4	59.62
792.6	59.98
792.8	59.85
793.0	59.66
793.2	59.62
793.4	59.79
793.6	59.64
793.8	59.23
794.0	58.09
794.2	57.05
794.4	57.20
794.6	57.30
794.8	57.03
795.0	56.99
795.2	56.85
795.4	56.65
795.6	57.06
795.8	57.42
796.0	57.28
796.2	56.98
796.4	56.20
796.6	54.78
796.8	54.02
797.0	53.61
797.2	53.40
797.4	52.99
797.6	53.14
797.8	53.94
798.0	54.09
798.2	54.27
798.4	54.00
798.6	53.54
798.8	53.27
799.0	52.52
799.2	51.73
799.4	50.98
799.6	51.23
799.8	51.15
800.0	51.09
800.2	50.54
800.4	50.42
800.6	50.24
800.8	50.57
801.0	50.61
801.2	50.89
801.4	51.39
801.6	51.73
801.8	51.01
802.0	50.27
802.2	49.50
802.4	48.55
802.6	47.70
802.8	47.76
803.0	47.61
803.2	48.50
803.4	49.00
803.6	48.93
803.8	48.13
804.0	47.41
804.2	47.12
804.4	46.84
804.6	46.76
804.8	46.91
805.0	46.95
805.2	46.33
805.4	45.77
805.6	44.97
805.8	44.15
806.0	44.50
806.2	44.73
806.4	44.48
806.6	43.97
806.8	43.91
807.0	43.54
807.2	44.06
807.4	43.92
807.6	43.84
807.8	44.28
808.0	43.94
808.2	43.21
808.4	42.43
808.6	41.34
808.8	40.70
809.0	41.65
809.2	41.95
809.4	42.16
809.6	42.26
809.8	41.63
810.0	40.81
810.2	40.58
810.4	40.91
810.6	41.03
810.8	41.05
811.0	40.41
811.2	39.36
811.4	38.56
811.6	38.15
811.8	38.28
812.0	38.75
812.2	38.74
812.4	38.24
812.6	37.79
812.8	37.65
813.0	37.87
813.2	37.94
813.4	37.36
813.6	36.97
813.8	36.49
814.0	36.53
814.2	37.01
814.4	37.23
814.6	36.82
814.8	36.32
815.0	36.03
815.2	35.31
815.4	35.42
815.6	35.16
815.8	34.94
816.0	34.95
816.2	34.69
816.4	34.38
816.6	34.24
816.8	34.05
817.0	34.29
817.2	34.38
817.4	34.04
817.6	33.95
817.8	33.37
818.0	33.30
818.2	33.43
818.4	33.11
818.6	33.10
818.8	32.72
819.0	31.76
819.2	31.14
819.4	30.98
819.6	30.48
819.8	30.57
820.0	30.43
820.2	29.91
820.4	29.73
820.6	29.69
820.8	29.69
821.0	30.26
821.2	29.97
821.4	29.66
821.6	29.31
821.8	29.00
822.0	28.53
822.2	28.62
822.4	28.35
822.6	28.31
822.8	28.05
823.0	27.83
823.2	27.37
823.4	27.19
823.6	26.93
823.8	26.71
824.0	26.41
824.2	26.25
824.4	26.59
824.6	26.60
824.8	26.73
825.0	26.45
825.2	26.59
825.4	26.72
825.6	26.27
825.8	25.51
826.0	24.76
826.2	23.87
826.4	23.93
826.6	24.24
826.8	24.39
827.0	24.62
827.2	24.42
827.4	24.49
827.6	23.76
827.8	23.51
828.0	23.50
828.2	23.26
828.4	23.04
828.6	23.25
828.8	22.81
829.0	22.47
829.2	22.29
829.4	21.79
829.6	21.16
829.8	21.47
830.0	21.72
830.2	21.70
830.4	22.01
830.6	21.54
830.8	20.64
831.0	20.27
831.2	19.68
831.4	19.44
831.6	19.79
831.8	19.45
832.0	19.18
832.2	19.00
832.4	18.74
832.6	18.59
832.8	18.78
833.0	18.63
833.2	18.70
833.4	18.31
833.6	18.16
833.8	17.57
834.0	17.66
834.2	17.79
834.4	17.93
834.6	17.61
834.8	17.51
835.0	17.04
835.2	16.78
835.4	16.55
835.6	16.35
835.8	16.47
836.0	16.35
836.2	16.07
836.4	15.54
836.6	15.58
836.8	15.80
837.0	15.88
837.2	15.75
837.4	15.30
837.6	14.27
837.8	13.89
838.0	13.91
838.2	13.77
838.4	14.07
838.6	14.06
838.8	13.73
839.0	13.76
839.2	13.69
839.4	13.56
839.6	13.33
839.8	12.85
840.0	12.71
840.2	12.58
840.4	12.22
840.6	12.16
840.8	11.76
841.0	11.80
841.2	11.86
841.4	11.79
841.6	11.73
841.8	11.67
842.0	11.29
842.2	11.33
842.4	11.10
842.6	10.50
842.8	10.52
843.0	10.41
843.2	10.55
843.4	10.59
843.6	10.51
843.8	9.885
844.0	9.888
844.2	9.597
844.4	9.720
844.6	9.603
