Sample:	'20211010A(EM)
File name:	R-CDs 3.FDS
Run date:	'11:05:25, 06/11/2023
Operator:	Administrator
Comment:	'

Instrument
Model:	F-4700 FL Spectrophotometer
Serial number:	2019-001
ROM Version:	5J24010 00

Instrument parameters
Measurement type:	Wavelength scan
Scan mode:	Emission
Data mode:	Fluorescence
EX WL:	520.0 nm
EM  Start WL:	540.0 nm
EM  End WL:	810.0 nm
Scan speed:	1200 nm/min
Delay:	0.0 s
EX Slit:	10.0 nm
EM Slit:	10.0 nm
PMT Voltage:	515 V
Response:	0.002 s
Corrected spectra:	Off
Shutter control:	On

Processing performed
Savitsky-Golay smoothed
Smoothing order:	3
Number of points:	7
Number of times:	1

Peak integration
Integration method:	Rectangular
Sensitivity:	1
Threshold:	1.000

Peaks
No.	Start(nm)	Apex(nm)	End(nm)	Height(Data)	Valley(nm)	Valley(Data)
1	540.0	608.8	810.0	9335	810.0	39.52

Data points
nm	Data
540.0	515.2
540.2	517.2
540.4	525.5
540.6	537.1
540.8	548.1
541.0	556.3
541.2	563.7
541.4	572.3
541.6	583.3
541.8	591.7
542.0	599.4
542.2	607.1
542.4	616.4
542.6	626.5
542.8	637.3
543.0	646.0
543.2	656.3
543.4	665.7
543.6	677.6
543.8	688.3
544.0	698.8
544.2	708.7
544.4	718.9
544.6	729.9
544.8	743.3
545.0	754.3
545.2	770.8
545.4	783.9
545.6	793.0
545.8	803.8
546.0	812.9
546.2	822.0
546.4	838.6
546.6	850.1
546.8	862.3
547.0	873.7
547.2	887.1
547.4	902.0
547.6	917.1
547.8	930.3
548.0	945.4
548.2	959.9
548.4	973.4
548.6	989.6
548.8	1003
549.0	1017
549.2	1036
549.4	1055
549.6	1070
549.8	1085
550.0	1100
550.2	1112
550.4	1129
550.6	1148
550.8	1167
551.0	1182
551.2	1200
551.4	1215
551.6	1230
551.8	1247
552.0	1266
552.2	1286
552.4	1306
552.6	1325
552.8	1339
553.0	1355
553.2	1374
553.4	1396
553.6	1418
553.8	1438
554.0	1457
554.2	1479
554.4	1502
554.6	1521
554.8	1540
555.0	1553
555.2	1572
555.4	1597
555.6	1623
555.8	1647
556.0	1672
556.2	1697
556.4	1722
556.6	1746
556.8	1766
557.0	1788
557.2	1812
557.4	1836
557.6	1859
557.8	1881
558.0	1903
558.2	1929
558.4	1954
558.6	1981
558.8	2007
559.0	2035
559.2	2063
559.4	2090
559.6	2121
559.8	2155
560.0	2182
560.2	2206
560.4	2232
560.6	2262
560.8	2295
561.0	2328
561.2	2350
561.4	2379
561.6	2405
561.8	2433
562.0	2466
562.2	2501
562.4	2532
562.6	2571
562.8	2599
563.0	2624
563.2	2652
563.4	2683
563.6	2716
563.8	2755
564.0	2790
564.2	2823
564.4	2858
564.6	2892
564.8	2927
565.0	2966
565.2	3008
565.4	3042
565.6	3078
565.8	3112
566.0	3146
566.2	3183
566.4	3218
566.6	3248
566.8	3289
567.0	3331
567.2	3369
567.4	3411
567.6	3446
567.8	3482
568.0	3521
568.2	3554
568.4	3584
568.6	3619
568.8	3660
569.0	3701
569.2	3736
569.4	3773
569.6	3818
569.8	3863
570.0	3905
570.2	3946
570.4	3983
570.6	4018
570.8	4061
571.0	4100
571.2	4140
571.4	4186
571.6	4236
571.8	4279
572.0	4323
572.2	4366
572.4	4405
572.6	4438
572.8	4475
573.0	4521
573.2	4567
573.4	4621
573.6	4663
573.8	4703
574.0	4746
574.2	4793
574.4	4833
574.6	4879
574.8	4915
575.0	4951
575.2	4985
575.4	5027
575.6	5072
575.8	5122
576.0	5169
576.2	5213
576.4	5251
576.6	5295
576.8	5343
577.0	5387
577.2	5427
577.4	5474
577.6	5512
577.8	5546
578.0	5589
578.2	5633
578.4	5671
578.6	5718
578.8	5752
579.0	5797
579.2	5839
579.4	5891
579.6	5937
579.8	5980
580.0	6016
580.2	6058
580.4	6094
580.6	6143
580.8	6181
581.0	6219
581.2	6264
581.4	6305
581.6	6349
581.8	6386
582.0	6421
582.2	6460
582.4	6503
582.6	6545
582.8	6587
583.0	6621
583.2	6659
583.4	6695
583.6	6736
583.8	6771
584.0	6810
584.2	6848
584.4	6884
584.6	6920
584.8	6959
585.0	7002
585.2	7040
585.4	7073
585.6	7114
585.8	7149
586.0	7180
586.2	7224
586.4	7264
586.6	7298
586.8	7335
587.0	7361
587.2	7388
587.4	7422
587.6	7461
587.8	7493
588.0	7535
588.2	7573
588.4	7611
588.6	7650
588.8	7676
589.0	7704
589.2	7732
589.4	7762
589.6	7796
589.8	7825
590.0	7853
590.2	7887
590.4	7911
590.6	7940
590.8	7975
591.0	8004
591.2	8043
591.4	8074
591.6	8099
591.8	8118
592.0	8144
592.2	8175
592.4	8215
592.6	8245
592.8	8262
593.0	8280
593.2	8295
593.4	8321
593.6	8355
593.8	8377
594.0	8397
594.2	8431
594.4	8454
594.6	8489
594.8	8506
595.0	8519
595.2	8540
595.4	8565
595.6	8584
595.8	8612
596.0	8632
596.2	8660
596.4	8688
596.6	8710
596.8	8720
597.0	8731
597.2	8745
597.4	8752
597.6	8769
597.8	8801
598.0	8831
598.2	8866
598.4	8895
598.6	8902
598.8	8910
599.0	8920
599.2	8929
599.4	8945
599.6	8956
599.8	8965
600.0	8978
600.2	8994
600.4	9009
600.6	9030
600.8	9045
601.0	9071
601.2	9084
601.4	9102
601.6	9119
601.8	9125
602.0	9131
602.2	9140
602.4	9141
602.6	9154
602.8	9179
603.0	9179
603.2	9180
603.4	9188
603.6	9196
603.8	9208
604.0	9230
604.2	9234
604.4	9239
604.6	9243
604.8	9239
605.0	9239
605.2	9244
605.4	9255
605.6	9276
605.8	9287
606.0	9292
606.2	9295
606.4	9292
606.6	9293
606.8	9300
607.0	9304
607.2	9317
607.4	9317
607.6	9316
607.8	9311
608.0	9310
608.2	9312
608.4	9327
608.6	9335
608.8	9335
609.0	9322
609.2	9325
609.4	9325
609.6	9329
609.8	9327
610.0	9315
610.2	9291
610.4	9287
610.6	9284
610.8	9285
611.0	9288
611.2	9295
611.4	9289
611.6	9289
611.8	9290
612.0	9283
612.2	9279
612.4	9272
612.6	9259
612.8	9255
613.0	9243
613.2	9237
613.4	9229
613.6	9223
613.8	9229
614.0	9236
614.2	9227
614.4	9220
614.6	9207
614.8	9187
615.0	9162
615.2	9158
615.4	9149
615.6	9155
615.8	9158
616.0	9142
616.2	9119
616.4	9094
616.6	9067
616.8	9065
617.0	9050
617.2	9041
617.4	9038
617.6	9017
617.8	9005
618.0	9004
618.2	8989
618.4	8968
618.6	8950
618.8	8925
619.0	8905
619.2	8888
619.4	8874
619.6	8864
619.8	8857
620.0	8843
620.2	8831
620.4	8815
620.6	8806
620.8	8796
621.0	8782
621.2	8762
621.4	8745
621.6	8720
621.8	8700
622.0	8673
622.2	8666
622.4	8651
622.6	8644
622.8	8618
623.0	8594
623.2	8573
623.4	8560
623.6	8549
623.8	8550
624.0	8533
624.2	8509
624.4	8482
624.6	8442
624.8	8418
625.0	8406
625.2	8394
625.4	8373
625.6	8347
625.8	8320
626.0	8299
626.2	8290
626.4	8289
626.6	8264
626.8	8228
627.0	8195
627.2	8171
627.4	8154
627.6	8140
627.8	8117
628.0	8085
628.2	8062
628.4	8050
628.6	8038
628.8	8020
629.0	7993
629.2	7965
629.4	7935
629.6	7901
629.8	7883
630.0	7859
630.2	7828
630.4	7804
630.6	7776
630.8	7758
631.0	7749
631.2	7737
631.4	7711
631.6	7674
631.8	7641
632.0	7629
632.2	7602
632.4	7578
632.6	7545
632.8	7517
633.0	7496
633.2	7483
633.4	7461
633.6	7432
633.8	7406
634.0	7374
634.2	7346
634.4	7324
634.6	7303
634.8	7281
635.0	7260
635.2	7233
635.4	7212
635.6	7191
635.8	7167
636.0	7141
636.2	7107
636.4	7073
636.6	7053
636.8	7031
637.0	7003
637.2	6968
637.4	6930
637.6	6894
637.8	6875
638.0	6867
638.2	6850
638.4	6834
638.6	6807
638.8	6769
639.0	6731
639.2	6707
639.4	6685
639.6	6672
639.8	6649
640.0	6622
640.2	6590
640.4	6565
640.6	6542
640.8	6515
641.0	6484
641.2	6453
641.4	6421
641.6	6394
641.8	6367
642.0	6344
642.2	6324
642.4	6305
642.6	6289
642.8	6260
643.0	6226
643.2	6196
643.4	6170
643.6	6141
643.8	6117
644.0	6085
644.2	6063
644.4	6049
644.6	6029
644.8	6000
645.0	5968
645.2	5932
645.4	5904
645.6	5885
645.8	5860
646.0	5838
646.2	5813
646.4	5789
646.6	5762
646.8	5741
647.0	5714
647.2	5695
647.4	5676
647.6	5655
647.8	5629
648.0	5602
648.2	5557
648.4	5526
648.6	5502
648.8	5484
649.0	5461
649.2	5440
649.4	5407
649.6	5376
649.8	5346
650.0	5329
650.2	5303
650.4	5282
650.6	5254
650.8	5231
651.0	5207
651.2	5189
651.4	5171
651.6	5149
651.8	5115
652.0	5087
652.2	5058
652.4	5032
652.6	5012
652.8	4996
653.0	4972
653.2	4948
653.4	4915
653.6	4880
653.8	4857
654.0	4842
654.2	4827
654.4	4809
654.6	4783
654.8	4745
655.0	4719
655.2	4700
655.4	4678
655.6	4657
655.8	4633
656.0	4602
656.2	4579
656.4	4564
656.6	4538
656.8	4517
657.0	4494
657.2	4471
657.4	4450
657.6	4440
657.8	4416
658.0	4396
658.2	4370
658.4	4345
658.6	4313
658.8	4294
659.0	4270
659.2	4252
659.4	4238
659.6	4222
659.8	4194
660.0	4172
660.2	4148
660.4	4126
660.6	4109
660.8	4088
661.0	4057
661.2	4031
661.4	4006
661.6	3988
661.8	3972
662.0	3950
662.2	3922
662.4	3901
662.6	3880
662.8	3862
663.0	3844
663.2	3820
663.4	3801
663.6	3790
663.8	3770
664.0	3754
664.2	3734
664.4	3708
664.6	3691
664.8	3669
665.0	3644
665.2	3624
665.4	3605
665.6	3588
665.8	3569
666.0	3548
666.2	3529
666.4	3512
666.6	3498
666.8	3486
667.0	3467
667.2	3445
667.4	3423
667.6	3407
667.8	3390
668.0	3369
668.2	3349
668.4	3321
668.6	3299
668.8	3285
669.0	3274
669.2	3260
669.4	3243
669.6	3222
669.8	3194
670.0	3168
670.2	3143
670.4	3132
670.6	3115
670.8	3108
671.0	3091
671.2	3071
671.4	3050
671.6	3038
671.8	3020
672.0	3001
672.2	2980
672.4	2962
672.6	2946
672.8	2930
673.0	2915
673.2	2896
673.4	2880
673.6	2866
673.8	2856
674.0	2842
674.2	2829
674.4	2815
674.6	2799
674.8	2782
675.0	2766
675.2	2746
675.4	2724
675.6	2707
675.8	2692
676.0	2678
676.2	2668
676.4	2653
676.6	2630
676.8	2612
677.0	2591
677.2	2577
677.4	2565
677.6	2555
677.8	2538
678.0	2519
678.2	2501
678.4	2486
678.6	2474
678.8	2468
679.0	2453
679.2	2434
679.4	2418
679.6	2405
679.8	2394
680.0	2392
680.2	2377
680.4	2358
680.6	2339
680.8	2321
681.0	2299
681.2	2290
681.4	2278
681.6	2265
681.8	2259
682.0	2249
682.2	2230
682.4	2213
682.6	2194
682.8	2177
683.0	2166
683.2	2158
683.4	2146
683.6	2141
683.8	2126
684.0	2110
684.2	2093
684.4	2078
684.6	2065
684.8	2056
685.0	2045
685.2	2029
685.4	2016
685.6	2002
685.8	1986
686.0	1972
686.2	1963
686.4	1951
686.6	1942
686.8	1930
687.0	1915
687.2	1901
687.4	1894
687.6	1888
687.8	1881
688.0	1869
688.2	1857
688.4	1844
688.6	1834
688.8	1824
689.0	1814
689.2	1799
689.4	1787
689.6	1777
689.8	1764
690.0	1756
690.2	1745
690.4	1735
690.6	1725
690.8	1717
691.0	1707
691.2	1700
691.4	1685
691.6	1673
691.8	1662
692.0	1654
692.2	1648
692.4	1638
692.6	1627
692.8	1616
693.0	1610
693.2	1603
693.4	1593
693.6	1578
693.8	1566
694.0	1558
694.2	1553
694.4	1549
694.6	1540
694.8	1530
695.0	1519
695.2	1510
695.4	1501
695.6	1494
695.8	1485
696.0	1477
696.2	1469
696.4	1458
696.6	1448
696.8	1441
697.0	1434
697.2	1427
697.4	1420
697.6	1410
697.8	1404
698.0	1396
698.2	1388
698.4	1379
698.6	1369
698.8	1359
699.0	1354
699.2	1350
699.4	1348
699.6	1340
699.8	1329
700.0	1321
700.2	1312
700.4	1308
700.6	1302
700.8	1293
701.0	1285
701.2	1281
701.4	1275
701.6	1266
701.8	1257
702.0	1249
702.2	1243
702.4	1239
702.6	1232
702.8	1223
703.0	1217
703.2	1210
703.4	1207
703.6	1203
703.8	1196
704.0	1189
704.2	1181
704.4	1170
704.6	1163
704.8	1155
705.0	1147
705.2	1139
705.4	1134
705.6	1132
705.8	1129
706.0	1125
706.2	1116
706.4	1107
706.6	1101
706.8	1093
707.0	1086
707.2	1082
707.4	1073
707.6	1065
707.8	1058
708.0	1049
708.2	1046
708.4	1044
708.6	1038
708.8	1031
709.0	1025
709.2	1018
709.4	1012
709.6	1006
709.8	999.1
710.0	992.6
710.2	989.2
710.4	983.6
710.6	976.7
710.8	968.6
711.0	960.6
711.2	952.2
711.4	946.5
711.6	940.2
711.8	939.2
712.0	931.4
712.2	926.2
712.4	919.2
712.6	912.6
712.8	907.6
713.0	906.6
713.2	899.9
713.4	894.0
713.6	886.3
713.8	879.3
714.0	875.1
714.2	870.2
714.4	862.5
714.6	857.4
714.8	853.2
715.0	849.1
715.2	844.7
715.4	836.4
715.6	827.6
715.8	820.2
716.0	814.8
716.2	808.8
716.4	803.3
716.6	800.3
716.8	798.0
717.0	790.7
717.2	785.5
717.4	778.2
717.6	771.8
717.8	768.3
718.0	764.6
718.2	759.8
718.4	755.8
718.6	750.1
718.8	743.1
719.0	735.1
719.2	729.0
719.4	722.8
719.6	718.3
719.8	713.6
720.0	711.1
720.2	707.9
720.4	703.2
720.6	695.4
720.8	690.4
721.0	684.0
721.2	682.2
721.4	679.9
721.6	675.3
721.8	669.7
722.0	663.6
722.2	657.5
722.4	654.8
722.6	648.6
722.8	644.2
723.0	640.7
723.2	633.8
723.4	629.9
723.6	626.3
723.8	620.1
724.0	617.2
724.2	613.0
724.4	606.9
724.6	603.1
724.8	599.0
725.0	595.0
725.2	592.5
725.4	585.5
725.6	579.5
725.8	576.0
726.0	573.6
726.2	569.5
726.4	566.1
726.6	559.3
726.8	556.2
727.0	554.0
727.2	552.0
727.4	546.0
727.6	541.6
727.8	535.2
728.0	531.1
728.2	527.5
728.4	524.5
728.6	518.1
728.8	514.9
729.0	511.4
729.2	509.6
729.4	508.2
729.6	504.3
729.8	498.1
730.0	493.6
730.2	490.2
730.4	487.0
730.6	484.6
730.8	481.5
731.0	475.6
731.2	471.6
731.4	466.4
731.6	462.7
731.8	460.1
732.0	457.1
732.2	453.7
732.4	451.6
732.6	449.6
732.8	447.8
733.0	444.3
733.2	437.7
733.4	434.1
733.6	429.5
733.8	426.4
734.0	424.6
734.2	421.6
734.4	416.5
734.6	413.8
734.8	410.4
735.0	406.4
735.2	404.9
735.4	403.1
735.6	401.2
735.8	399.6
736.0	397.5
736.2	392.5
736.4	386.4
736.6	382.3
736.8	379.8
737.0	379.8
737.2	379.1
737.4	377.3
737.6	374.0
737.8	369.6
738.0	367.1
738.2	365.0
738.4	360.8
738.6	358.4
738.8	355.3
739.0	350.6
739.2	349.4
739.4	347.0
739.6	344.0
739.8	341.7
740.0	338.1
740.2	334.6
740.4	331.6
740.6	327.9
740.8	326.9
741.0	324.9
741.2	325.5
741.4	324.7
741.6	322.6
741.8	319.1
742.0	316.8
742.2	313.4
742.4	311.7
742.6	309.0
742.8	306.8
743.0	302.9
743.2	299.9
743.4	297.8
743.6	297.6
743.8	296.7
744.0	294.1
744.2	291.3
744.4	289.6
744.6	287.8
744.8	287.3
745.0	285.5
745.2	280.8
745.4	277.6
745.6	275.6
745.8	273.6
746.0	272.1
746.2	269.6
746.4	268.1
746.6	265.6
746.8	263.7
747.0	261.7
747.2	259.9
747.4	256.0
747.6	255.7
747.8	254.5
748.0	253.2
748.2	251.4
748.4	250.9
748.6	249.6
748.8	249.6
749.0	249.1
749.2	246.6
749.4	244.4
749.6	241.1
749.8	238.9
750.0	238.5
750.2	236.7
750.4	234.4
750.6	233.2
750.8	230.6
751.0	229.2
751.2	228.6
751.4	225.6
751.6	223.1
751.8	221.7
752.0	220.3
752.2	218.6
752.4	217.2
752.6	214.4
752.8	212.7
753.0	212.4
753.2	211.0
753.4	208.2
753.6	206.4
753.8	204.2
754.0	203.1
754.2	202.9
754.4	202.1
754.6	200.1
754.8	198.1
755.0	196.3
755.2	195.0
755.4	194.6
755.6	193.6
755.8	191.2
756.0	188.6
756.2	185.5
756.4	184.2
756.6	184.1
756.8	184.3
757.0	183.7
757.2	182.0
757.4	179.4
757.6	177.1
757.8	176.0
758.0	174.3
758.2	172.1
758.4	171.1
758.6	169.7
758.8	168.5
759.0	168.3
759.2	167.5
759.4	166.0
759.6	165.3
759.8	164.2
760.0	163.6
760.2	163.8
760.4	163.6
760.6	162.9
760.8	161.5
761.0	159.2
761.2	158.0
761.4	156.4
761.6	154.3
761.8	153.0
762.0	151.6
762.2	150.5
762.4	150.4
762.6	148.9
762.8	148.2
763.0	147.0
763.2	147.0
763.4	146.2
763.6	144.6
763.8	141.8
764.0	140.2
764.2	138.2
764.4	138.8
764.6	138.6
764.8	138.1
765.0	137.6
765.2	136.6
765.4	135.0
765.6	133.5
765.8	131.8
766.0	130.0
766.2	129.5
766.4	127.3
766.6	126.9
766.8	126.8
767.0	126.5
767.2	125.4
767.4	125.0
767.6	122.7
767.8	122.1
768.0	121.9
768.2	121.6
768.4	121.1
768.6	120.0
768.8	119.2
769.0	118.4
769.2	117.0
769.4	115.7
769.6	115.5
769.8	114.3
770.0	114.1
770.2	112.8
770.4	111.5
770.6	110.3
770.8	110.4
771.0	110.1
771.2	109.4
771.4	108.1
771.6	106.3
771.8	105.5
772.0	104.4
772.2	103.5
772.4	103.6
772.6	103.4
772.8	102.3
773.0	102.1
773.2	101.6
773.4	101.1
773.6	100.2
773.8	99.26
774.0	98.11
774.2	96.63
774.4	95.93
774.6	95.05
774.8	94.11
775.0	93.80
775.2	93.73
775.4	93.09
775.6	92.23
775.8	91.65
776.0	90.89
776.2	90.47
776.4	89.26
776.6	88.54
776.8	88.47
777.0	88.42
777.2	88.02
777.4	88.00
777.6	86.67
777.8	86.37
778.0	86.70
778.2	85.40
778.4	83.66
778.6	82.45
778.8	81.25
779.0	81.46
779.2	81.68
779.4	81.46
779.6	80.70
779.8	79.95
780.0	79.29
780.2	79.48
780.4	78.86
780.6	78.76
780.8	77.74
781.0	76.50
781.2	76.13
781.4	75.71
781.6	75.90
781.8	76.15
782.0	76.67
782.2	76.31
782.4	76.37
782.6	74.72
782.8	73.97
783.0	73.51
783.2	73.77
783.4	73.02
783.6	73.03
783.8	71.52
784.0	70.75
784.2	71.10
784.4	70.83
784.6	70.29
784.8	70.15
785.0	69.02
785.2	68.82
785.4	68.59
785.6	68.37
785.8	68.06
786.0	67.88
786.2	67.09
786.4	66.65
786.6	65.80
786.8	65.57
787.0	65.53
787.2	65.43
787.4	64.73
787.6	64.10
787.8	64.20
788.0	64.58
788.2	65.09
788.4	65.06
788.6	64.26
788.8	63.48
789.0	62.90
789.2	62.86
789.4	61.84
789.6	61.43
789.8	61.24
790.0	61.12
790.2	60.96
790.4	61.15
790.6	59.94
790.8	59.64
791.0	59.89
791.2	59.92
791.4	59.76
791.6	59.93
791.8	59.25
792.0	58.74
792.2	58.69
792.4	58.20
792.6	57.60
792.8	57.63
793.0	57.35
793.2	57.91
793.4	57.95
793.6	57.49
793.8	56.91
794.0	56.04
794.2	55.32
794.4	55.24
794.6	54.74
794.8	55.52
795.0	55.43
795.2	54.92
795.4	54.51
795.6	54.11
795.8	53.85
796.0	54.75
796.2	54.70
796.4	53.87
796.6	53.45
796.8	53.30
797.0	53.24
797.2	52.85
797.4	52.22
797.6	51.69
797.8	51.48
798.0	50.88
798.2	51.07
798.4	51.16
798.6	51.16
798.8	51.30
799.0	51.38
799.2	50.27
799.4	49.81
799.6	49.87
799.8	49.89
800.0	49.67
800.2	50.07
800.4	49.32
800.6	48.59
800.8	48.17
801.0	48.23
801.2	48.39
801.4	49.29
801.6	48.91
801.8	48.66
802.0	48.30
802.2	47.54
802.4	47.29
802.6	47.10
802.8	46.39
803.0	46.86
803.2	46.60
803.4	46.02
803.6	45.50
803.8	45.06
804.0	45.07
804.2	45.83
804.4	45.60
804.6	45.24
804.8	44.30
805.0	44.43
805.2	44.66
805.4	45.36
805.6	45.30
805.8	44.58
806.0	43.81
806.2	43.19
806.4	42.32
806.6	41.98
806.8	41.81
807.0	41.40
807.2	42.06
807.4	42.40
807.6	42.00
807.8	41.62
808.0	41.27
808.2	40.92
808.4	41.14
808.6	41.50
808.8	40.90
809.0	40.29
809.2	39.70
809.4	39.82
809.6	40.12
809.8	40.15
810.0	39.52

