Sample:	'20211010A(EM)
File name:	R-CDs 13.FDS
Run date:	'11:39:20, 06/11/2023
Operator:	Administrator
Comment:	'

Instrument
Model:	F-4700 FL Spectrophotometer
Serial number:	2019-001
ROM Version:	5J24010 00

Instrument parameters
Measurement type:	Wavelength scan
Scan mode:	Emission
Data mode:	Fluorescence
EX WL:	520.0 nm
EM  Start WL:	540.0 nm
EM  End WL:	810.0 nm
Scan speed:	1200 nm/min
Delay:	0.0 s
EX Slit:	10.0 nm
EM Slit:	10.0 nm
PMT Voltage:	525 V
Response:	0.002 s
Corrected spectra:	Off
Shutter control:	On

Processing performed
Savitsky-Golay smoothed
Smoothing order:	3
Number of points:	7
Number of times:	1

Peak integration
Integration method:	Rectangular
Sensitivity:	1
Threshold:	1.000

Peaks
No.	Start(nm)	Apex(nm)	End(nm)	Height(Data)	Valley(nm)	Valley(Data)
1	540.0	614.0	614.6	2485	614.6	2478
2	614.6	617.4	618.8	2511	618.8	2493
3	618.8	619.6	623.4	2514	623.4	2485
4	623.4	624.2	794.2	2499	794.2	28.14
5	794.2	795.0	798.8	29.54	798.8	25.81
6	798.8	800.0	806.0	26.97	806.0	22.77
7	806.0	806.6	810.0	23.83	810.0	20.66

Data points
nm	Data
540.0	161.0
540.2	163.3
540.4	164.4
540.6	164.8
540.8	165.1
541.0	165.5
541.2	166.7
541.4	167.9
541.6	169.8
541.8	172.1
542.0	174.6
542.2	176.0
542.4	177.7
542.6	177.3
542.8	177.8
543.0	179.5
543.2	182.0
543.4	183.3
543.6	184.6
543.8	184.5
544.0	185.0
544.2	187.7
544.4	190.9
544.6	193.5
544.8	194.3
545.0	195.6
545.2	195.9
545.4	198.0
545.6	200.2
545.8	203.0
546.0	204.5
546.2	207.1
546.4	208.3
546.6	209.1
546.8	210.0
547.0	212.7
547.2	215.9
547.4	219.4
547.6	222.2
547.8	224.4
548.0	225.7
548.2	228.2
548.4	229.7
548.6	229.9
548.8	231.4
549.0	233.0
549.2	235.2
549.4	238.1
549.6	241.3
549.8	243.6
550.0	246.7
550.2	248.4
550.4	250.9
550.6	253.0
550.8	254.8
551.0	257.1
551.2	259.9
551.4	263.7
551.6	267.0
551.8	271.6
552.0	271.6
552.2	271.9
552.4	272.4
552.6	275.0
552.8	277.4
553.0	282.7
553.2	286.2
553.4	289.7
553.6	293.3
553.8	297.1
554.0	299.0
554.2	299.8
554.4	301.1
554.6	303.1
554.8	307.1
555.0	313.2
555.2	318.6
555.4	321.2
555.6	323.8
555.8	324.9
556.0	328.5
556.2	331.8
556.4	336.7
556.6	341.0
556.8	345.1
557.0	347.1
557.2	351.0
557.4	354.5
557.6	358.3
557.8	360.9
558.0	362.2
558.2	366.0
558.4	369.5
558.6	376.0
558.8	380.0
559.0	382.7
559.2	384.8
559.4	392.2
559.6	396.7
559.8	404.6
560.0	410.0
560.2	413.5
560.4	414.7
560.6	420.2
560.8	424.9
561.0	432.3
561.2	438.7
561.4	442.6
561.6	443.9
561.8	446.9
562.0	449.7
562.2	454.0
562.4	461.2
562.6	468.5
562.8	475.1
563.0	479.0
563.2	484.0
563.4	488.6
563.6	493.6
563.8	500.2
564.0	506.0
564.2	513.4
564.4	523.2
564.6	528.9
564.8	534.9
565.0	539.4
565.2	543.2
565.4	548.8
565.6	555.1
565.8	560.8
566.0	569.1
566.2	575.8
566.4	583.2
566.6	589.4
566.8	595.0
567.0	602.1
567.2	608.9
567.4	616.2
567.6	623.9
567.8	631.9
568.0	638.1
568.2	644.1
568.4	649.3
568.6	656.9
568.8	664.8
569.0	673.6
569.2	681.1
569.4	687.0
569.6	694.0
569.8	703.0
570.0	714.5
570.2	726.7
570.4	734.4
570.6	743.5
570.8	752.3
571.0	758.2
571.2	766.3
571.4	775.5
571.6	782.5
571.8	791.5
572.0	799.3
572.2	807.4
572.4	816.6
572.6	825.3
572.8	834.6
573.0	843.3
573.2	852.6
573.4	862.7
573.6	873.1
573.8	883.5
574.0	892.7
574.2	903.9
574.4	914.4
574.6	920.9
574.8	927.3
575.0	937.6
575.2	944.6
575.4	956.5
575.6	970.2
575.8	979.4
576.0	988.6
576.2	998.0
576.4	1003
576.6	1014
576.8	1028
577.0	1038
577.2	1048
577.4	1062
577.6	1072
577.8	1083
578.0	1093
578.2	1100
578.4	1108
578.6	1119
578.8	1130
579.0	1138
579.2	1151
579.4	1161
579.6	1177
579.8	1192
580.0	1205
580.2	1215
580.4	1227
580.6	1238
580.8	1250
581.0	1264
581.2	1271
581.4	1279
581.6	1287
581.8	1297
582.0	1308
582.2	1321
582.4	1332
582.6	1342
582.8	1349
583.0	1361
583.2	1373
583.4	1386
583.6	1398
583.8	1413
584.0	1418
584.2	1426
584.4	1434
584.6	1445
584.8	1458
585.0	1477
585.2	1487
585.4	1500
585.6	1510
585.8	1518
586.0	1525
586.2	1537
586.4	1547
586.6	1559
586.8	1568
587.0	1578
587.2	1587
587.4	1602
587.6	1614
587.8	1623
588.0	1630
588.2	1642
588.4	1656
588.6	1671
588.8	1679
589.0	1682
589.2	1688
589.4	1696
589.6	1706
589.8	1717
590.0	1726
590.2	1736
590.4	1747
590.6	1756
590.8	1766
591.0	1782
591.2	1794
591.4	1809
591.6	1812
591.8	1820
592.0	1827
592.2	1838
592.4	1842
592.6	1852
592.8	1856
593.0	1868
593.2	1882
593.4	1896
593.6	1906
593.8	1913
594.0	1916
594.2	1923
594.4	1932
594.6	1944
594.8	1958
595.0	1969
595.2	1979
595.4	1990
595.6	1996
595.8	1999
596.0	2006
596.2	2012
596.4	2014
596.6	2024
596.8	2032
597.0	2038
597.2	2050
597.4	2059
597.6	2068
597.8	2077
598.0	2085
598.2	2091
598.4	2099
598.6	2112
598.8	2123
599.0	2125
599.2	2130
599.4	2137
599.6	2143
599.8	2153
600.0	2160
600.2	2165
600.4	2170
600.6	2176
600.8	2178
601.0	2182
601.2	2193
601.4	2206
601.6	2216
601.8	2224
602.0	2231
602.2	2233
602.4	2239
602.6	2242
602.8	2240
603.0	2247
603.2	2259
603.4	2266
603.6	2274
603.8	2274
604.0	2276
604.2	2287
604.4	2301
604.6	2306
604.8	2308
605.0	2305
605.2	2308
605.4	2317
605.6	2328
605.8	2334
606.0	2339
606.2	2343
606.4	2345
606.6	2349
606.8	2357
607.0	2364
607.2	2371
607.4	2377
607.6	2377
607.8	2378
608.0	2383
608.2	2391
608.4	2391
608.6	2392
608.8	2387
609.0	2386
609.2	2395
609.4	2408
609.6	2416
609.8	2419
610.0	2422
610.2	2422
610.4	2432
610.6	2437
610.8	2438
611.0	2433
611.2	2434
611.4	2438
611.6	2444
611.8	2446
612.0	2448
612.2	2453
612.4	2458
612.6	2466
612.8	2468
613.0	2468
613.2	2470
613.4	2475
613.6	2479
613.8	2483
614.0	2485
614.2	2484
614.4	2482
614.6	2478
614.8	2479
615.0	2479
615.2	2482
615.4	2489
615.6	2496
615.8	2501
616.0	2502
616.2	2501
616.4	2496
616.6	2499
616.8	2505
617.0	2508
617.2	2508
617.4	2511
617.6	2501
617.8	2502
618.0	2504
618.2	2505
618.4	2505
618.6	2499
618.8	2493
619.0	2499
619.2	2502
619.4	2510
619.6	2514
619.8	2508
620.0	2508
620.2	2512
620.4	2511
620.6	2510
620.8	2509
621.0	2505
621.2	2504
621.4	2508
621.6	2507
621.8	2505
622.0	2504
622.2	2502
622.4	2504
622.6	2502
622.8	2497
623.0	2490
623.2	2488
623.4	2485
623.6	2488
623.8	2492
624.0	2497
624.2	2499
624.4	2498
624.6	2496
624.8	2494
625.0	2486
625.2	2480
625.4	2476
625.6	2471
625.8	2476
626.0	2477
626.2	2477
626.4	2479
626.6	2475
626.8	2466
627.0	2464
627.2	2451
627.4	2451
627.6	2446
627.8	2446
628.0	2442
628.2	2442
628.4	2436
628.6	2431
628.8	2425
629.0	2427
629.2	2428
629.4	2427
629.6	2423
629.8	2418
630.0	2415
630.2	2412
630.4	2412
630.6	2409
630.8	2399
631.0	2390
631.2	2379
631.4	2375
631.6	2374
631.8	2378
632.0	2384
632.2	2386
632.4	2379
632.6	2374
632.8	2364
633.0	2356
633.2	2354
633.4	2355
633.6	2352
633.8	2346
634.0	2334
634.2	2321
634.4	2312
634.6	2310
634.8	2314
635.0	2313
635.2	2312
635.4	2307
635.6	2302
635.8	2294
636.0	2289
636.2	2283
636.4	2281
636.6	2276
636.8	2276
637.0	2270
637.2	2265
637.4	2259
637.6	2250
637.8	2236
638.0	2231
638.2	2225
638.4	2215
638.6	2211
638.8	2207
639.0	2202
639.2	2200
639.4	2199
639.6	2193
639.8	2183
640.0	2181
640.2	2176
640.4	2173
640.6	2171
640.8	2170
641.0	2158
641.2	2150
641.4	2140
641.6	2131
641.8	2127
642.0	2126
642.2	2121
642.4	2114
642.6	2102
642.8	2094
643.0	2089
643.2	2083
643.4	2075
643.6	2069
643.8	2059
644.0	2061
644.2	2060
644.4	2053
644.6	2046
644.8	2037
645.0	2029
645.2	2023
645.4	2017
645.6	2005
645.8	2000
646.0	1996
646.2	1992
646.4	1990
646.6	1983
646.8	1972
647.0	1964
647.2	1955
647.4	1948
647.6	1947
647.8	1944
648.0	1937
648.2	1927
648.4	1916
648.6	1906
648.8	1899
649.0	1894
649.2	1890
649.4	1887
649.6	1879
649.8	1870
650.0	1865
650.2	1855
650.4	1850
650.6	1846
650.8	1835
651.0	1831
651.2	1826
651.4	1813
651.6	1804
651.8	1795
652.0	1790
652.2	1790
652.4	1786
652.6	1780
652.8	1774
653.0	1764
653.2	1757
653.4	1749
653.6	1743
653.8	1733
654.0	1727
654.2	1717
654.4	1711
654.6	1710
654.8	1701
655.0	1695
655.2	1688
655.4	1679
655.6	1670
655.8	1667
656.0	1660
656.2	1659
656.4	1651
656.6	1642
656.8	1628
657.0	1621
657.2	1615
657.4	1606
657.6	1600
657.8	1593
658.0	1585
658.2	1585
658.4	1582
658.6	1578
658.8	1575
659.0	1561
659.2	1545
659.4	1539
659.6	1532
659.8	1525
660.0	1522
660.2	1513
660.4	1505
660.6	1503
660.8	1498
661.0	1492
661.2	1488
661.4	1481
661.6	1473
661.8	1465
662.0	1461
662.2	1456
662.4	1449
662.6	1442
662.8	1430
663.0	1421
663.2	1416
663.4	1410
663.6	1405
663.8	1399
664.0	1389
664.2	1385
664.4	1381
664.6	1377
664.8	1373
665.0	1365
665.2	1359
665.4	1352
665.6	1346
665.8	1337
666.0	1328
666.2	1323
666.4	1318
666.6	1316
666.8	1314
667.0	1308
667.2	1297
667.4	1291
667.6	1282
667.8	1274
668.0	1269
668.2	1264
668.4	1255
668.6	1252
668.8	1246
669.0	1241
669.2	1233
669.4	1227
669.6	1219
669.8	1211
670.0	1203
670.2	1200
670.4	1195
670.6	1192
670.8	1187
671.0	1179
671.2	1173
671.4	1168
671.6	1161
671.8	1156
672.0	1151
672.2	1145
672.4	1140
672.6	1134
672.8	1127
673.0	1122
673.2	1115
673.4	1109
673.6	1104
673.8	1100
674.0	1095
674.2	1089
674.4	1078
674.6	1069
674.8	1064
675.0	1058
675.2	1054
675.4	1048
675.6	1045
675.8	1042
676.0	1038
676.2	1032
676.4	1024
676.6	1016
676.8	1012
677.0	1008
677.2	1004
677.4	997.6
677.6	989.1
677.8	985.7
678.0	980.1
678.2	979.9
678.4	977.6
678.6	971.7
678.8	964.6
679.0	957.6
679.2	949.3
679.4	944.3
679.6	939.8
679.8	935.9
680.0	934.1
680.2	931.8
680.4	926.3
680.6	918.4
680.8	911.2
681.0	904.0
681.2	898.1
681.4	895.7
681.6	889.0
681.8	884.2
682.0	882.1
682.2	878.3
682.4	872.7
682.6	865.9
682.8	860.6
683.0	858.1
683.2	854.6
683.4	851.6
683.6	844.6
683.8	835.7
684.0	834.5
684.2	830.1
684.4	823.6
684.6	821.3
684.8	816.1
685.0	811.0
685.2	807.6
685.4	802.7
685.6	799.4
685.8	797.8
686.0	798.0
686.2	795.5
686.4	789.1
686.6	783.0
686.8	777.2
687.0	772.5
687.2	770.4
687.4	766.8
687.6	761.6
687.8	754.9
688.0	749.3
688.2	743.4
688.4	738.7
688.6	734.9
688.8	730.4
689.0	725.6
689.2	720.5
689.4	716.1
689.6	715.3
689.8	715.6
690.0	716.4
690.2	714.9
690.4	708.1
690.6	702.5
690.8	697.1
691.0	694.4
691.2	693.4
691.4	691.5
691.6	687.3
691.8	682.9
692.0	677.0
692.2	673.8
692.4	669.3
692.6	666.2
692.8	663.0
693.0	659.4
693.2	655.9
693.4	653.3
693.6	649.0
693.8	646.4
694.0	644.5
694.2	640.1
694.4	634.6
694.6	630.8
694.8	627.1
695.0	625.3
695.2	625.3
695.4	626.2
695.6	621.8
695.8	618.1
696.0	611.4
696.2	604.7
696.4	602.0
696.6	600.9
696.8	596.9
697.0	595.6
697.2	591.4
697.4	587.7
697.6	586.0
697.8	581.7
698.0	577.1
698.2	575.9
698.4	573.5
698.6	570.9
698.8	569.4
699.0	567.0
699.2	561.0
699.4	558.2
699.6	557.3
699.8	555.7
700.0	554.7
700.2	553.7
700.4	548.8
700.6	546.1
700.8	544.5
701.0	541.9
701.2	539.3
701.4	536.5
701.6	531.5
701.8	531.2
702.0	528.1
702.2	526.2
702.4	524.2
702.6	521.9
702.8	518.3
703.0	518.1
703.2	513.2
703.4	509.9
703.6	505.7
703.8	503.9
704.0	502.7
704.2	499.2
704.4	494.8
704.6	493.2
704.8	490.0
705.0	489.1
705.2	488.0
705.4	483.5
705.6	480.4
705.8	479.2
706.0	476.1
706.2	475.3
706.4	472.4
706.6	468.3
706.8	466.0
707.0	461.6
707.2	458.8
707.4	457.2
707.6	455.6
707.8	454.3
708.0	454.2
708.2	449.3
708.4	446.3
708.6	442.7
708.8	438.7
709.0	436.1
709.2	432.6
709.4	429.7
709.6	429.4
709.8	430.0
710.0	427.9
710.2	426.7
710.4	423.5
710.6	420.5
710.8	419.5
711.0	418.0
711.2	415.9
711.4	413.1
711.6	409.7
711.8	407.9
712.0	406.7
712.2	404.1
712.4	401.1
712.6	396.0
712.8	390.6
713.0	390.5
713.2	388.5
713.4	385.5
713.6	384.7
713.8	382.6
714.0	380.3
714.2	379.4
714.4	376.9
714.6	373.3
714.8	371.1
715.0	369.4
715.2	366.0
715.4	362.8
715.6	360.9
715.8	359.2
716.0	358.0
716.2	357.5
716.4	354.4
716.6	351.9
716.8	350.5
717.0	348.3
717.2	346.1
717.4	342.9
717.6	339.9
717.8	336.7
718.0	335.9
718.2	335.0
718.4	333.7
718.6	331.4
718.8	328.8
719.0	325.2
719.2	323.3
719.4	320.7
719.6	320.1
719.8	318.2
720.0	315.6
720.2	313.7
720.4	311.5
720.6	308.1
720.8	305.6
721.0	303.9
721.2	302.2
721.4	301.5
721.6	300.6
721.8	299.0
722.0	296.9
722.2	295.1
722.4	292.7
722.6	291.0
722.8	287.6
723.0	284.3
723.2	282.0
723.4	278.0
723.6	277.6
723.8	277.5
724.0	276.9
724.2	274.7
724.4	272.8
724.6	268.7
724.8	266.8
725.0	264.6
725.2	263.8
725.4	260.9
725.6	260.1
725.8	258.6
726.0	257.7
726.2	255.0
726.4	251.7
726.6	247.4
726.8	245.9
727.0	245.2
727.2	246.3
727.4	244.9
727.6	243.9
727.8	241.4
728.0	240.5
728.2	239.4
728.4	239.0
728.6	237.7
728.8	235.3
729.0	232.6
729.2	229.7
729.4	225.6
729.6	224.5
729.8	223.8
730.0	223.1
730.2	223.9
730.4	222.5
730.6	218.9
730.8	218.2
731.0	217.2
731.2	216.3
731.4	215.9
731.6	213.8
731.8	211.3
732.0	210.5
732.2	209.7
732.4	206.9
732.6	204.8
732.8	200.8
733.0	197.9
733.2	197.7
733.4	197.8
733.6	197.9
733.8	198.0
734.0	195.1
734.2	192.5
734.4	191.5
734.6	190.6
734.8	189.2
735.0	188.0
735.2	186.6
735.4	184.3
735.6	183.9
735.8	182.8
736.0	180.7
736.2	180.0
736.4	179.6
736.6	178.1
736.8	175.5
737.0	174.5
737.2	173.6
737.4	171.6
737.6	170.8
737.8	169.3
738.0	167.0
738.2	166.9
738.4	166.1
738.6	164.8
738.8	164.2
739.0	161.9
739.2	160.4
739.4	158.7
739.6	158.3
739.8	158.6
740.0	158.5
740.2	157.7
740.4	156.3
740.6	154.7
740.8	153.8
741.0	152.8
741.2	152.3
741.4	151.3
741.6	150.4
741.8	150.5
742.0	149.8
742.2	147.9
742.4	146.6
742.6	145.7
742.8	144.8
743.0	144.7
743.2	143.8
743.4	140.4
743.6	138.6
743.8	137.8
744.0	136.0
744.2	135.2
744.4	134.5
744.6	133.1
744.8	133.4
745.0	134.0
745.2	133.1
745.4	132.0
745.6	130.1
745.8	129.6
746.0	129.2
746.2	129.0
746.4	128.0
746.6	126.2
746.8	124.0
747.0	123.0
747.2	121.3
747.4	120.6
747.6	119.8
747.8	118.9
748.0	118.6
748.2	118.1
748.4	117.4
748.6	116.8
748.8	115.8
749.0	115.6
749.2	116.0
749.4	115.9
749.6	115.8
749.8	113.9
750.0	112.1
750.2	111.5
750.4	110.8
750.6	109.4
750.8	108.9
751.0	106.6
751.2	105.6
751.4	104.9
751.6	104.7
751.8	105.2
752.0	104.8
752.2	103.2
752.4	101.7
752.6	100.5
752.8	99.66
753.0	100.1
753.2	98.71
753.4	97.61
753.6	96.83
753.8	98.03
754.0	98.15
754.2	98.58
754.4	97.18
754.6	95.92
754.8	94.31
755.0	94.07
755.2	93.46
755.4	93.43
755.6	92.78
755.8	92.15
756.0	90.44
756.2	90.07
756.4	89.54
756.6	88.98
756.8	87.72
757.0	86.74
757.2	86.26
757.4	86.45
757.6	86.25
757.8	86.39
758.0	85.20
758.2	85.01
758.4	85.17
758.6	84.98
758.8	83.14
759.0	82.29
759.2	80.82
759.4	80.53
759.6	80.16
759.8	80.20
760.0	79.09
760.2	77.91
760.4	76.90
760.6	76.31
760.8	74.96
761.0	74.54
761.2	75.03
761.4	74.19
761.6	74.51
761.8	74.68
762.0	74.57
762.2	74.30
762.4	73.67
762.6	72.46
762.8	71.43
763.0	70.51
763.2	70.32
763.4	69.77
763.6	69.13
763.8	69.53
764.0	68.42
764.2	67.71
764.4	66.53
764.6	65.86
764.8	65.68
765.0	66.27
765.2	66.04
765.4	65.81
765.6	65.34
765.8	65.08
766.0	64.21
766.2	63.51
766.4	62.82
766.6	62.00
766.8	62.95
767.0	62.88
767.2	62.47
767.4	61.60
767.6	60.12
767.8	59.10
768.0	59.18
768.2	59.09
768.4	59.70
768.6	59.84
768.8	58.59
769.0	57.44
769.2	56.57
769.4	56.13
769.6	55.83
769.8	56.39
770.0	56.09
770.2	55.75
770.4	55.71
770.6	54.51
770.8	53.94
771.0	54.18
771.2	53.47
771.4	53.19
771.6	53.40
771.8	53.07
772.0	53.49
772.2	53.67
772.4	53.00
772.6	52.10
772.8	51.11
773.0	50.12
773.2	49.17
773.4	48.82
773.6	48.74
773.8	48.58
774.0	48.43
774.2	48.76
774.4	48.14
774.6	47.36
774.8	46.76
775.0	46.37
775.2	45.80
775.4	46.14
775.6	45.87
775.8	45.46
776.0	45.31
776.2	44.75
776.4	44.15
776.6	43.70
776.8	43.69
777.0	43.92
777.2	43.67
777.4	43.48
777.6	43.55
777.8	42.82
778.0	43.19
778.2	43.38
778.4	43.34
778.6	42.53
778.8	41.55
779.0	40.65
779.2	40.89
779.4	41.13
779.6	41.04
779.8	40.20
780.0	39.23
780.2	39.28
780.4	39.50
780.6	39.59
780.8	39.76
781.0	39.43
781.2	39.30
781.4	39.13
781.6	38.38
781.8	37.96
782.0	37.88
782.2	37.35
782.4	38.28
782.6	37.98
782.8	37.51
783.0	37.72
783.2	37.07
783.4	37.05
783.6	37.26
783.8	36.71
784.0	36.10
784.2	36.23
784.4	35.76
784.6	35.75
784.8	35.87
785.0	36.40
785.2	35.82
785.4	35.53
785.6	35.10
785.8	34.20
786.0	33.75
786.2	33.89
786.4	33.43
786.6	33.96
786.8	34.78
787.0	34.64
787.2	33.76
787.4	32.95
787.6	32.20
787.8	32.18
788.0	32.20
788.2	32.76
788.4	32.92
788.6	33.10
788.8	33.08
789.0	32.33
789.2	31.47
789.4	31.27
789.6	31.51
789.8	31.80
790.0	31.99
790.2	31.49
790.4	31.42
790.6	30.60
790.8	31.14
791.0	30.93
791.2	31.42
791.4	31.42
791.6	31.64
791.8	30.63
792.0	30.62
792.2	29.54
792.4	29.77
792.6	29.41
792.8	29.30
793.0	29.28
793.2	29.48
793.4	29.33
793.6	29.44
793.8	29.05
794.0	28.28
794.2	28.14
794.4	28.24
794.6	28.72
794.8	29.28
795.0	29.54
795.2	28.75
795.4	28.25
795.6	28.41
795.8	28.81
796.0	28.89
796.2	28.69
796.4	28.11
796.6	28.19
796.8	28.60
797.0	28.90
797.2	28.49
797.4	27.84
797.6	27.40
797.8	27.46
798.0	27.25
798.2	27.20
798.4	26.64
798.6	25.88
798.8	25.81
799.0	25.94
799.2	26.09
799.4	26.23
799.6	26.31
799.8	26.19
800.0	26.97
800.2	26.84
800.4	26.69
800.6	25.77
800.8	25.26
801.0	24.79
801.2	24.88
801.4	25.14
801.6	25.30
801.8	25.58
802.0	25.47
802.2	24.74
802.4	24.59
802.6	24.60
802.8	24.05
803.0	24.37
803.2	23.83
803.4	23.38
803.6	23.74
803.8	24.03
804.0	24.44
804.2	24.36
804.4	24.04
804.6	23.92
804.8	23.18
805.0	23.40
805.2	23.60
805.4	23.07
805.6	22.85
805.8	22.77
806.0	22.77
806.2	23.05
806.4	23.40
806.6	23.83
806.8	23.56
807.0	23.25
807.2	23.24
807.4	22.71
807.6	22.23
807.8	22.35
808.0	22.05
808.2	21.84
808.4	22.29
808.6	22.22
808.8	21.96
809.0	22.14
809.2	22.08
809.4	21.74
809.6	21.81
809.8	21.56
810.0	20.66

