Sample:	'20211010A(EM)
File name:	R-CDs 7 700.FDS
Run date:	'11:20:15, 06/11/2023
Operator:	Administrator
Comment:	'

Instrument
Model:	F-4700 FL Spectrophotometer
Serial number:	2019-001
ROM Version:	5J24010 00

Instrument parameters
Measurement type:	Wavelength scan
Scan mode:	Emission
Data mode:	Fluorescence
EX WL:	520.0 nm
EM  Start WL:	540.0 nm
EM  End WL:	810.0 nm
Scan speed:	1200 nm/min
Delay:	0.0 s
EX Slit:	10.0 nm
EM Slit:	10.0 nm
PMT Voltage:	515 V
Response:	0.002 s
Corrected spectra:	Off
Shutter control:	On

Processing performed
Savitsky-Golay smoothed
Smoothing order:	3
Number of points:	7
Number of times:	1

Peak integration
Integration method:	Rectangular
Sensitivity:	1
Threshold:	1.000

Peaks
No.	Start(nm)	Apex(nm)	End(nm)	Height(Data)	Valley(nm)	Valley(Data)
1	540.0	603.4	605.6	364.0	605.6	358.3
2	605.6	606.8	608.4	364.1	608.4	358.8
3	608.4	609.0	611.4	362.8	611.4	360.3
4	611.4	611.8	612.6	363.0	612.6	358.1
5	612.6	613.6	618.6	361.2	618.6	350.4
6	618.6	620.0	810.0	353.8	810.0	2.785

Data points
nm	Data
540.0	52.68
540.2	52.27
540.4	52.28
540.6	52.55
540.8	53.11
541.0	53.12
541.2	52.82
541.4	52.55
541.6	52.97
541.8	52.50
542.0	52.76
542.2	52.57
542.4	53.00
542.6	52.69
542.8	52.98
543.0	53.22
543.2	53.60
543.4	54.00
543.6	54.74
543.8	54.83
544.0	55.29
544.2	55.29
544.4	55.54
544.6	55.97
544.8	56.11
545.0	56.41
545.2	56.50
545.4	57.00
545.6	57.35
545.8	57.55
546.0	57.36
546.2	57.10
546.4	56.70
546.6	57.67
546.8	58.39
547.0	58.84
547.2	59.71
547.4	60.46
547.6	60.59
547.8	60.19
548.0	60.08
548.2	59.95
548.4	60.59
548.6	61.26
548.8	62.30
549.0	62.23
549.2	62.71
549.4	63.76
549.6	64.12
549.8	63.80
550.0	63.97
550.2	63.95
550.4	64.09
550.6	64.68
550.8	64.89
551.0	65.00
551.2	65.67
551.4	66.34
551.6	67.06
551.8	67.63
552.0	68.01
552.2	68.93
552.4	69.94
552.6	69.60
552.8	70.25
553.0	70.48
553.2	70.98
553.4	71.32
553.6	71.83
553.8	71.23
554.0	71.74
554.2	71.71
554.4	72.40
554.6	73.42
554.8	74.95
555.0	76.25
555.2	77.21
555.4	77.73
555.6	78.63
555.8	80.02
556.0	80.35
556.2	80.79
556.4	81.25
556.6	82.21
556.8	83.17
557.0	83.80
557.2	84.29
557.4	84.79
557.6	85.93
557.8	87.05
558.0	88.81
558.2	90.28
558.4	91.85
558.6	91.95
558.8	91.79
559.0	91.30
559.2	92.20
559.4	92.87
559.6	94.08
559.8	95.91
560.0	97.04
560.2	98.43
560.4	99.20
560.6	99.55
560.8	100.4
561.0	102.1
561.2	103.8
561.4	106.3
561.6	107.6
561.8	109.0
562.0	110.3
562.2	111.4
562.4	113.0
562.6	113.7
562.8	114.3
563.0	115.6
563.2	117.2
563.4	118.8
563.6	121.0
563.8	122.2
564.0	123.0
564.2	124.4
564.4	124.8
564.6	126.0
564.8	128.2
565.0	130.4
565.2	132.4
565.4	134.9
565.6	137.1
565.8	139.0
566.0	139.5
566.2	139.5
566.4	140.7
566.6	142.2
566.8	145.8
567.0	147.4
567.2	148.3
567.4	150.0
567.6	152.6
567.8	154.9
568.0	157.8
568.2	159.2
568.4	159.5
568.6	162.0
568.8	164.1
569.0	165.3
569.2	167.2
569.4	169.2
569.6	169.9
569.8	172.0
570.0	174.3
570.2	176.6
570.4	179.0
570.6	180.6
570.8	182.6
571.0	184.3
571.2	187.2
571.4	189.8
571.6	192.0
571.8	193.4
572.0	194.0
572.2	196.2
572.4	198.6
572.6	200.1
572.8	202.2
573.0	204.3
573.2	205.4
573.4	207.3
573.6	209.8
573.8	211.3
574.0	213.7
574.2	215.0
574.4	215.3
574.6	217.1
574.8	220.7
575.0	224.0
575.2	226.6
575.4	228.0
575.6	228.9
575.8	231.5
576.0	233.8
576.2	235.9
576.4	236.5
576.6	238.5
576.8	241.2
577.0	242.7
577.2	244.4
577.4	247.4
577.6	249.4
577.8	251.7
578.0	251.4
578.2	251.4
578.4	253.8
578.6	256.4
578.8	259.4
579.0	262.7
579.2	261.7
579.4	264.6
579.6	267.4
579.8	267.0
580.0	268.5
580.2	270.1
580.4	269.2
580.6	271.5
580.8	272.4
581.0	274.4
581.2	276.8
581.4	280.3
581.6	281.9
581.8	282.9
582.0	282.0
582.2	283.5
582.4	283.4
582.6	284.9
582.8	286.3
583.0	287.3
583.2	288.7
583.4	290.4
583.6	291.5
583.8	293.4
584.0	294.5
584.2	295.2
584.4	296.2
584.6	296.6
584.8	297.6
585.0	301.1
585.2	302.7
585.4	304.2
585.6	304.6
585.8	303.8
586.0	303.3
586.2	304.8
586.4	307.5
586.6	309.5
586.8	312.0
587.0	312.6
587.2	311.9
587.4	311.6
587.6	313.9
587.8	314.0
588.0	315.3
588.2	316.6
588.4	317.6
588.6	320.4
588.8	322.4
589.0	320.6
589.2	319.9
589.4	321.2
589.6	320.0
589.8	323.1
590.0	324.3
590.2	323.1
590.4	324.5
590.6	328.5
590.8	328.1
591.0	331.0
591.2	331.3
591.4	330.9
591.6	331.4
591.8	333.7
592.0	332.4
592.2	333.2
592.4	332.5
592.6	333.9
592.8	335.9
593.0	337.0
593.2	334.6
593.4	333.7
593.6	334.0
593.8	337.2
594.0	339.4
594.2	342.4
594.4	343.4
594.6	344.1
594.8	345.1
595.0	346.4
595.2	344.0
595.4	343.9
595.6	345.1
595.8	346.1
596.0	346.8
596.2	348.0
596.4	347.2
596.6	346.5
596.8	346.3
597.0	346.5
597.2	346.8
597.4	348.5
597.6	349.8
597.8	350.1
598.0	349.5
598.2	349.6
598.4	349.8
598.6	351.4
598.8	352.2
599.0	352.8
599.2	353.9
599.4	355.5
599.6	355.9
599.8	355.6
600.0	353.8
600.2	353.3
600.4	355.3
600.6	357.5
600.8	358.6
601.0	358.4
601.2	356.9
601.4	356.0
601.6	357.1
601.8	358.9
602.0	359.4
602.2	359.9
602.4	359.4
602.6	358.5
602.8	359.5
603.0	363.2
603.2	363.5
603.4	364.0
603.6	363.2
603.8	360.6
604.0	360.0
604.2	361.6
604.4	360.1
604.6	360.9
604.8	361.4
605.0	361.4
605.2	360.5
605.4	360.1
605.6	358.3
605.8	358.6
606.0	359.7
606.2	360.8
606.4	361.6
606.6	363.0
606.8	364.1
607.0	363.8
607.2	363.8
607.4	363.1
607.6	362.2
607.8	361.4
608.0	360.0
608.2	359.0
608.4	358.8
608.6	361.5
608.8	361.9
609.0	362.8
609.2	361.8
609.4	361.8
609.6	360.6
609.8	361.2
610.0	361.5
610.2	360.4
610.4	360.6
610.6	361.4
610.8	361.5
611.0	360.7
611.2	361.2
611.4	360.3
611.6	362.3
611.8	363.0
612.0	362.2
612.2	359.8
612.4	358.9
612.6	358.1
612.8	358.7
613.0	359.5
613.2	360.5
613.4	360.3
613.6	361.2
613.8	359.2
614.0	357.1
614.2	357.2
614.4	358.2
614.6	359.2
614.8	360.2
615.0	358.2
615.2	356.6
615.4	356.8
615.6	355.8
615.8	355.3
616.0	355.8
616.2	355.0
616.4	355.4
616.6	356.1
616.8	355.3
617.0	354.9
617.2	356.1
617.4	355.1
617.6	354.4
617.8	354.0
618.0	351.9
618.2	351.8
618.4	351.8
618.6	350.4
618.8	352.0
619.0	351.6
619.2	351.1
619.4	351.9
619.6	352.9
619.8	352.9
620.0	353.8
620.2	350.9
620.4	348.7
620.6	347.8
620.8	349.7
621.0	350.2
621.2	350.3
621.4	350.8
621.6	350.0
621.8	348.5
622.0	346.6
622.2	346.1
622.4	345.7
622.6	347.0
622.8	348.1
623.0	345.7
623.2	343.2
623.4	343.2
623.6	341.8
623.8	341.0
624.0	341.4
624.2	338.3
624.4	338.3
624.6	339.0
624.8	339.2
625.0	339.4
625.2	340.3
625.4	337.3
625.6	336.6
625.8	336.0
626.0	335.0
626.2	335.2
626.4	334.6
626.6	333.1
626.8	333.0
627.0	333.8
627.2	332.7
627.4	331.5
627.6	330.0
627.8	329.5
628.0	329.0
628.2	329.9
628.4	328.8
628.6	326.2
628.8	325.2
629.0	324.6
629.2	322.9
629.4	322.8
629.6	324.4
629.8	324.4
630.0	325.0
630.2	324.7
630.4	322.5
630.6	320.2
630.8	319.9
631.0	320.4
631.2	320.4
631.4	320.4
631.6	320.0
631.8	319.2
632.0	317.8
632.2	317.1
632.4	313.9
632.6	312.3
632.8	311.3
633.0	311.8
633.2	312.5
633.4	311.5
633.6	308.9
633.8	308.4
634.0	307.7
634.2	307.3
634.4	306.5
634.6	305.0
634.8	303.1
635.0	302.7
635.2	303.4
635.4	305.1
635.6	304.1
635.8	303.0
636.0	300.4
636.2	297.6
636.4	298.6
636.6	299.2
636.8	298.1
637.0	296.9
637.2	294.1
637.4	292.5
637.6	292.2
637.8	290.2
638.0	289.7
638.2	290.5
638.4	289.6
638.6	288.2
638.8	285.6
639.0	284.4
639.2	285.1
639.4	286.5
639.6	287.7
639.8	287.1
640.0	283.9
640.2	281.1
640.4	279.0
640.6	278.0
640.8	279.5
641.0	280.6
641.2	279.5
641.4	277.3
641.6	275.5
641.8	275.0
642.0	274.7
642.2	273.5
642.4	272.8
642.6	270.5
642.8	270.1
643.0	269.9
643.2	269.2
643.4	266.2
643.6	266.0
643.8	264.0
644.0	263.5
644.2	264.3
644.4	264.3
644.6	261.8
644.8	262.7
645.0	261.9
645.2	260.0
645.4	258.8
645.6	257.5
645.8	256.4
646.0	256.5
646.2	256.1
646.4	254.1
646.6	252.1
646.8	251.0
647.0	250.7
647.2	250.4
647.4	250.0
647.6	248.3
647.8	245.3
648.0	243.3
648.2	242.0
648.4	242.3
648.6	243.3
648.8	243.5
649.0	242.4
649.2	241.7
649.4	240.8
649.6	239.6
649.8	237.6
650.0	236.1
650.2	235.9
650.4	235.8
650.6	235.8
650.8	234.0
651.0	232.1
651.2	230.2
651.4	230.2
651.6	229.1
651.8	229.0
652.0	227.6
652.2	225.9
652.4	225.4
652.6	224.5
652.8	223.0
653.0	222.2
653.2	222.9
653.4	222.6
653.6	221.1
653.8	218.9
654.0	217.0
654.2	216.1
654.4	216.3
654.6	215.8
654.8	214.7
655.0	213.1
655.2	211.4
655.4	211.8
655.6	209.4
655.8	207.7
656.0	207.0
656.2	205.1
656.4	204.2
656.6	205.1
656.8	204.4
657.0	202.4
657.2	200.7
657.4	199.1
657.6	198.3
657.8	199.3
658.0	200.2
658.2	199.3
658.4	197.9
658.6	196.1
658.8	195.1
659.0	195.5
659.2	195.0
659.4	194.8
659.6	193.5
659.8	192.4
660.0	191.7
660.2	189.7
660.4	187.7
660.6	187.7
660.8	185.6
661.0	184.3
661.2	182.4
661.4	181.7
661.6	183.1
661.8	184.0
662.0	182.8
662.2	181.8
662.4	179.8
662.6	177.4
662.8	175.7
663.0	174.1
663.2	173.9
663.4	175.2
663.6	177.0
663.8	176.7
664.0	175.0
664.2	173.6
664.4	170.7
664.6	169.0
664.8	168.6
665.0	169.2
665.2	169.0
665.4	169.2
665.6	167.6
665.8	165.1
666.0	163.3
666.2	162.3
666.4	161.5
666.6	162.1
666.8	161.0
667.0	159.9
667.2	159.6
667.4	159.6
667.6	158.8
667.8	158.5
668.0	155.8
668.2	154.1
668.4	152.9
668.6	152.9
668.8	152.0
669.0	151.9
669.2	151.9
669.4	151.2
669.6	151.5
669.8	151.7
670.0	149.5
670.2	148.1
670.4	147.0
670.6	145.3
670.8	145.6
671.0	144.5
671.2	142.4
671.4	140.7
671.6	140.3
671.8	141.3
672.0	142.1
672.2	141.3
672.4	140.4
672.6	138.6
672.8	138.6
673.0	138.6
673.2	138.0
673.4	136.9
673.6	136.1
673.8	135.4
674.0	135.0
674.2	133.6
674.4	133.4
674.6	132.8
674.8	131.9
675.0	130.1
675.2	129.0
675.4	127.7
675.6	128.1
675.8	127.5
676.0	126.3
676.2	126.3
676.4	126.8
676.6	127.2
676.8	127.1
677.0	125.5
677.2	123.3
677.4	123.2
677.6	121.9
677.8	121.4
678.0	119.7
678.2	118.2
678.4	118.1
678.6	118.5
678.8	117.7
679.0	118.0
679.2	117.0
679.4	115.8
679.6	115.6
679.8	114.8
680.0	113.8
680.2	112.7
680.4	111.6
680.6	110.5
680.8	109.8
681.0	110.1
681.2	110.8
681.4	111.2
681.6	110.5
681.8	108.9
682.0	107.6
682.2	106.7
682.4	105.8
682.6	107.0
682.8	107.0
683.0	106.0
683.2	104.0
683.4	102.8
683.6	101.8
683.8	102.1
684.0	101.4
684.2	100.6
684.4	99.92
684.6	99.34
684.8	98.81
685.0	98.36
685.2	97.11
685.4	96.01
685.6	95.66
685.8	95.67
686.0	95.52
686.2	95.41
686.4	94.47
686.6	92.89
686.8	92.80
687.0	93.04
687.2	92.82
687.4	92.94
687.6	92.04
687.8	90.86
688.0	90.62
688.2	89.18
688.4	89.02
688.6	89.52
688.8	88.81
689.0	87.90
689.2	87.89
689.4	87.23
689.6	86.43
689.8	86.13
690.0	85.80
690.2	85.89
690.4	86.54
690.6	86.70
690.8	85.46
691.0	84.57
691.2	83.58
691.4	83.59
691.6	83.05
691.8	82.45
692.0	81.83
692.2	82.24
692.4	81.39
692.6	81.11
692.8	80.81
693.0	79.69
693.2	79.60
693.4	79.91
693.6	78.58
693.8	76.96
694.0	76.21
694.2	74.91
694.4	75.29
694.6	75.99
694.8	76.32
695.0	75.80
695.2	75.28
695.4	74.08
695.6	73.32
695.8	72.65
696.0	72.20
696.2	71.82
696.4	72.16
696.6	71.68
696.8	71.94
697.0	72.19
697.2	71.93
697.4	71.68
697.6	70.69
697.8	68.88
698.0	68.46
698.2	68.49
698.4	68.52
698.6	68.87
698.8	69.09
699.0	68.80
699.2	68.83
699.4	68.11
699.6	67.39
699.8	66.80
700.0	66.27
700.2	66.11
700.4	65.77
700.6	64.75
700.8	64.58
701.0	64.60
701.2	63.79
701.4	63.99
701.6	63.77
701.8	63.22
702.0	63.79
702.2	64.15
702.4	63.21
702.6	62.96
702.8	62.58
703.0	62.15
703.2	61.99
703.4	61.85
703.6	60.65
703.8	59.95
704.0	58.63
704.2	58.61
704.4	58.28
704.6	58.92
704.8	59.04
705.0	58.77
705.2	57.66
705.4	57.13
705.6	56.75
705.8	56.73
706.0	57.14
706.2	56.80
706.4	56.94
706.6	56.20
706.8	55.81
707.0	55.39
707.2	55.60
707.4	55.23
707.6	55.28
707.8	54.81
708.0	54.66
708.2	54.25
708.4	54.04
708.6	53.63
708.8	52.70
709.0	52.59
709.2	51.78
709.4	50.93
709.6	50.90
709.8	50.87
710.0	50.94
710.2	51.48
710.4	50.89
710.6	50.49
710.8	50.01
711.0	49.49
711.2	49.59
711.4	49.09
711.6	48.46
711.8	48.39
712.0	48.00
712.2	47.87
712.4	48.58
712.6	48.32
712.8	47.57
713.0	47.14
713.2	46.28
713.4	45.75
713.6	45.85
713.8	45.59
714.0	45.01
714.2	44.56
714.4	44.68
714.6	44.81
714.8	44.73
715.0	44.35
715.2	43.59
715.4	43.33
715.6	43.27
715.8	43.42
716.0	43.13
716.2	42.59
716.4	42.05
716.6	42.70
716.8	43.02
717.0	42.85
717.2	41.82
717.4	40.87
717.6	40.51
717.8	41.47
718.0	41.65
718.2	40.85
718.4	40.01
718.6	39.67
718.8	39.85
719.0	39.84
719.2	39.86
719.4	39.16
719.6	38.96
719.8	38.85
720.0	38.31
720.2	37.96
720.4	37.83
720.6	37.39
720.8	37.25
721.0	36.91
721.2	36.72
721.4	37.07
721.6	37.22
721.8	36.78
722.0	36.35
722.2	36.20
722.4	35.82
722.6	35.25
722.8	34.86
723.0	34.21
723.2	33.76
723.4	34.00
723.6	34.03
723.8	34.37
724.0	33.99
724.2	34.14
724.4	33.16
724.6	32.53
724.8	32.13
725.0	32.34
725.2	31.80
725.4	31.65
725.6	30.89
725.8	30.70
726.0	30.08
726.2	30.22
726.4	30.50
726.6	30.63
726.8	30.78
727.0	31.08
727.2	30.20
727.4	30.48
727.6	30.11
727.8	29.46
728.0	28.73
728.2	27.83
728.4	27.32
728.6	28.21
728.8	28.21
729.0	28.23
729.2	28.08
729.4	27.93
729.6	27.90
729.8	27.85
730.0	27.20
730.2	26.72
730.4	26.64
730.6	26.78
730.8	26.75
731.0	26.83
731.2	26.50
731.4	26.22
731.6	26.27
731.8	25.82
732.0	25.94
732.2	25.76
732.4	25.26
732.6	24.85
732.8	24.54
733.0	24.23
733.2	24.46
733.4	24.36
733.6	24.44
733.8	24.82
734.0	24.88
734.2	24.94
734.4	24.68
734.6	23.79
734.8	22.92
735.0	22.70
735.2	22.51
735.4	22.36
735.6	22.41
735.8	21.89
736.0	21.35
736.2	20.99
736.4	21.36
736.6	21.84
736.8	22.14
737.0	22.08
737.2	21.64
737.4	20.54
737.6	20.40
737.8	20.30
738.0	20.20
738.2	20.83
738.4	21.18
738.6	20.77
738.8	20.51
739.0	19.88
739.2	19.55
739.4	19.93
739.6	20.09
739.8	19.89
740.0	19.66
740.2	19.18
740.4	18.55
740.6	18.10
740.8	18.45
741.0	18.81
741.2	18.86
741.4	18.72
741.6	18.07
741.8	17.73
742.0	17.67
742.2	17.91
742.4	17.82
742.6	17.71
742.8	17.45
743.0	17.42
743.2	17.02
743.4	17.04
743.6	17.20
743.8	17.32
744.0	17.43
744.2	17.25
744.4	16.72
744.6	16.35
744.8	16.20
745.0	16.50
745.2	16.81
745.4	16.63
745.6	16.04
745.8	15.64
746.0	15.47
746.2	15.35
746.4	15.54
746.6	15.61
746.8	15.28
747.0	15.32
747.2	15.48
747.4	14.88
747.6	14.88
747.8	15.01
748.0	14.66
748.2	14.57
748.4	14.42
748.6	13.98
748.8	13.94
749.0	14.30
749.2	14.61
749.4	14.71
749.6	14.81
749.8	14.56
750.0	14.34
750.2	14.14
750.4	13.89
750.6	13.68
750.8	13.36
751.0	12.84
751.2	12.60
751.4	12.57
751.6	12.82
751.8	13.11
752.0	12.94
752.2	12.83
752.4	12.69
752.6	13.12
752.8	13.39
753.0	13.42
753.2	12.90
753.4	12.53
753.6	11.99
753.8	11.91
754.0	12.01
754.2	12.27
754.4	12.30
754.6	12.52
754.8	12.03
755.0	11.67
755.2	11.38
755.4	11.31
755.6	11.56
755.8	11.59
756.0	11.51
756.2	11.37
756.4	11.11
756.6	11.25
756.8	11.52
757.0	11.32
757.2	11.28
757.4	11.02
757.6	10.76
757.8	10.69
758.0	10.60
758.2	10.71
758.4	10.49
758.6	10.43
758.8	10.30
759.0	10.38
759.2	10.08
759.4	10.24
759.6	10.23
759.8	10.31
760.0	10.60
760.2	10.40
760.4	9.991
760.6	9.664
760.8	9.549
761.0	9.871
761.2	10.01
761.4	10.04
761.6	9.781
761.8	9.448
762.0	9.198
762.2	9.255
762.4	9.274
762.6	9.672
762.8	9.657
763.0	9.638
763.2	9.392
763.4	9.030
763.6	9.002
763.8	9.023
764.0	9.212
764.2	9.033
764.4	8.776
764.6	8.451
764.8	8.302
765.0	8.193
765.2	8.060
765.4	7.933
765.6	7.916
765.8	7.832
766.0	8.213
766.2	8.339
766.4	8.094
766.6	8.101
766.8	7.925
767.0	7.733
767.2	7.891
767.4	8.035
767.6	7.696
767.8	7.627
768.0	7.506
768.2	7.477
768.4	7.791
768.6	7.970
768.8	7.971
769.0	7.979
769.2	7.595
769.4	7.360
769.6	7.308
769.8	6.949
770.0	7.166
770.2	7.389
770.4	7.196
770.6	7.108
770.8	6.994
771.0	6.838
771.2	6.902
771.4	6.932
771.6	6.834
771.8	6.795
772.0	6.677
772.2	6.549
772.4	6.470
772.6	6.417
772.8	6.459
773.0	6.622
773.2	6.593
773.4	6.476
773.6	6.326
773.8	6.224
774.0	6.284
774.2	6.407
774.4	6.527
774.6	6.466
774.8	6.109
775.0	5.754
775.2	5.650
775.4	5.725
775.6	5.986
775.8	5.924
776.0	5.665
776.2	5.808
776.4	5.741
776.6	6.096
776.8	6.493
777.0	6.332
777.2	6.126
777.4	6.147
777.6	5.719
777.8	5.721
778.0	5.808
778.2	5.719
778.4	5.813
778.6	6.044
778.8	5.741
779.0	5.785
779.2	5.857
779.4	5.699
779.6	5.407
779.8	5.336
780.0	5.002
780.2	5.125
780.4	5.479
780.6	5.444
780.8	5.326
781.0	5.293
781.2	5.291
781.4	5.309
781.6	5.335
781.8	5.116
782.0	5.254
782.2	5.153
782.4	5.133
782.6	5.203
782.8	5.280
783.0	5.103
783.2	5.079
783.4	4.882
783.6	4.745
783.8	4.645
784.0	4.816
784.2	4.865
784.4	4.858
784.6	4.837
784.8	4.978
785.0	4.935
785.2	4.878
785.4	4.871
785.6	4.870
785.8	4.721
786.0	4.866
786.2	4.716
786.4	4.512
786.6	4.464
786.8	4.553
787.0	4.597
787.2	4.792
787.4	4.857
787.6	4.894
787.8	4.928
788.0	4.770
788.2	4.608
788.4	4.555
788.6	4.563
788.8	4.437
789.0	4.465
789.2	4.474
789.4	4.541
789.6	4.565
789.8	4.477
790.0	4.362
790.2	4.217
790.4	4.218
790.6	4.263
790.8	4.161
791.0	3.883
791.2	3.807
791.4	3.767
791.6	4.028
791.8	4.176
792.0	4.303
792.2	4.246
792.4	4.118
792.6	4.147
792.8	4.358
793.0	4.359
793.2	4.321
793.4	4.226
793.6	3.960
793.8	3.820
794.0	3.921
794.2	3.903
794.4	3.833
794.6	3.932
794.8	3.935
795.0	3.915
795.2	4.142
795.4	4.010
795.6	3.876
795.8	4.043
796.0	3.987
796.2	3.925
796.4	4.097
796.6	3.991
796.8	3.882
797.0	3.871
797.2	3.921
797.4	3.924
797.6	3.838
797.8	3.863
798.0	3.893
798.2	3.948
798.4	3.974
798.6	3.926
798.8	3.623
799.0	3.672
799.2	3.862
799.4	4.070
799.6	4.031
799.8	3.833
800.0	3.686
800.2	3.544
800.4	3.611
800.6	3.697
800.8	3.797
801.0	3.648
801.2	3.613
801.4	3.475
801.6	3.611
801.8	3.640
802.0	3.703
802.2	3.574
802.4	3.573
802.6	3.593
802.8	3.510
803.0	3.414
803.2	3.461
803.4	3.367
803.6	3.461
803.8	3.575
804.0	3.424
804.2	3.346
804.4	3.500
804.6	3.435
804.8	3.553
805.0	3.724
805.2	3.753
805.4	3.649
805.6	3.439
805.8	3.211
806.0	3.212
806.2	3.246
806.4	3.292
806.6	3.260
806.8	3.218
807.0	3.371
807.2	3.547
807.4	3.479
807.6	3.273
807.8	2.906
808.0	2.825
808.2	2.861
808.4	3.149
808.6	3.356
808.8	3.522
809.0	3.510
809.2	3.469
809.4	3.327
809.6	3.280
809.8	3.130
810.0	2.785

