Sample:	'20211010A(EM)
File name:	R-CDs 15.FDS
Run date:	'11:41:55, 06/11/2023
Operator:	Administrator
Comment:	'

Instrument
Model:	F-4700 FL Spectrophotometer
Serial number:	2019-001
ROM Version:	5J24010 00

Instrument parameters
Measurement type:	Wavelength scan
Scan mode:	Emission
Data mode:	Fluorescence
EX WL:	520.0 nm
EM  Start WL:	540.0 nm
EM  End WL:	810.0 nm
Scan speed:	1200 nm/min
Delay:	0.0 s
EX Slit:	10.0 nm
EM Slit:	10.0 nm
PMT Voltage:	540 V
Response:	0.002 s
Corrected spectra:	Off
Shutter control:	On

Processing performed
Savitsky-Golay smoothed
Smoothing order:	3
Number of points:	7
Number of times:	1

Peak integration
Integration method:	Rectangular
Sensitivity:	1
Threshold:	1.000

Peaks
No.	Start(nm)	Apex(nm)	End(nm)	Height(Data)	Valley(nm)	Valley(Data)
1	540.0	599.8	601.0	8602	601.0	8582
2	601.0	601.6	784.6	8605	784.6	52.81
3	784.6	785.6	788.6	54.18	788.6	48.12
4	788.6	790.0	790.8	49.50	790.8	46.11
5	790.8	791.8	793.6	48.32	793.6	43.16
6	793.6	794.6	800.8	44.46	800.8	37.46
7	800.8	801.6	805.8	39.65	805.8	34.05
8	805.8	806.6	810.0	35.70	810.0	30.48

Data points
nm	Data
540.0	398.8
540.2	405.1
540.4	411.4
540.6	418.1
540.8	427.2
541.0	434.1
541.2	442.6
541.4	452.2
541.6	459.1
541.8	464.8
542.0	473.2
542.2	479.3
542.4	487.7
542.6	493.9
542.8	502.7
543.0	511.8
543.2	527.2
543.4	537.9
543.6	547.2
543.8	555.9
544.0	562.1
544.2	573.0
544.4	585.1
544.6	591.6
544.8	601.1
545.0	610.7
545.2	618.2
545.4	629.0
545.6	639.9
545.8	652.6
546.0	670.1
546.2	683.0
546.4	696.5
546.6	703.3
546.8	712.9
547.0	725.4
547.2	739.3
547.4	750.1
547.6	762.5
547.8	770.4
548.0	784.9
548.2	799.7
548.4	815.4
548.6	830.6
548.8	844.8
549.0	856.5
549.2	869.7
549.4	882.6
549.6	900.2
549.8	922.9
550.0	942.7
550.2	959.0
550.4	971.4
550.6	984.7
550.8	999.8
551.0	1021
551.2	1038
551.4	1059
551.6	1077
551.8	1094
552.0	1111
552.2	1130
552.4	1150
552.6	1175
552.8	1194
553.0	1211
553.2	1225
553.4	1246
553.6	1268
553.8	1292
554.0	1310
554.2	1328
554.4	1344
554.6	1369
554.8	1394
555.0	1423
555.2	1450
555.4	1470
555.6	1489
555.8	1509
556.0	1531
556.2	1555
556.4	1581
556.6	1603
556.8	1626
557.0	1651
557.2	1675
557.4	1710
557.6	1739
557.8	1771
558.0	1804
558.2	1832
558.4	1853
558.6	1883
558.8	1908
559.0	1943
559.2	1979
559.4	2008
559.6	2039
559.8	2069
560.0	2104
560.2	2140
560.4	2172
560.6	2201
560.8	2233
561.0	2265
561.2	2306
561.4	2343
561.6	2375
561.8	2411
562.0	2440
562.2	2476
562.4	2513
562.6	2547
562.8	2585
563.0	2625
563.2	2662
563.4	2705
563.6	2741
563.8	2773
564.0	2815
564.2	2856
564.4	2898
564.6	2948
564.8	2983
565.0	3025
565.2	3068
565.4	3111
565.6	3155
565.8	3206
566.0	3243
566.2	3291
566.4	3331
566.6	3376
566.8	3420
567.0	3471
567.2	3515
567.4	3560
567.6	3600
567.8	3644
568.0	3695
568.2	3743
568.4	3787
568.6	3832
568.8	3876
569.0	3914
569.2	3964
569.4	4009
569.6	4054
569.8	4113
570.0	4170
570.2	4214
570.4	4260
570.6	4310
570.8	4361
571.0	4425
571.2	4477
571.4	4520
571.6	4558
571.8	4598
572.0	4649
572.2	4695
572.4	4744
572.6	4800
572.8	4860
573.0	4924
573.2	4985
573.4	5029
573.6	5067
573.8	5110
574.0	5154
574.2	5207
574.4	5265
574.6	5325
574.8	5376
575.0	5426
575.2	5462
575.4	5508
575.6	5560
575.8	5617
576.0	5672
576.2	5725
576.4	5759
576.6	5807
576.8	5855
577.0	5912
577.2	5959
577.4	6014
577.6	6054
577.8	6105
578.0	6142
578.2	6188
578.4	6224
578.6	6275
578.8	6322
579.0	6375
579.2	6420
579.4	6470
579.6	6513
579.8	6548
580.0	6586
580.2	6630
580.4	6680
580.6	6735
580.8	6776
581.0	6807
581.2	6846
581.4	6890
581.6	6939
581.8	6989
582.0	7015
582.2	7035
582.4	7072
582.6	7115
582.8	7153
583.0	7199
583.2	7233
583.4	7257
583.6	7302
583.8	7342
584.0	7377
584.2	7415
584.4	7441
584.6	7466
584.8	7494
585.0	7524
585.2	7564
585.4	7593
585.6	7629
585.8	7655
586.0	7673
586.2	7703
586.4	7732
586.6	7755
586.8	7795
587.0	7831
587.2	7857
587.4	7883
587.6	7904
587.8	7912
588.0	7938
588.2	7979
588.4	8007
588.6	8031
588.8	8050
589.0	8054
589.2	8080
589.4	8105
589.6	8128
589.8	8143
590.0	8156
590.2	8177
590.4	8196
590.6	8209
590.8	8229
591.0	8255
591.2	8282
591.4	8314
591.6	8332
591.8	8342
592.0	8349
592.2	8352
592.4	8347
592.6	8359
592.8	8388
593.0	8404
593.2	8418
593.4	8416
593.6	8421
593.8	8437
594.0	8453
594.2	8459
594.4	8466
594.6	8475
594.8	8499
595.0	8518
595.2	8513
595.4	8527
595.6	8526
595.8	8535
596.0	8547
596.2	8556
596.4	8562
596.6	8574
596.8	8568
597.0	8561
597.2	8560
597.4	8559
597.6	8569
597.8	8584
598.0	8576
598.2	8565
598.4	8561
598.6	8566
598.8	8568
599.0	8586
599.2	8590
599.4	8589
599.6	8594
599.8	8602
600.0	8593
600.2	8586
600.4	8593
600.6	8588
600.8	8586
601.0	8582
601.2	8589
601.4	8593
601.6	8605
601.8	8597
602.0	8583
602.2	8572
602.4	8591
602.6	8587
602.8	8592
603.0	8589
603.2	8585
603.4	8582
603.6	8588
603.8	8570
604.0	8562
604.2	8560
604.4	8558
604.6	8555
604.8	8552
605.0	8543
605.2	8528
605.4	8528
605.6	8526
605.8	8517
606.0	8511
606.2	8513
606.4	8505
606.6	8497
606.8	8496
607.0	8479
607.2	8479
607.4	8482
607.6	8475
607.8	8457
608.0	8442
608.2	8429
608.4	8435
608.6	8444
608.8	8449
609.0	8446
609.2	8436
609.4	8416
609.6	8390
609.8	8381
610.0	8365
610.2	8357
610.4	8357
610.6	8346
610.8	8330
611.0	8320
611.2	8301
611.4	8287
611.6	8281
611.8	8280
612.0	8269
612.2	8257
612.4	8249
612.6	8251
612.8	8254
613.0	8246
613.2	8229
613.4	8219
613.6	8211
613.8	8201
614.0	8188
614.2	8174
614.4	8158
614.6	8150
614.8	8137
615.0	8122
615.2	8115
615.4	8110
615.6	8097
615.8	8081
616.0	8068
616.2	8066
616.4	8069
616.6	8043
616.8	8020
617.0	7991
617.2	7976
617.4	7973
617.6	7973
617.8	7953
618.0	7940
618.2	7913
618.4	7897
618.6	7881
618.8	7870
619.0	7856
619.2	7850
619.4	7828
619.6	7810
619.8	7799
620.0	7787
620.2	7772
620.4	7774
620.6	7759
620.8	7731
621.0	7707
621.2	7681
621.4	7669
621.6	7667
621.8	7666
622.0	7642
622.2	7620
622.4	7614
622.6	7609
622.8	7598
623.0	7573
623.2	7542
623.4	7514
623.6	7492
623.8	7479
624.0	7464
624.2	7438
624.4	7434
624.6	7418
624.8	7409
625.0	7407
625.2	7386
625.4	7351
625.6	7326
625.8	7298
626.0	7280
626.2	7270
626.4	7244
626.6	7219
626.8	7202
627.0	7190
627.2	7166
627.4	7152
627.6	7129
627.8	7115
628.0	7104
628.2	7087
628.4	7052
628.6	7028
628.8	7004
629.0	6986
629.2	6970
629.4	6952
629.6	6921
629.8	6900
630.0	6886
630.2	6864
630.4	6846
630.6	6831
630.8	6801
631.0	6773
631.2	6766
631.4	6738
631.6	6721
631.8	6709
632.0	6682
632.2	6652
632.4	6638
632.6	6607
632.8	6586
633.0	6572
633.2	6558
633.4	6533
633.6	6516
633.8	6488
634.0	6468
634.2	6447
634.4	6432
634.6	6403
634.8	6376
635.0	6354
635.2	6341
635.4	6324
635.6	6294
635.8	6263
636.0	6237
636.2	6218
636.4	6212
636.6	6200
636.8	6173
637.0	6140
637.2	6113
637.4	6081
637.6	6063
637.8	6035
638.0	6015
638.2	5983
638.4	5958
638.6	5932
638.8	5918
639.0	5894
639.2	5879
639.4	5852
639.6	5825
639.8	5787
640.0	5776
640.2	5750
640.4	5735
640.6	5707
640.8	5688
641.0	5655
641.2	5644
641.4	5623
641.6	5602
641.8	5574
642.0	5552
642.2	5524
642.4	5498
642.6	5475
642.8	5455
643.0	5436
643.2	5405
643.4	5380
643.6	5352
643.8	5325
644.0	5308
644.2	5284
644.4	5254
644.6	5232
644.8	5210
645.0	5191
645.2	5173
645.4	5155
645.6	5127
645.8	5093
646.0	5064
646.2	5038
646.4	5013
646.6	5001
646.8	4982
647.0	4961
647.2	4949
647.4	4924
647.6	4895
647.8	4866
648.0	4837
648.2	4809
648.4	4785
648.6	4763
648.8	4741
649.0	4719
649.2	4696
649.4	4666
649.6	4649
649.8	4629
650.0	4601
650.2	4575
650.4	4554
650.6	4533
650.8	4524
651.0	4506
651.2	4477
651.4	4452
651.6	4431
651.8	4404
652.0	4385
652.2	4361
652.4	4338
652.6	4319
652.8	4292
653.0	4261
653.2	4241
653.4	4217
653.6	4204
653.8	4186
654.0	4156
654.2	4134
654.4	4126
654.6	4107
654.8	4081
655.0	4052
655.2	4024
655.4	4003
655.6	3996
655.8	3972
656.0	3948
656.2	3919
656.4	3900
656.6	3881
656.8	3860
657.0	3837
657.2	3820
657.4	3801
657.6	3788
657.8	3768
658.0	3742
658.2	3718
658.4	3697
658.6	3683
658.8	3666
659.0	3644
659.2	3622
659.4	3596
659.6	3583
659.8	3560
660.0	3541
660.2	3524
660.4	3506
660.6	3487
660.8	3478
661.0	3455
661.2	3437
661.4	3415
661.6	3393
661.8	3369
662.0	3348
662.2	3327
662.4	3308
662.6	3297
662.8	3279
663.0	3259
663.2	3245
663.4	3223
663.6	3205
663.8	3195
664.0	3172
664.2	3158
664.4	3139
664.6	3114
664.8	3093
665.0	3074
665.2	3057
665.4	3049
665.6	3037
665.8	3024
666.0	3004
666.2	2987
666.4	2964
666.6	2939
666.8	2922
667.0	2901
667.2	2886
667.4	2882
667.6	2872
667.8	2859
668.0	2841
668.2	2815
668.4	2795
668.6	2780
668.8	2767
669.0	2751
669.2	2734
669.4	2714
669.6	2699
669.8	2686
670.0	2672
670.2	2657
670.4	2640
670.6	2618
670.8	2599
671.0	2583
671.2	2569
671.4	2557
671.6	2548
671.8	2529
672.0	2515
672.2	2501
672.4	2484
672.6	2473
672.8	2462
673.0	2450
673.2	2441
673.4	2425
673.6	2405
673.8	2387
674.0	2367
674.2	2352
674.4	2342
674.6	2327
674.8	2318
675.0	2304
675.2	2289
675.4	2274
675.6	2257
675.8	2242
676.0	2229
676.2	2213
676.4	2203
676.6	2193
676.8	2178
677.0	2167
677.2	2154
677.4	2140
677.6	2134
677.8	2123
678.0	2108
678.2	2091
678.4	2077
678.6	2066
678.8	2052
679.0	2034
679.2	2018
679.4	2008
679.6	2001
679.8	1992
680.0	1978
680.2	1964
680.4	1952
680.6	1945
680.8	1939
681.0	1931
681.2	1921
681.4	1910
681.6	1893
681.8	1872
682.0	1854
682.2	1843
682.4	1834
682.6	1820
682.8	1810
683.0	1798
683.2	1790
683.4	1782
683.6	1774
683.8	1759
684.0	1748
684.2	1736
684.4	1730
684.6	1715
684.8	1702
685.0	1687
685.2	1676
685.4	1668
685.6	1664
685.8	1656
686.0	1642
686.2	1627
686.4	1617
686.6	1609
686.8	1606
687.0	1603
687.2	1595
687.4	1583
687.6	1569
687.8	1559
688.0	1546
688.2	1538
688.4	1529
688.6	1519
688.8	1512
689.0	1506
689.2	1493
689.4	1487
689.6	1474
689.8	1463
690.0	1454
690.2	1445
690.4	1436
690.6	1428
690.8	1418
691.0	1413
691.2	1407
691.4	1405
691.6	1395
691.8	1385
692.0	1374
692.2	1365
692.4	1358
692.6	1351
692.8	1341
693.0	1332
693.2	1323
693.4	1317
693.6	1309
693.8	1301
694.0	1294
694.2	1287
694.4	1282
694.6	1277
694.8	1273
695.0	1264
695.2	1254
695.4	1246
695.6	1239
695.8	1233
696.0	1227
696.2	1218
696.4	1208
696.6	1200
696.8	1194
697.0	1190
697.2	1180
697.4	1177
697.6	1169
697.8	1161
698.0	1153
698.2	1146
698.4	1139
698.6	1138
698.8	1133
699.0	1127
699.2	1117
699.4	1112
699.6	1104
699.8	1096
700.0	1091
700.2	1084
700.4	1076
700.6	1070
700.8	1063
701.0	1057
701.2	1056
701.4	1051
701.6	1047
701.8	1038
702.0	1030
702.2	1025
702.4	1027
702.6	1027
702.8	1020
703.0	1009
703.2	997.3
703.4	989.9
703.6	988.5
703.8	985.7
704.0	975.7
704.2	969.7
704.4	960.6
704.6	956.3
704.8	954.2
705.0	949.6
705.2	943.8
705.4	939.0
705.6	932.0
705.8	925.2
706.0	916.0
706.2	910.1
706.4	906.7
706.6	902.9
706.8	904.3
707.0	899.7
707.2	890.1
707.4	884.8
707.6	875.3
707.8	868.5
708.0	867.5
708.2	864.3
708.4	859.3
708.6	853.7
708.8	842.4
709.0	832.7
709.2	826.9
709.4	825.2
709.6	821.2
709.8	816.2
710.0	813.4
710.2	808.3
710.4	803.7
710.6	802.4
710.8	797.9
711.0	789.6
711.2	787.2
711.4	780.8
711.6	775.7
711.8	773.8
712.0	769.4
712.2	760.6
712.4	755.9
712.6	748.5
712.8	742.9
713.0	738.7
713.2	732.5
713.4	727.4
713.6	723.5
713.8	719.4
714.0	716.8
714.2	711.9
714.4	709.7
714.6	705.9
714.8	697.8
715.0	693.0
715.2	687.5
715.4	680.9
715.6	678.1
715.8	675.4
716.0	670.7
716.2	667.6
716.4	662.9
716.6	657.1
716.8	650.5
717.0	646.8
717.2	645.0
717.4	640.6
717.6	638.6
717.8	632.9
718.0	627.5
718.2	623.5
718.4	616.9
718.6	607.5
718.8	602.5
719.0	599.1
719.2	596.6
719.4	597.6
719.6	591.1
719.8	584.0
720.0	580.3
720.2	577.2
720.4	570.5
720.6	566.3
720.8	560.2
721.0	554.8
721.2	553.7
721.4	551.7
721.6	549.7
721.8	545.9
722.0	542.5
722.2	535.8
722.4	529.8
722.6	524.4
722.8	521.6
723.0	518.9
723.2	518.7
723.4	512.6
723.6	508.2
723.8	505.9
724.0	503.9
724.2	501.4
724.4	498.3
724.6	489.5
724.8	482.9
725.0	479.1
725.2	475.4
725.4	474.9
725.6	474.8
725.8	472.3
726.0	468.0
726.2	463.6
726.4	456.7
726.6	452.5
726.8	447.3
727.0	444.6
727.2	443.7
727.4	443.5
727.6	440.1
727.8	434.1
728.0	427.4
728.2	423.2
728.4	421.7
728.6	419.8
728.8	416.2
729.0	413.4
729.2	409.4
729.4	405.7
729.6	403.5
729.8	400.7
730.0	397.8
730.2	396.0
730.4	390.7
730.6	388.8
730.8	387.9
731.0	386.4
731.2	383.5
731.4	381.4
731.6	376.4
731.8	371.3
732.0	367.7
732.2	364.5
732.4	363.4
732.6	361.7
732.8	358.5
733.0	351.7
733.2	349.4
733.4	346.8
733.6	345.9
733.8	343.8
734.0	342.4
734.2	339.6
734.4	337.8
734.6	333.7
734.8	329.7
735.0	325.8
735.2	322.4
735.4	321.4
735.6	319.5
735.8	318.3
736.0	316.5
736.2	312.6
736.4	310.3
736.6	306.9
736.8	303.7
737.0	303.0
737.2	302.1
737.4	299.9
737.6	298.3
737.8	294.2
738.0	291.1
738.2	289.6
738.4	287.5
738.6	284.7
738.8	282.7
739.0	280.7
739.2	278.2
739.4	277.5
739.6	276.1
739.8	273.8
740.0	272.3
740.2	268.8
740.4	265.2
740.6	263.6
740.8	261.0
741.0	258.2
741.2	257.3
741.4	255.5
741.6	253.5
741.8	253.3
742.0	250.7
742.2	249.1
742.4	247.4
742.6	244.8
742.8	240.3
743.0	237.5
743.2	236.6
743.4	235.9
743.6	235.0
743.8	233.7
744.0	230.5
744.2	228.0
744.4	228.2
744.6	227.8
744.8	226.2
745.0	223.9
745.2	221.6
745.4	219.7
745.6	218.5
745.8	218.4
746.0	214.6
746.2	210.4
746.4	208.0
746.6	206.0
746.8	204.8
747.0	205.6
747.2	204.4
747.4	203.6
747.6	203.1
747.8	202.6
748.0	200.1
748.2	199.7
748.4	196.9
748.6	194.7
748.8	192.5
749.0	191.5
749.2	189.6
749.4	188.9
749.6	186.4
749.8	184.0
750.0	182.0
750.2	180.7
750.4	180.0
750.6	179.4
750.8	178.1
751.0	177.8
751.2	176.9
751.4	176.1
751.6	175.5
751.8	173.3
752.0	170.8
752.2	169.5
752.4	167.4
752.6	165.2
752.8	164.9
753.0	163.5
753.2	163.0
753.4	163.1
753.6	162.7
753.8	160.8
754.0	160.6
754.2	158.3
754.4	156.6
754.6	155.1
754.8	153.9
755.0	152.5
755.2	152.0
755.4	150.7
755.6	150.1
755.8	148.5
756.0	147.4
756.2	145.7
756.4	145.5
756.6	144.8
756.8	144.3
757.0	142.0
757.2	140.7
757.4	139.1
757.6	138.8
757.8	138.4
758.0	138.2
758.2	136.5
758.4	136.3
758.6	135.2
758.8	134.5
759.0	133.5
759.2	133.0
759.4	131.6
759.6	129.5
759.8	127.2
760.0	125.1
760.2	124.6
760.4	124.5
760.6	124.4
760.8	123.3
761.0	122.7
761.2	122.0
761.4	122.3
761.6	120.3
761.8	118.5
762.0	116.6
762.2	116.1
762.4	115.7
762.6	114.5
762.8	113.2
763.0	112.0
763.2	111.9
763.4	112.5
763.6	111.7
763.8	110.1
764.0	109.2
764.2	106.7
764.4	105.9
764.6	105.6
764.8	105.7
765.0	105.7
765.2	106.0
765.4	104.6
765.6	103.0
765.8	101.3
766.0	100.8
766.2	99.42
766.4	98.96
766.6	98.46
766.8	97.76
767.0	95.89
767.2	95.64
767.4	95.29
767.6	95.39
767.8	95.02
768.0	95.55
768.2	94.97
768.4	93.78
768.6	93.35
768.8	92.00
769.0	89.57
769.2	90.04
769.4	89.42
769.6	88.38
769.8	88.14
770.0	87.16
770.2	86.19
770.4	86.70
770.6	85.34
770.8	85.14
771.0	84.69
771.2	83.88
771.4	83.54
771.6	83.27
771.8	81.26
772.0	80.76
772.2	80.01
772.4	78.45
772.6	77.78
772.8	77.67
773.0	77.03
773.2	77.09
773.4	77.16
773.6	76.67
773.8	76.41
774.0	76.58
774.2	75.15
774.4	72.94
774.6	72.28
774.8	72.33
775.0	71.89
775.2	72.03
775.4	70.84
775.6	70.67
775.8	70.58
776.0	69.74
776.2	69.12
776.4	68.96
776.6	68.33
776.8	69.88
777.0	70.13
777.2	68.61
777.4	67.61
777.6	66.85
777.8	65.52
778.0	65.31
778.2	65.92
778.4	65.08
778.6	64.71
778.8	64.65
779.0	64.47
779.2	63.06
779.4	62.86
779.6	62.15
779.8	62.11
780.0	62.28
780.2	62.59
780.4	61.86
780.6	60.95
780.8	60.67
781.0	61.14
781.2	61.46
781.4	61.15
781.6	60.50
781.8	58.88
782.0	58.32
782.2	58.41
782.4	58.02
782.6	56.67
782.8	56.62
783.0	55.61
783.2	55.81
783.4	56.17
783.6	56.31
783.8	55.28
784.0	55.56
784.2	54.18
784.4	53.14
784.6	52.81
784.8	52.81
785.0	53.21
785.2	53.48
785.4	54.05
785.6	54.18
785.8	53.85
786.0	53.41
786.2	53.66
786.4	52.22
786.6	52.24
786.8	51.85
787.0	50.73
787.2	51.27
787.4	50.90
787.6	50.37
787.8	50.41
788.0	50.02
788.2	49.02
788.4	49.47
788.6	48.12
788.8	48.46
789.0	48.96
789.2	48.91
789.4	48.64
789.6	49.30
789.8	49.46
790.0	49.50
790.2	49.12
790.4	47.97
790.6	46.69
790.8	46.11
791.0	46.57
791.2	46.93
791.4	47.88
791.6	48.29
791.8	48.32
792.0	47.61
792.2	47.64
792.4	47.65
792.6	47.35
792.8	46.12
793.0	45.21
793.2	44.00
793.4	43.67
793.6	43.16
793.8	43.64
794.0	43.36
794.2	44.04
794.4	44.22
794.6	44.46
794.8	44.14
795.0	44.36
795.2	43.18
795.4	43.35
795.6	43.48
795.8	43.65
796.0	43.58
796.2	43.25
796.4	42.03
796.6	41.83
796.8	41.41
797.0	40.55
797.2	39.95
797.4	39.94
797.6	40.49
797.8	40.72
798.0	40.56
798.2	40.20
798.4	39.64
798.6	39.22
798.8	39.59
799.0	39.34
799.2	39.33
799.4	39.35
799.6	39.45
799.8	39.65
800.0	39.76
800.2	39.08
800.4	38.68
800.6	37.60
800.8	37.46
801.0	37.68
801.2	38.20
801.4	38.89
801.6	39.65
801.8	39.37
802.0	38.76
802.2	37.44
802.4	36.52
802.6	35.48
802.8	35.21
803.0	35.36
803.2	35.31
803.4	35.65
803.6	36.05
803.8	35.91
804.0	35.89
804.2	35.40
804.4	34.54
804.6	34.50
804.8	34.68
805.0	35.37
805.2	34.99
805.4	34.57
805.6	34.06
805.8	34.05
806.0	34.31
806.2	34.73
806.4	35.26
806.6	35.70
806.8	35.60
807.0	35.48
807.2	35.01
807.4	34.15
807.6	34.23
807.8	33.76
808.0	33.13
808.2	33.43
808.4	33.34
808.6	32.45
808.8	32.36
809.0	32.06
809.2	32.13
809.4	33.42
809.6	33.88
809.8	33.11
810.0	30.48

