Sample:	'20211010A(EM)
File name:	G-c-NI-dots 600S2- 400V.FDS
Run date:	'17:04:17, 03/22/2023
Operator:	Administrator
Comment:	'

Instrument
Model:	F-4700 FL Spectrophotometer
Serial number:	2019-001
ROM Version:	5J24010 00

Instrument parameters
Measurement type:	Wavelength scan
Scan mode:	Emission
Data mode:	Fluorescence
EX WL:	400.0 nm
EM  Start WL:	420.0 nm
EM  End WL:	850.0 nm
Scan speed:	1200 nm/min
Delay:	0.0 s
EX Slit:	10.0 nm
EM Slit:	10.0 nm
PMT Voltage:	400 V
Response:	0.002 s
Corrected spectra:	Off
Shutter control:	On

Processing performed
Savitsky-Golay smoothed
Smoothing order:	3
Number of points:	7
Number of times:	1

Peak integration
Integration method:	Rectangular
Sensitivity:	1
Threshold:	1.000

Peaks
No.	Start(nm)	Apex(nm)	End(nm)	Height(Data)	Valley(nm)	Valley(Data)
1	420.0	544.0	544.6	2671	544.6	2667
2	544.6	546.2	777.6	2674	777.6	3.073
3	777.6	800.4	850.0	11.24	850.0	0.767

Data points
nm	Data
420.0	1.381
420.2	1.423
420.4	1.451
420.6	1.469
420.8	1.481
421.0	1.468
421.2	1.495
421.4	1.474
421.6	1.461
421.8	1.479
422.0	1.473
422.2	1.460
422.4	1.440
422.6	1.404
422.8	1.396
423.0	1.410
423.2	1.435
423.4	1.472
423.6	1.461
423.8	1.475
424.0	1.465
424.2	1.468
424.4	1.488
424.6	1.534
424.8	1.564
425.0	1.569
425.2	1.547
425.4	1.584
425.6	1.566
425.8	1.569
426.0	1.553
426.2	1.533
426.4	1.551
426.6	1.619
426.8	1.569
427.0	1.560
427.2	1.563
427.4	1.549
427.6	1.527
427.8	1.524
428.0	1.474
428.2	1.504
428.4	1.577
428.6	1.582
428.8	1.543
429.0	1.532
429.2	1.495
429.4	1.483
429.6	1.515
429.8	1.553
430.0	1.613
430.2	1.667
430.4	1.675
430.6	1.629
430.8	1.596
431.0	1.544
431.2	1.540
431.4	1.594
431.6	1.638
431.8	1.638
432.0	1.656
432.2	1.628
432.4	1.645
432.6	1.671
432.8	1.663
433.0	1.691
433.2	1.721
433.4	1.745
433.6	1.764
433.8	1.766
434.0	1.726
434.2	1.746
434.4	1.758
434.6	1.771
434.8	1.772
435.0	1.787
435.2	1.800
435.4	1.825
435.6	1.880
435.8	1.875
436.0	1.869
436.2	1.863
436.4	1.917
436.6	1.953
436.8	2.007
437.0	1.984
437.2	1.996
437.4	1.961
437.6	1.946
437.8	1.985
438.0	2.017
438.2	2.055
438.4	2.155
438.6	2.222
438.8	2.231
439.0	2.242
439.2	2.226
439.4	2.212
439.6	2.271
439.8	2.291
440.0	2.252
440.2	2.232
440.4	2.314
440.6	2.419
440.8	2.518
441.0	2.559
441.2	2.573
441.4	2.550
441.6	2.559
441.8	2.567
442.0	2.551
442.2	2.592
442.4	2.705
442.6	2.776
442.8	2.817
443.0	2.879
443.2	2.878
443.4	2.877
443.6	2.954
443.8	3.016
444.0	3.004
444.2	3.107
444.4	3.203
444.6	3.271
444.8	3.316
445.0	3.261
445.2	3.185
445.4	3.229
445.6	3.355
445.8	3.470
446.0	3.514
446.2	3.532
446.4	3.577
446.6	3.675
446.8	3.743
447.0	3.814
447.2	3.839
447.4	3.917
447.6	3.987
447.8	4.050
448.0	4.091
448.2	4.164
448.4	4.172
448.6	4.221
448.8	4.241
449.0	4.268
449.2	4.345
449.4	4.448
449.6	4.540
449.8	4.714
450.0	4.798
450.2	4.830
450.4	4.853
450.6	4.881
450.8	4.888
451.0	4.994
451.2	5.036
451.4	5.060
451.6	5.183
451.8	5.262
452.0	5.256
452.2	5.402
452.4	5.514
452.6	5.596
452.8	5.774
453.0	5.824
453.2	5.862
453.4	5.961
453.6	6.026
453.8	6.119
454.0	6.295
454.2	6.338
454.4	6.432
454.6	6.502
454.8	6.559
455.0	6.650
455.2	6.712
455.4	6.793
455.6	6.899
455.8	7.100
456.0	7.231
456.2	7.244
456.4	7.251
456.6	7.298
456.8	7.415
457.0	7.550
457.2	7.724
457.4	7.712
457.6	7.798
457.8	7.883
458.0	8.118
458.2	8.292
458.4	8.460
458.6	8.449
458.8	8.472
459.0	8.552
459.2	8.658
459.4	8.779
459.6	8.898
459.8	9.017
460.0	9.110
460.2	9.202
460.4	9.276
460.6	9.366
460.8	9.634
461.0	9.870
461.2	10.07
461.4	10.25
461.6	10.36
461.8	10.42
462.0	10.55
462.2	10.65
462.4	10.85
462.6	11.01
462.8	11.24
463.0	11.46
463.2	11.72
463.4	11.93
463.6	12.19
463.8	12.31
464.0	12.53
464.2	12.64
464.4	12.79
464.6	13.05
464.8	13.38
465.0	13.76
465.2	14.04
465.4	14.20
465.6	14.31
465.8	14.48
466.0	14.65
466.2	14.94
466.4	15.27
466.6	15.57
466.8	15.93
467.0	16.30
467.2	16.60
467.4	16.79
467.6	16.99
467.8	17.21
468.0	17.57
468.2	18.09
468.4	18.52
468.6	18.83
468.8	19.13
469.0	19.61
469.2	20.06
469.4	20.57
469.6	21.15
469.8	21.51
470.0	21.89
470.2	22.23
470.4	22.47
470.6	22.95
470.8	23.56
471.0	24.17
471.2	24.77
471.4	25.31
471.6	25.83
471.8	26.35
472.0	27.08
472.2	27.76
472.4	28.50
472.6	29.05
472.8	29.83
473.0	30.42
473.2	31.38
473.4	31.94
473.6	32.46
473.8	33.00
474.0	33.78
474.2	34.57
474.4	35.41
474.6	36.15
474.8	37.04
475.0	38.09
475.2	39.24
475.4	40.16
475.6	40.86
475.8	41.74
476.0	42.76
476.2	43.74
476.4	44.84
476.6	45.79
476.8	46.81
477.0	48.09
477.2	49.41
477.4	50.72
477.6	51.81
477.8	52.96
478.0	54.12
478.2	55.38
478.4	56.60
478.6	57.78
478.8	59.05
479.0	60.41
479.2	62.00
479.4	63.53
479.6	65.04
479.8	66.82
480.0	68.65
480.2	70.17
480.4	71.73
480.6	73.34
480.8	75.21
481.0	77.13
481.2	78.75
481.4	80.38
481.6	81.70
481.8	83.46
482.0	85.44
482.2	87.67
482.4	89.96
482.6	92.31
482.8	94.15
483.0	96.13
483.2	98.43
483.4	101.4
483.6	103.9
483.8	106.1
484.0	108.3
484.2	110.3
484.4	112.7
484.6	115.5
484.8	118.0
485.0	121.1
485.2	124.3
485.4	127.5
485.6	130.1
485.8	133.1
486.0	135.9
486.2	139.0
486.4	142.3
486.6	145.6
486.8	148.7
487.0	151.9
487.2	154.7
487.4	157.9
487.6	161.5
487.8	165.1
488.0	169.2
488.2	172.9
488.4	176.5
488.6	180.1
488.8	183.4
489.0	187.6
489.2	192.0
489.4	196.3
489.6	200.9
489.8	205.3
490.0	209.8
490.2	214.5
490.4	219.1
490.6	223.4
490.8	228.0
491.0	232.7
491.2	237.5
491.4	242.6
491.6	247.6
491.8	252.6
492.0	257.8
492.2	262.9
492.4	268.0
492.6	273.5
492.8	279.3
493.0	285.4
493.2	291.1
493.4	297.1
493.6	302.8
493.8	307.8
494.0	313.6
494.2	320.1
494.4	326.8
494.6	333.5
494.8	340.4
495.0	346.2
495.2	352.8
495.4	359.9
495.6	366.8
495.8	373.1
496.0	380.0
496.2	387.0
496.4	395.2
496.6	402.7
496.8	409.5
497.0	416.2
497.2	423.0
497.4	430.5
497.6	438.6
497.8	446.5
498.0	455.4
498.2	464.4
498.4	472.1
498.6	479.9
498.8	487.2
499.0	495.0
499.2	503.8
499.4	513.3
499.6	523.1
499.8	532.7
500.0	541.0
500.2	550.3
500.4	559.1
500.6	568.0
500.8	578.5
501.0	589.2
501.2	599.1
501.4	609.2
501.6	617.6
501.8	626.5
502.0	635.5
502.2	645.9
502.4	656.6
502.6	666.8
502.8	676.4
503.0	686.7
503.2	695.7
503.4	706.0
503.6	717.0
503.8	728.5
504.0	739.7
504.2	750.2
504.4	760.9
504.6	773.4
504.8	785.3
505.0	798.1
505.2	809.2
505.4	820.8
505.6	831.3
505.8	843.2
506.0	854.1
506.2	866.1
506.4	877.2
506.6	888.9
506.8	899.1
507.0	911.6
507.2	924.7
507.4	938.2
507.6	950.3
507.8	962.8
508.0	975.6
508.2	988.2
508.4	1002
508.6	1015
508.8	1026
509.0	1040
509.2	1053
509.4	1065
509.6	1078
509.8	1090
510.0	1102
510.2	1115
510.4	1128
510.6	1142
510.8	1155
511.0	1168
511.2	1181
511.4	1192
511.6	1206
511.8	1219
512.0	1232
512.2	1245
512.4	1258
512.6	1271
512.8	1285
513.0	1299
513.2	1312
513.4	1326
513.6	1340
513.8	1355
514.0	1367
514.2	1382
514.4	1395
514.6	1409
514.8	1421
515.0	1436
515.2	1449
515.4	1463
515.6	1478
515.8	1491
516.0	1502
516.2	1516
516.4	1528
516.6	1541
516.8	1553
517.0	1568
517.2	1581
517.4	1595
517.6	1608
517.8	1621
518.0	1633
518.2	1648
518.4	1661
518.6	1675
518.8	1689
519.0	1703
519.2	1717
519.4	1733
519.6	1747
519.8	1759
520.0	1771
520.2	1782
520.4	1793
520.6	1807
520.8	1820
521.0	1832
521.2	1844
521.4	1857
521.6	1869
521.8	1882
522.0	1895
522.2	1907
522.4	1920
522.6	1934
522.8	1943
523.0	1956
523.2	1967
523.4	1979
523.6	1992
523.8	2004
524.0	2015
524.2	2028
524.4	2037
524.6	2049
524.8	2061
525.0	2074
525.2	2087
525.4	2097
525.6	2107
525.8	2117
526.0	2127
526.2	2138
526.4	2149
526.6	2159
526.8	2169
527.0	2178
527.2	2188
527.4	2200
527.6	2213
527.8	2224
528.0	2234
528.2	2243
528.4	2251
528.6	2260
528.8	2271
529.0	2282
529.2	2291
529.4	2301
529.6	2308
529.8	2315
530.0	2323
530.2	2332
530.4	2342
530.6	2355
530.8	2363
531.0	2373
531.2	2379
531.4	2385
531.6	2393
531.8	2401
532.0	2407
532.2	2412
532.4	2420
532.6	2430
532.8	2438
533.0	2448
533.2	2457
533.4	2460
533.6	2468
533.8	2475
534.0	2480
534.2	2487
534.4	2495
534.6	2501
534.8	2507
535.0	2512
535.2	2517
535.4	2524
535.6	2530
535.8	2537
536.0	2544
536.2	2549
536.4	2554
536.6	2560
536.8	2564
537.0	2571
537.2	2577
537.4	2581
537.6	2584
537.8	2586
538.0	2589
538.2	2595
538.4	2600
538.6	2603
538.8	2603
539.0	2606
539.2	2610
539.4	2616
539.6	2621
539.8	2625
540.0	2624
540.2	2628
540.4	2631
540.6	2635
540.8	2639
541.0	2644
541.2	2646
541.4	2648
541.6	2650
541.8	2650
542.0	2652
542.2	2655
542.4	2658
542.6	2659
542.8	2661
543.0	2661
543.2	2661
543.4	2665
543.6	2669
543.8	2669
544.0	2671
544.2	2670
544.4	2668
544.6	2667
544.8	2668
545.0	2668
545.2	2668
545.4	2670
545.6	2671
545.8	2670
546.0	2673
546.2	2674
546.4	2672
546.6	2672
546.8	2671
547.0	2670
547.2	2670
547.4	2670
547.6	2668
547.8	2665
548.0	2662
548.2	2661
548.4	2659
548.6	2658
548.8	2656
549.0	2654
549.2	2653
549.4	2652
549.6	2652
549.8	2649
550.0	2646
550.2	2643
550.4	2642
550.6	2639
550.8	2638
551.0	2636
551.2	2636
551.4	2635
551.6	2636
551.8	2631
552.0	2627
552.2	2623
552.4	2619
552.6	2618
552.8	2614
553.0	2608
553.2	2601
553.4	2597
553.6	2594
553.8	2593
554.0	2592
554.2	2590
554.4	2586
554.6	2583
554.8	2581
555.0	2577
555.2	2575
555.4	2571
555.6	2567
555.8	2562
556.0	2557
556.2	2551
556.4	2545
556.6	2542
556.8	2537
557.0	2533
557.2	2530
557.4	2525
557.6	2521
557.8	2515
558.0	2509
558.2	2503
558.4	2499
558.6	2496
558.8	2493
559.0	2488
559.2	2482
559.4	2477
559.6	2470
559.8	2464
560.0	2459
560.2	2456
560.4	2452
560.6	2450
560.8	2443
561.0	2437
561.2	2428
561.4	2421
561.6	2413
561.8	2408
562.0	2404
562.2	2399
562.4	2396
562.6	2390
562.8	2383
563.0	2379
563.2	2375
563.4	2369
563.6	2364
563.8	2356
564.0	2349
564.2	2343
564.4	2338
564.6	2333
564.8	2327
565.0	2320
565.2	2312
565.4	2303
565.6	2297
565.8	2291
566.0	2284
566.2	2277
566.4	2270
566.6	2263
566.8	2257
567.0	2252
567.2	2245
567.4	2241
567.6	2235
567.8	2229
568.0	2223
568.2	2216
568.4	2208
568.6	2205
568.8	2201
569.0	2197
569.2	2189
569.4	2180
569.6	2171
569.8	2165
570.0	2158
570.2	2152
570.4	2142
570.6	2132
570.8	2128
571.0	2122
571.2	2116
571.4	2108
571.6	2099
571.8	2093
572.0	2089
572.2	2084
572.4	2079
572.6	2074
572.8	2067
573.0	2061
573.2	2052
573.4	2043
573.6	2034
573.8	2028
574.0	2023
574.2	2017
574.4	2010
574.6	2001
574.8	1992
575.0	1986
575.2	1982
575.4	1975
575.6	1970
575.8	1962
576.0	1956
576.2	1948
576.4	1942
576.6	1933
576.8	1928
577.0	1921
577.2	1917
577.4	1909
577.6	1902
577.8	1894
578.0	1887
578.2	1878
578.4	1869
578.6	1862
578.8	1855
579.0	1849
579.2	1844
579.4	1837
579.6	1830
579.8	1824
580.0	1816
580.2	1809
580.4	1803
580.6	1795
580.8	1791
581.0	1784
581.2	1779
581.4	1772
581.6	1764
581.8	1756
582.0	1750
582.2	1743
582.4	1737
582.6	1731
582.8	1725
583.0	1717
583.2	1712
583.4	1704
583.6	1696
583.8	1690
584.0	1683
584.2	1676
584.4	1671
584.6	1665
584.8	1659
585.0	1652
585.2	1646
585.4	1638
585.6	1631
585.8	1625
586.0	1617
586.2	1609
586.4	1603
586.6	1597
586.8	1595
587.0	1590
587.2	1584
587.4	1576
587.6	1567
587.8	1560
588.0	1554
588.2	1545
588.4	1538
588.6	1533
588.8	1527
589.0	1522
589.2	1516
589.4	1507
589.6	1500
589.8	1494
590.0	1489
590.2	1484
590.4	1479
590.6	1473
590.8	1467
591.0	1459
591.2	1453
591.4	1443
591.6	1436
591.8	1430
592.0	1425
592.2	1421
592.4	1416
592.6	1409
592.8	1402
593.0	1395
593.2	1390
593.4	1385
593.6	1379
593.8	1372
594.0	1365
594.2	1357
594.4	1350
594.6	1345
594.8	1340
595.0	1333
595.2	1329
595.4	1324
595.6	1317
595.8	1312
596.0	1306
596.2	1300
596.4	1296
596.6	1290
596.8	1285
597.0	1278
597.2	1272
597.4	1263
597.6	1257
597.8	1251
598.0	1246
598.2	1240
598.4	1235
598.6	1229
598.8	1225
599.0	1219
599.2	1214
599.4	1207
599.6	1203
599.8	1199
600.0	1194
600.2	1189
600.4	1182
600.6	1174
600.8	1168
601.0	1164
601.2	1160
601.4	1156
601.6	1149
601.8	1142
602.0	1137
602.2	1131
602.4	1124
602.6	1117
602.8	1112
603.0	1109
603.2	1105
603.4	1100
603.6	1093
603.8	1087
604.0	1082
604.2	1078
604.4	1074
604.6	1069
604.8	1064
605.0	1058
605.2	1051
605.4	1046
605.6	1039
605.8	1034
606.0	1030
606.2	1024
606.4	1020
606.6	1015
606.8	1009
607.0	1004
607.2	997.7
607.4	993.2
607.6	989.3
607.8	985.6
608.0	980.5
608.2	973.9
608.4	968.0
608.6	963.6
608.8	959.0
609.0	954.4
609.2	949.6
609.4	944.1
609.6	938.4
609.8	934.1
610.0	927.8
610.2	922.3
610.4	918.1
610.6	913.5
610.8	908.5
611.0	903.9
611.2	897.9
611.4	892.8
611.6	888.0
611.8	884.0
612.0	880.2
612.2	875.6
612.4	870.6
612.6	865.5
612.8	860.6
613.0	856.2
613.2	851.8
613.4	847.5
613.6	841.7
613.8	837.7
614.0	833.3
614.2	829.0
614.4	824.5
614.6	820.0
614.8	814.3
615.0	809.7
615.2	805.5
615.4	801.2
615.6	797.2
615.8	792.8
616.0	787.8
616.2	783.3
616.4	779.7
616.6	775.6
616.8	771.2
617.0	766.6
617.2	762.2
617.4	758.5
617.6	754.3
617.8	749.9
618.0	745.0
618.2	740.9
618.4	737.2
618.6	733.2
618.8	728.8
619.0	724.6
619.2	720.4
619.4	715.4
619.6	710.3
619.8	706.0
620.0	701.7
620.2	699.4
620.4	696.1
620.6	691.5
620.8	687.6
621.0	684.2
621.2	679.8
621.4	675.9
621.6	670.6
621.8	665.3
622.0	661.5
622.2	658.7
622.4	656.2
622.6	652.6
622.8	648.6
623.0	644.0
623.2	640.0
623.4	635.8
623.6	633.0
623.8	629.8
624.0	626.7
624.2	623.0
624.4	619.3
624.6	614.9
624.8	611.4
625.0	607.7
625.2	604.2
625.4	600.2
625.6	596.9
625.8	593.7
626.0	589.9
626.2	586.1
626.4	582.0
626.6	577.6
626.8	574.4
627.0	570.7
627.2	566.6
627.4	562.6
627.6	559.6
627.8	556.5
628.0	554.3
628.2	550.9
628.4	547.2
628.6	542.9
628.8	540.0
629.0	536.0
629.2	532.7
629.4	529.6
629.6	526.3
629.8	523.4
630.0	521.0
630.2	518.6
630.4	515.6
630.6	512.5
630.8	508.5
631.0	505.2
631.2	501.3
631.4	498.2
631.6	494.7
631.8	492.2
632.0	490.2
632.2	487.9
632.4	484.2
632.6	480.7
632.8	477.0
633.0	475.0
633.2	472.4
633.4	468.8
633.6	465.0
633.8	461.2
634.0	458.3
634.2	456.1
634.4	453.6
634.6	451.5
634.8	449.4
635.0	445.7
635.2	442.8
635.4	439.6
635.6	436.7
635.8	434.9
636.0	432.0
636.2	428.6
636.4	426.2
636.6	423.7
636.8	421.0
637.0	418.7
637.2	415.6
637.4	412.8
637.6	410.2
637.8	407.8
638.0	404.4
638.2	401.6
638.4	399.4
638.6	397.3
638.8	396.2
639.0	393.8
639.2	390.0
639.4	387.0
639.6	384.1
639.8	381.9
640.0	380.5
640.2	377.6
640.4	375.0
640.6	372.6
640.8	370.0
641.0	367.8
641.2	365.5
641.4	362.7
641.6	360.1
641.8	357.8
642.0	355.4
642.2	354.0
642.4	352.2
642.6	349.9
642.8	347.3
643.0	344.7
643.2	342.2
643.4	340.0
643.6	337.8
643.8	335.7
644.0	333.5
644.2	331.1
644.4	329.1
644.6	326.2
644.8	324.1
645.0	322.0
645.2	319.5
645.4	316.9
645.6	315.3
645.8	313.5
646.0	311.7
646.2	309.8
646.4	307.3
646.6	305.0
646.8	303.6
647.0	301.1
647.2	299.1
647.4	296.9
647.6	294.6
647.8	292.7
648.0	291.1
648.2	288.7
648.4	287.2
648.6	285.3
648.8	283.7
649.0	281.9
649.2	280.5
649.4	278.9
649.6	277.0
649.8	275.0
650.0	273.3
650.2	271.7
650.4	270.2
650.6	268.7
650.8	266.6
651.0	264.1
651.2	261.7
651.4	259.5
651.6	257.2
651.8	255.6
652.0	254.6
652.2	253.2
652.4	251.6
652.6	249.8
652.8	248.0
653.0	246.6
653.2	245.2
653.4	243.5
653.6	241.9
653.8	239.8
654.0	238.1
654.2	236.3
654.4	234.9
654.6	233.5
654.8	232.5
655.0	231.4
655.2	230.2
655.4	228.5
655.6	226.3
655.8	224.4
656.0	222.6
656.2	221.7
656.4	220.5
656.6	219.2
656.8	217.3
657.0	215.2
657.2	213.0
657.4	211.3
657.6	209.3
657.8	208.5
658.0	207.4
658.2	206.0
658.4	204.4
658.6	203.1
658.8	201.3
659.0	200.4
659.2	198.8
659.4	197.6
659.6	196.4
659.8	195.5
660.0	194.5
660.2	193.0
660.4	191.6
660.6	190.1
660.8	188.6
661.0	187.1
661.2	185.7
661.4	183.5
661.6	182.4
661.8	181.6
662.0	181.0
662.2	179.6
662.4	178.6
662.6	176.8
662.8	175.4
663.0	174.5
663.2	173.6
663.4	172.4
663.6	171.3
663.8	169.7
664.0	168.2
664.2	167.1
664.4	165.9
664.6	164.8
664.8	163.8
665.0	162.8
665.2	161.7
665.4	160.8
665.6	159.4
665.8	157.9
666.0	156.5
666.2	155.1
666.4	154.5
666.6	153.6
666.8	152.9
667.0	152.4
667.2	151.3
667.4	149.5
667.6	148.6
667.8	147.0
668.0	145.6
668.2	144.7
668.4	143.6
668.6	142.5
668.8	141.8
669.0	140.9
669.2	139.9
669.4	139.3
669.6	138.3
669.8	137.2
670.0	136.4
670.2	135.4
670.4	134.5
670.6	133.7
670.8	132.3
671.0	131.2
671.2	130.4
671.4	129.7
671.6	129.1
671.8	128.3
672.0	126.9
672.2	125.5
672.4	125.0
672.6	124.4
672.8	124.0
673.0	123.2
673.2	121.7
673.4	120.4
673.6	119.7
673.8	119.3
674.0	118.8
674.2	118.0
674.4	116.8
674.6	115.5
674.8	113.9
675.0	113.4
675.2	112.6
675.4	111.7
675.6	111.3
675.8	110.1
676.0	109.3
676.2	108.6
676.4	108.1
676.6	107.2
676.8	106.6
677.0	105.6
677.2	104.9
677.4	103.6
677.6	103.1
677.8	102.2
678.0	101.5
678.2	100.8
678.4	100.0
678.6	99.23
678.8	98.97
679.0	98.32
679.2	97.76
679.4	97.14
679.6	95.95
679.8	95.05
680.0	94.37
680.2	93.69
680.4	93.29
680.6	92.53
680.8	91.44
681.0	90.62
681.2	89.93
681.4	89.57
681.6	89.53
681.8	88.80
682.0	88.03
682.2	87.64
682.4	87.27
682.6	86.56
682.8	86.22
683.0	85.48
683.2	84.46
683.4	83.63
683.6	83.18
683.8	82.52
684.0	82.07
684.2	81.51
684.4	81.05
684.6	79.99
684.8	79.68
685.0	79.35
685.2	78.89
685.4	78.22
685.6	77.72
685.8	76.79
686.0	76.26
686.2	75.64
686.4	75.11
686.6	74.38
686.8	73.85
687.0	73.57
687.2	73.02
687.4	72.44
687.6	71.79
687.8	71.17
688.0	70.74
688.2	70.56
688.4	70.02
688.6	69.33
688.8	68.72
689.0	68.06
689.2	67.57
689.4	67.09
689.6	66.47
689.8	65.68
690.0	65.32
690.2	65.02
690.4	64.92
690.6	64.64
690.8	64.07
691.0	63.63
691.2	63.07
691.4	62.55
691.6	62.12
691.8	61.71
692.0	61.19
692.2	61.10
692.4	60.75
692.6	60.48
692.8	59.83
693.0	59.25
693.2	58.85
693.4	58.53
693.6	58.14
693.8	57.76
694.0	57.12
694.2	56.71
694.4	56.55
694.6	56.10
694.8	55.50
695.0	54.92
695.2	54.35
695.4	54.03
695.6	53.88
695.8	53.61
696.0	53.22
696.2	53.01
696.4	52.62
696.6	52.34
696.8	51.93
697.0	51.60
697.2	51.11
697.4	50.96
697.6	50.81
697.8	50.37
698.0	50.03
698.2	49.77
698.4	49.42
698.6	49.27
698.8	48.92
699.0	48.31
699.2	47.89
699.4	47.41
699.6	47.16
699.8	47.06
700.0	46.73
700.2	46.42
700.4	45.94
700.6	45.57
700.8	45.42
701.0	45.18
701.2	45.02
701.4	44.84
701.6	44.78
701.8	44.67
702.0	44.34
702.2	43.78
702.4	43.39
702.6	43.05
702.8	42.86
703.0	42.61
703.2	42.19
703.4	41.83
703.6	41.79
703.8	41.61
704.0	41.34
704.2	41.15
704.4	40.98
704.6	40.69
704.8	40.41
705.0	39.91
705.2	39.41
705.4	39.00
705.6	38.80
705.8	38.53
706.0	38.39
706.2	38.38
706.4	38.38
706.6	38.24
706.8	37.97
707.0	37.50
707.2	37.19
707.4	36.95
707.6	36.67
707.8	36.46
708.0	36.15
708.2	35.72
708.4	35.56
708.6	35.58
708.8	35.52
709.0	35.33
709.2	34.93
709.4	34.38
709.6	33.98
709.8	33.93
710.0	33.75
710.2	33.60
710.4	33.53
710.6	33.25
710.8	33.07
711.0	32.94
711.2	32.45
711.4	32.16
711.6	31.85
711.8	31.66
712.0	31.59
712.2	31.47
712.4	31.38
712.6	31.09
712.8	30.78
713.0	30.61
713.2	30.33
713.4	30.22
713.6	30.21
713.8	29.89
714.0	29.61
714.2	29.39
714.4	29.00
714.6	28.72
714.8	28.49
715.0	28.37
715.2	28.30
715.4	28.31
715.6	28.12
715.8	27.71
716.0	27.41
716.2	27.20
716.4	26.95
716.6	26.76
716.8	26.70
717.0	26.44
717.2	26.35
717.4	26.16
717.6	25.93
717.8	25.67
718.0	25.59
718.2	25.50
718.4	25.25
718.6	24.92
718.8	24.66
719.0	24.31
719.2	24.28
719.4	24.30
719.6	24.09
719.8	23.86
720.0	23.68
