Sample:	'20211010A(EM)
File name:	G-c-NI-dots 100S2-.FDS
Run date:	'21:13:19, 03/22/2023
Operator:	Administrator
Comment:	'

Instrument
Model:	F-4700 FL Spectrophotometer
Serial number:	2019-001
ROM Version:	5J24010 00

Instrument parameters
Measurement type:	Wavelength scan
Scan mode:	Emission
Data mode:	Fluorescence
EX WL:	400.0 nm
EM  Start WL:	420.0 nm
EM  End WL:	850.0 nm
Scan speed:	1200 nm/min
Delay:	0.0 s
EX Slit:	10.0 nm
EM Slit:	10.0 nm
PMT Voltage:	400 V
Response:	0.002 s
Corrected spectra:	Off
Shutter control:	On

Processing performed
Savitsky-Golay smoothed
Smoothing order:	3
Number of points:	7
Number of times:	1

Peak integration
Integration method:	Rectangular
Sensitivity:	1
Threshold:	1.000

Peaks
No.	Start(nm)	Apex(nm)	End(nm)	Height(Data)	Valley(nm)	Valley(Data)
1	420.0	547.4	778.8	2362	778.8	2.579
2	778.8	800.4	850.0	6.137	850.0	0.635

Data points
nm	Data
420.0	1.294
420.2	1.314
420.4	1.316
420.6	1.308
420.8	1.305
421.0	1.284
421.2	1.243
421.4	1.222
421.6	1.216
421.8	1.244
422.0	1.287
422.2	1.295
422.4	1.305
422.6	1.297
422.8	1.281
423.0	1.248
423.2	1.254
423.4	1.246
423.6	1.262
423.8	1.317
424.0	1.327
424.2	1.330
424.4	1.344
424.6	1.329
424.8	1.353
425.0	1.339
425.2	1.304
425.4	1.327
425.6	1.322
425.8	1.358
426.0	1.417
426.2	1.433
426.4	1.415
426.6	1.429
426.8	1.404
427.0	1.393
427.2	1.380
427.4	1.403
427.6	1.378
427.8	1.381
428.0	1.366
428.2	1.333
428.4	1.360
428.6	1.378
428.8	1.393
429.0	1.379
429.2	1.356
429.4	1.368
429.6	1.446
429.8	1.478
430.0	1.490
430.2	1.448
430.4	1.415
430.6	1.392
430.8	1.416
431.0	1.471
431.2	1.515
431.4	1.539
431.6	1.551
431.8	1.527
432.0	1.493
432.2	1.505
432.4	1.528
432.6	1.522
432.8	1.539
433.0	1.553
433.2	1.544
433.4	1.562
433.6	1.563
433.8	1.547
434.0	1.575
434.2	1.581
434.4	1.632
434.6	1.648
434.8	1.603
435.0	1.563
435.2	1.575
435.4	1.601
435.6	1.670
435.8	1.706
436.0	1.728
436.2	1.733
436.4	1.740
436.6	1.752
436.8	1.769
437.0	1.796
437.2	1.839
437.4	1.883
437.6	1.907
437.8	1.920
438.0	1.907
438.2	1.888
438.4	1.846
438.6	1.854
438.8	1.910
439.0	1.974
439.2	2.003
439.4	2.062
439.6	2.057
439.8	2.084
440.0	2.082
440.2	2.108
440.4	2.161
440.6	2.208
440.8	2.189
441.0	2.204
441.2	2.161
441.4	2.209
441.6	2.240
441.8	2.294
442.0	2.328
442.2	2.380
442.4	2.431
442.6	2.526
442.8	2.510
443.0	2.484
443.2	2.486
443.4	2.509
443.6	2.539
443.8	2.622
444.0	2.622
444.2	2.647
444.4	2.770
444.6	2.896
444.8	2.923
445.0	2.951
445.2	2.945
445.4	2.967
445.6	3.006
445.8	3.047
446.0	3.076
446.2	3.137
446.4	3.239
446.6	3.298
446.8	3.317
447.0	3.331
447.2	3.397
447.4	3.394
447.6	3.440
447.8	3.503
448.0	3.607
448.2	3.685
448.4	3.830
448.6	3.838
448.8	3.827
449.0	3.881
449.2	3.888
449.4	3.910
449.6	4.025
449.8	4.070
450.0	4.122
450.2	4.258
450.4	4.292
450.6	4.327
450.8	4.402
451.0	4.496
451.2	4.588
451.4	4.678
451.6	4.664
451.8	4.708
452.0	4.844
452.2	4.940
452.4	5.014
452.6	5.040
452.8	4.966
453.0	5.046
453.2	5.180
453.4	5.203
453.6	5.343
453.8	5.448
454.0	5.490
454.2	5.551
454.4	5.566
454.6	5.646
454.8	5.722
455.0	5.829
455.2	5.875
455.4	5.868
455.6	5.945
455.8	6.124
456.0	6.147
456.2	6.293
456.4	6.334
456.6	6.378
456.8	6.506
457.0	6.587
457.2	6.592
457.4	6.687
457.6	6.729
457.8	6.861
458.0	7.044
458.2	7.222
458.4	7.316
458.6	7.405
458.8	7.397
459.0	7.404
459.2	7.509
459.4	7.648
459.6	7.792
459.8	7.888
460.0	8.018
460.2	8.076
460.4	8.240
460.6	8.382
460.8	8.569
461.0	8.690
461.2	8.788
461.4	8.790
461.6	8.871
461.8	8.981
462.0	9.099
462.2	9.258
462.4	9.420
462.6	9.556
462.8	9.755
463.0	9.946
463.2	10.10
463.4	10.19
463.6	10.33
463.8	10.55
464.0	10.70
464.2	10.80
464.4	10.92
464.6	11.09
464.8	11.27
465.0	11.56
465.2	11.70
465.4	11.87
465.6	12.11
465.8	12.42
466.0	12.65
466.2	12.90
466.4	13.13
466.6	13.27
466.8	13.50
467.0	13.75
467.2	14.08
467.4	14.46
467.6	14.61
467.8	14.72
468.0	15.00
468.2	15.24
468.4	15.56
468.6	15.73
468.8	16.06
469.0	16.61
469.2	17.19
469.4	17.57
469.6	17.86
469.8	17.99
470.0	18.30
470.2	18.71
470.4	19.24
470.6	19.61
470.8	20.00
471.0	20.42
471.2	20.76
471.4	21.20
471.6	21.75
471.8	22.26
472.0	22.79
472.2	23.36
472.4	23.77
472.6	24.16
472.8	24.54
473.0	25.13
473.2	25.82
473.4	26.67
473.6	27.20
473.8	27.79
474.0	28.35
474.2	28.90
474.4	29.41
474.6	30.17
474.8	30.87
475.0	31.56
475.2	32.21
475.4	32.82
475.6	33.59
475.8	34.67
476.0	35.81
476.2	36.79
476.4	37.62
476.6	38.24
476.8	39.02
477.0	39.85
477.2	40.64
477.4	41.50
477.6	42.70
477.8	43.87
478.0	45.05
478.2	46.31
478.4	47.28
478.6	48.06
478.8	49.12
479.0	50.35
479.2	51.73
479.4	53.31
479.6	54.51
479.8	55.69
480.0	56.82
480.2	58.25
480.4	59.88
480.6	61.34
480.8	62.64
481.0	64.20
481.2	65.67
481.4	67.05
481.6	68.31
481.8	69.53
482.0	71.12
482.2	72.89
482.4	74.76
482.6	76.54
482.8	78.08
483.0	79.97
483.2	81.82
483.4	83.87
483.6	86.16
483.8	88.51
484.0	90.45
484.2	92.77
484.4	94.96
484.6	97.18
484.8	99.75
485.0	102.1
485.2	104.1
485.4	106.2
485.6	108.6
485.8	110.8
486.0	113.6
486.2	116.2
486.4	118.8
486.6	121.5
486.8	124.2
487.0	127.0
487.2	130.3
487.4	133.0
487.6	136.0
487.8	139.1
488.0	141.7
488.2	144.7
488.4	147.6
488.6	150.8
488.8	154.2
489.0	157.5
489.2	160.6
489.4	164.6
489.6	168.6
489.8	172.6
490.0	176.6
490.2	180.2
490.4	183.8
490.6	188.1
490.8	192.1
491.0	196.0
491.2	200.2
491.4	204.3
491.6	208.3
491.8	213.0
492.0	217.8
492.2	222.7
492.4	227.4
492.6	231.2
492.8	235.3
493.0	240.2
493.2	245.6
493.4	251.1
493.6	256.6
493.8	261.1
494.0	266.4
494.2	271.1
494.4	275.8
494.6	281.4
494.8	287.3
495.0	293.8
495.2	300.0
495.4	305.3
495.6	310.8
495.8	316.1
496.0	321.5
496.2	327.9
496.4	334.3
496.6	341.2
496.8	347.9
497.0	354.0
497.2	360.4
497.4	367.0
497.6	373.9
497.8	381.1
498.0	388.1
498.2	394.6
498.4	401.7
498.6	408.5
498.8	415.0
499.0	422.5
499.2	430.4
499.4	438.0
499.6	446.7
499.8	454.6
500.0	461.7
500.2	469.8
500.4	477.4
500.6	485.7
500.8	494.6
501.0	503.4
501.2	511.5
501.4	520.5
501.6	528.9
501.8	538.0
502.0	545.7
502.2	554.9
502.4	563.6
502.6	572.9
502.8	582.2
503.0	590.5
503.2	598.4
503.4	606.6
503.6	615.2
503.8	624.9
504.0	634.4
504.2	644.2
504.4	654.0
504.6	664.2
504.8	674.5
505.0	684.3
505.2	692.9
505.4	703.6
505.6	713.2
505.8	725.8
506.0	736.2
506.2	746.3
506.4	754.9
506.6	765.3
506.8	775.6
507.0	788.6
507.2	798.7
507.4	809.1
507.6	818.4
507.8	829.5
508.0	840.7
508.2	852.8
508.4	863.2
508.6	873.1
508.8	883.0
509.0	895.2
509.2	907.2
509.4	919.3
509.6	931.0
509.8	941.8
510.0	952.5
510.2	965.0
510.4	976.2
510.6	987.7
510.8	999.2
511.0	1010
511.2	1023
511.4	1035
511.6	1047
511.8	1059
512.0	1069
512.2	1081
512.4	1091
512.6	1102
512.8	1114
513.0	1125
513.2	1135
513.4	1145
513.6	1156
513.8	1169
514.0	1182
514.2	1197
514.4	1210
514.6	1222
514.8	1234
515.0	1246
515.2	1259
515.4	1271
515.6	1283
515.8	1296
516.0	1307
516.2	1319
516.4	1331
516.6	1342
516.8	1355
517.0	1366
517.2	1378
517.4	1389
517.6	1402
517.8	1415
518.0	1425
518.2	1434
518.4	1445
518.6	1456
518.8	1468
519.0	1481
519.2	1493
519.4	1504
519.6	1516
519.8	1529
520.0	1541
520.2	1554
520.4	1567
520.6	1579
520.8	1591
521.0	1602
521.2	1611
521.4	1621
521.6	1631
521.8	1643
522.0	1655
522.2	1666
522.4	1679
522.6	1690
522.8	1700
523.0	1709
523.2	1719
523.4	1731
523.6	1742
523.8	1755
524.0	1766
524.2	1775
524.4	1786
524.6	1798
524.8	1809
525.0	1820
525.2	1830
525.4	1839
525.6	1848
525.8	1856
526.0	1865
526.2	1874
526.4	1884
526.6	1894
526.8	1903
527.0	1914
527.2	1922
527.4	1930
527.6	1939
527.8	1949
528.0	1958
528.2	1969
528.4	1979
528.6	1986
528.8	1993
529.0	2002
529.2	2011
529.4	2022
529.6	2031
529.8	2039
530.0	2045
530.2	2052
530.4	2058
530.6	2065
530.8	2074
531.0	2083
531.2	2091
531.4	2098
531.6	2101
531.8	2107
532.0	2114
532.2	2122
532.4	2131
532.6	2140
532.8	2147
533.0	2154
533.2	2160
533.4	2165
533.6	2170
533.8	2174
534.0	2181
534.2	2189
534.4	2200
534.6	2207
534.8	2214
535.0	2217
535.2	2224
535.4	2228
535.6	2232
535.8	2235
536.0	2239
536.2	2242
536.4	2246
536.6	2248
536.8	2254
537.0	2259
537.2	2266
537.4	2271
537.6	2275
537.8	2281
538.0	2285
538.2	2289
538.4	2293
538.6	2295
538.8	2298
539.0	2302
539.2	2305
539.4	2310
539.6	2314
539.8	2317
540.0	2319
540.2	2321
540.4	2323
540.6	2326
540.8	2329
541.0	2331
541.2	2333
541.4	2336
541.6	2337
541.8	2340
542.0	2343
542.2	2344
542.4	2348
542.6	2351
542.8	2352
543.0	2353
543.2	2355
543.4	2355
543.6	2357
543.8	2355
544.0	2354
544.2	2355
544.4	2355
544.6	2357
544.8	2359
545.0	2360
545.2	2361
545.4	2361
545.6	2358
545.8	2359
546.0	2360
546.2	2360
546.4	2361
546.6	2359
546.8	2359
547.0	2361
547.2	2360
547.4	2362
547.6	2361
547.8	2360
548.0	2361
548.2	2360
548.4	2358
548.6	2355
548.8	2354
549.0	2353
549.2	2350
549.4	2347
549.6	2346
549.8	2344
550.0	2345
550.2	2346
550.4	2345
550.6	2341
550.8	2340
551.0	2337
551.2	2334
551.4	2334
551.6	2332
551.8	2330
552.0	2329
552.2	2328
552.4	2328
552.6	2325
552.8	2323
553.0	2319
553.2	2313
553.4	2309
553.6	2305
553.8	2302
554.0	2300
554.2	2296
554.4	2294
554.6	2291
554.8	2287
555.0	2283
555.2	2278
555.4	2276
555.6	2273
555.8	2271
556.0	2269
556.2	2267
556.4	2262
556.6	2259
556.8	2254
557.0	2248
557.2	2245
557.4	2242
557.6	2238
557.8	2235
558.0	2233
558.2	2227
558.4	2223
558.6	2219
558.8	2213
559.0	2207
559.2	2202
559.4	2194
559.6	2191
559.8	2188
560.0	2185
560.2	2181
560.4	2178
560.6	2171
560.8	2168
561.0	2163
561.2	2161
561.4	2159
561.6	2155
561.8	2149
562.0	2142
562.2	2134
562.4	2130
562.6	2123
562.8	2118
563.0	2112
563.2	2108
563.4	2104
563.6	2099
563.8	2095
564.0	2088
564.2	2081
564.4	2077
564.6	2073
564.8	2070
565.0	2066
565.2	2057
565.4	2049
565.6	2043
565.8	2038
566.0	2036
566.2	2032
566.4	2027
566.6	2019
566.8	2013
567.0	2006
567.2	2000
567.4	1994
567.6	1989
567.8	1984
568.0	1981
568.2	1977
568.4	1972
568.6	1967
568.8	1961
569.0	1954
569.2	1948
569.4	1942
569.6	1936
569.8	1931
570.0	1925
570.2	1917
570.4	1911
570.6	1906
570.8	1900
571.0	1894
571.2	1889
571.4	1882
571.6	1876
571.8	1868
572.0	1862
572.2	1856
572.4	1851
572.6	1846
572.8	1841
573.0	1834
573.2	1828
573.4	1823
573.6	1818
573.8	1813
574.0	1806
574.2	1800
574.4	1793
574.6	1787
574.8	1782
575.0	1774
575.2	1766
575.4	1759
575.6	1753
575.8	1747
576.0	1742
576.2	1735
576.4	1728
576.6	1723
576.8	1721
577.0	1715
577.2	1708
577.4	1700
577.6	1695
577.8	1691
578.0	1688
578.2	1682
578.4	1675
578.6	1666
578.8	1659
579.0	1653
579.2	1649
579.4	1643
579.6	1639
579.8	1633
580.0	1625
580.2	1618
580.4	1612
580.6	1606
580.8	1599
581.0	1593
581.2	1586
581.4	1580
581.6	1574
581.8	1569
582.0	1564
582.2	1557
582.4	1552
582.6	1546
582.8	1539
583.0	1533
583.2	1527
583.4	1521
583.6	1516
583.8	1509
584.0	1503
584.2	1497
584.4	1492
584.6	1486
584.8	1480
585.0	1474
585.2	1467
585.4	1461
585.6	1454
585.8	1449
586.0	1444
586.2	1440
586.4	1434
586.6	1427
586.8	1420
587.0	1414
587.2	1408
587.4	1405
587.6	1400
587.8	1395
588.0	1389
588.2	1381
588.4	1375
588.6	1369
588.8	1363
589.0	1359
589.2	1352
589.4	1346
589.6	1341
589.8	1335
590.0	1331
590.2	1326
590.4	1320
590.6	1315
590.8	1308
591.0	1301
591.2	1295
591.4	1290
591.6	1284
591.8	1280
592.0	1273
592.2	1268
592.4	1264
592.6	1257
592.8	1251
593.0	1245
593.2	1238
593.4	1233
593.6	1228
593.8	1222
594.0	1218
594.2	1214
594.4	1208
594.6	1203
594.8	1197
595.0	1191
595.2	1187
595.4	1182
595.6	1178
595.8	1172
596.0	1165
596.2	1160
596.4	1155
596.6	1149
596.8	1143
597.0	1138
597.2	1133
597.4	1129
597.6	1126
597.8	1120
598.0	1114
598.2	1109
598.4	1103
598.6	1098
598.8	1093
599.0	1088
599.2	1084
599.4	1081
599.6	1074
599.8	1069
600.0	1062
600.2	1058
600.4	1054
600.6	1050
600.8	1045
601.0	1040
601.2	1036
601.4	1031
601.6	1027
601.8	1022
602.0	1017
602.2	1012
602.4	1007
602.6	1002
602.8	998.3
603.0	993.4
603.2	988.2
603.4	981.2
603.6	974.3
603.8	968.9
604.0	965.0
604.2	960.0
604.4	956.4
604.6	951.0
604.8	946.5
605.0	942.4
605.2	937.4
605.4	931.8
605.6	928.6
605.8	923.9
606.0	919.3
606.2	914.5
606.4	909.8
606.6	905.4
606.8	901.3
607.0	897.3
607.2	891.1
607.4	885.5
607.6	880.3
607.8	876.0
608.0	871.8
608.2	867.6
608.4	862.5
608.6	858.2
608.8	852.1
609.0	846.5
609.2	842.0
609.4	837.8
609.6	835.7
609.8	833.5
610.0	829.3
610.2	823.6
610.4	817.9
610.6	812.2
610.8	808.5
611.0	804.9
611.2	802.0
611.4	797.7
611.6	792.2
611.8	786.0
612.0	781.0
612.2	776.6
612.4	773.7
612.6	770.5
612.8	765.7
613.0	761.3
613.2	757.1
613.4	752.7
613.6	748.6
613.8	744.3
614.0	739.9
614.2	735.8
614.4	732.3
614.6	728.3
614.8	723.8
615.0	720.2
615.2	717.0
615.4	713.0
615.6	710.2
615.8	706.6
616.0	702.0
616.2	696.7
616.4	692.2
616.6	687.4
616.8	684.2
617.0	681.0
617.2	677.3
617.4	673.2
617.6	670.0
617.8	665.9
618.0	662.5
618.2	659.2
618.4	655.3
618.6	651.0
618.8	647.0
619.0	643.4
619.2	639.9
619.4	636.8
619.6	633.1
619.8	629.0
620.0	625.2
620.2	621.5
620.4	617.9
620.6	613.4
620.8	609.7
621.0	606.0
621.2	602.4
621.4	599.6
621.6	596.8
621.8	592.5
622.0	589.1
622.2	584.5
622.4	580.6
622.6	578.3
622.8	575.4
623.0	571.6
623.2	568.0
623.4	563.3
623.6	560.3
623.8	557.7
624.0	555.1
624.2	552.5
624.4	549.2
624.6	544.4
624.8	541.2
625.0	537.2
625.2	534.9
625.4	533.2
625.6	530.1
625.8	526.1
626.0	522.8
626.2	518.6
626.4	515.1
626.6	510.8
626.8	507.9
627.0	505.3
627.2	502.7
627.4	499.6
627.6	496.2
627.8	492.2
628.0	490.2
628.2	487.8
628.4	485.4
628.6	482.2
628.8	479.1
629.0	475.9
629.2	472.8
629.4	469.2
629.6	466.8
629.8	463.9
630.0	461.0
630.2	458.8
630.4	456.2
630.6	452.9
630.8	449.8
631.0	446.4
631.2	442.7
631.4	440.7
631.6	438.5
631.8	435.7
632.0	433.4
632.2	430.9
632.4	428.1
632.6	425.5
632.8	422.4
633.0	419.6
633.2	417.6
633.4	415.6
633.6	413.6
633.8	410.1
634.0	405.9
634.2	402.1
634.4	399.3
634.6	397.8
634.8	396.7
635.0	394.9
635.2	392.1
635.4	389.0
635.6	386.0
635.8	383.9
636.0	381.8
636.2	379.7
636.4	376.7
636.6	373.9
636.8	371.0
637.0	369.1
637.2	366.7
637.4	364.9
637.6	362.6
637.8	360.0
638.0	358.0
638.2	355.9
638.4	353.9
638.6	351.9
638.8	349.3
639.0	346.2
639.2	343.9
639.4	341.5
639.6	339.4
639.8	336.8
640.0	334.5
640.2	332.3
640.4	330.4
640.6	328.6
640.8	326.1
641.0	323.5
641.2	321.0
641.4	318.9
641.6	317.2
641.8	315.2
642.0	312.7
642.2	310.6
642.4	308.2
642.6	306.6
642.8	305.6
643.0	303.8
643.2	302.3
643.4	300.0
643.6	297.5
643.8	295.3
644.0	293.1
644.2	291.4
644.4	289.7
644.6	287.4
644.8	285.4
645.0	283.3
645.2	281.3
645.4	280.0
645.6	278.3
645.8	276.9
646.0	275.0
646.2	273.4
646.4	271.2
646.6	269.1
646.8	267.4
647.0	266.4
647.2	264.7
647.4	263.3
647.6	261.5
647.8	258.8
648.0	256.8
648.2	255.2
648.4	253.6
648.6	252.1
648.8	250.5
649.0	247.8
649.2	245.9
649.4	243.7
649.6	242.2
649.8	240.8
650.0	239.4
650.2	237.3
650.4	235.5
650.6	234.6
650.8	233.7
651.0	233.1
651.2	232.0
651.4	230.3
651.6	228.3
651.8	226.6
652.0	224.7
652.2	223.2
652.4	222.0
652.6	220.6
652.8	219.4
653.0	217.7
653.2	215.3
653.4	213.7
653.6	212.4
653.8	210.7
654.0	209.6
654.2	208.0
654.4	206.5
654.6	205.6
654.8	204.2
655.0	202.9
655.2	201.5
655.4	199.9
655.6	198.3
655.8	196.5
656.0	194.9
656.2	194.3
656.4	193.2
656.6	192.3
656.8	190.8
657.0	189.0
657.2	187.5
657.4	186.9
657.6	185.5
657.8	184.2
658.0	182.8
658.2	181.2
658.4	179.9
658.6	179.1
658.8	178.2
659.0	176.9
659.2	175.4
659.4	173.4
659.6	172.3
659.8	171.6
660.0	170.6
660.2	169.2
660.4	167.9
660.6	165.9
660.8	165.2
661.0	164.5
661.2	163.8
661.4	162.9
661.6	162.0
661.8	160.3
662.0	158.9
662.2	157.3
662.4	156.1
662.6	155.0
662.8	154.0
663.0	153.3
663.2	152.5
663.4	151.6
663.6	150.7
663.8	149.7
664.0	148.4
664.2	147.4
664.4	146.1
664.6	145.3
664.8	144.0
665.0	142.6
665.2	141.6
665.4	140.6
665.6	139.8
665.8	139.1
666.0	138.0
666.2	136.6
666.4	136.2
666.6	135.6
666.8	134.6
667.0	133.5
667.2	132.0
667.4	130.7
667.6	130.1
667.8	129.6
668.0	128.7
668.2	127.8
668.4	126.8
668.6	125.8
668.8	124.7
669.0	123.5
669.2	123.0
669.4	122.3
669.6	121.9
669.8	121.2
670.0	120.3
670.2	118.7
670.4	117.9
670.6	116.9
670.8	116.4
671.0	115.6
671.2	115.0
671.4	114.2
671.6	113.7
671.8	113.0
672.0	112.1
672.2	110.8
672.4	109.7
672.6	108.6
672.8	107.4
673.0	106.6
673.2	105.6
673.4	104.9
673.6	104.1
673.8	103.9
674.0	103.1
674.2	102.4
674.4	101.8
674.6	100.9
674.8	99.84
675.0	99.47
675.2	98.68
675.4	98.01
675.6	97.52
675.8	96.69
676.0	95.90
676.2	95.24
676.4	94.43
676.6	93.96
676.8	93.34
677.0	92.95
677.2	92.20
677.4	91.63
677.6	90.67
677.8	89.84
678.0	89.13
678.2	88.77
678.4	88.20
678.6	87.85
678.8	87.15
679.0	86.44
679.2	85.53
679.4	84.50
679.6	83.96
679.8	83.54
680.0	83.24
680.2	82.57
680.4	81.83
680.6	80.70
680.8	80.43
681.0	80.13
681.2	79.67
681.4	78.76
681.6	78.18
681.8	77.32
682.0	76.94
682.2	76.56
682.4	76.22
682.6	75.75
682.8	74.87
683.0	74.25
683.2	73.65
683.4	73.07
683.6	73.02
683.8	72.34
684.0	71.32
684.2	70.65
684.4	69.80
684.6	69.58
684.8	69.60
685.0	69.33
685.2	68.84
685.4	68.20
685.6	67.38
685.8	66.94
686.0	66.59
686.2	66.17
686.4	65.48
686.6	65.10
686.8	64.58
687.0	64.06
687.2	63.78
687.4	63.19
687.6	62.43
687.8	62.17
688.0	61.68
688.2	61.18
688.4	60.80
688.6	60.55
688.8	60.16
689.0	59.99
689.2	59.75
689.4	59.13
689.6	58.52
689.8	58.12
690.0	57.59
690.2	56.92
690.4	56.46
690.6	55.97
690.8	55.39
691.0	55.20
691.2	54.88
691.4	54.54
691.6	54.28
691.8	54.11
692.0	53.67
692.2	53.33
692.4	52.69
692.6	52.38
692.8	52.20
693.0	51.91
693.2	51.54
693.4	51.05
693.6	50.61
693.8	50.25
694.0	49.87
694.2	49.38
694.4	49.07
694.6	48.51
694.8	48.38
695.0	48.20
695.2	47.95
695.4	47.53
695.6	47.41
695.8	46.90
696.0	46.66
696.2	46.31
696.4	46.03
696.6	45.45
696.8	45.16
697.0	45.07
697.2	45.09
697.4	44.84
697.6	44.60
697.8	43.90
698.0	43.46
698.2	43.22
698.4	43.14
698.6	42.88
698.8	42.71
699.0	42.32
699.2	42.00
699.4	41.69
699.6	41.55
699.8	41.24
700.0	41.04
700.2	40.71
700.4	40.20
700.6	40.05
700.8	39.98
701.0	39.61
701.2	39.48
701.4	39.23
701.6	38.95
701.8	38.60
702.0	38.55
702.2	38.22
702.4	37.99
702.6	37.73
702.8	37.42
703.0	36.82
703.2	36.84
703.4	36.70
703.6	36.42
703.8	36.30
704.0	36.17
704.2	35.93
704.4	35.77
704.6	35.45
704.8	34.89
705.0	34.56
705.2	34.51
705.4	34.40
705.6	34.41
705.8	34.35
706.0	34.13
706.2	33.89
706.4	33.63
706.6	33.16
706.8	32.76
707.0	32.43
707.2	32.06
707.4	31.96
707.6	31.63
707.8	31.40
708.0	31.37
708.2	31.47
708.4	31.24
708.6	31.18
708.8	30.65
709.0	30.19
709.2	29.99
709.4	30.04
709.6	30.07
709.8	29.94
710.0	29.61
710.2	29.22
710.4	29.02
710.6	28.98
710.8	28.95
711.0	28.75
711.2	28.46
711.4	28.09
711.6	27.89
711.8	27.76
712.0	27.44
712.2	27.40
712.4	27.22
712.6	27.16
712.8	27.03
713.0	26.97
713.2	26.56
713.4	26.41
713.6	26.24
713.8	26.05
714.0	25.82
714.2	25.66
714.4	25.28
714.6	25.01
714.8	24.91
715.0	24.93
715.2	24.92
715.4	24.86
715.6	24.46
715.8	24.11
716.0	23.74
716.2	23.62
716.4	23.51
716.6	23.56
716.8	23.40
717.0	23.38
717.2	23.28
717.4	23.05
717.6	22.73
717.8	22.52
718.0	22.13
718.2	22.01
718.4	21.97
718.6	21.81
718.8	21.72
719.0	21.36
719.2	21.10
719.4	20.94
719.6	20.70
719.8	20.56
720.0	20.49
720.2	20.22
