Sample:	'20211010A(EM)
File name:	G-c-dots 100S2-.FDS
Run date:	'21:07:31, 03/22/2023
Operator:	Administrator
Comment:	'

Instrument
Model:	F-4700 FL Spectrophotometer
Serial number:	2019-001
ROM Version:	5J24010 00

Instrument parameters
Measurement type:	Wavelength scan
Scan mode:	Emission
Data mode:	Fluorescence
EX WL:	400.0 nm
EM  Start WL:	420.0 nm
EM  End WL:	850.0 nm
Scan speed:	1200 nm/min
Delay:	0.0 s
EX Slit:	10.0 nm
EM Slit:	10.0 nm
PMT Voltage:	405 V
Response:	0.002 s
Corrected spectra:	Off
Shutter control:	On

Processing performed
Savitsky-Golay smoothed
Smoothing order:	3
Number of points:	7
Number of times:	1

Peak integration
Integration method:	Rectangular
Sensitivity:	1
Threshold:	1.000

Peaks
No.	Start(nm)	Apex(nm)	End(nm)	Height(Data)	Valley(nm)	Valley(Data)
1	420.0	546.6	778.8	4502	778.8	4.557
2	778.8	803.4	850.0	25.67	850.0	1.148

Data points
nm	Data
420.0	8.693
420.2	8.629
420.4	8.632
420.6	8.653
420.8	8.589
421.0	8.505
421.2	8.485
421.4	8.599
421.6	8.701
421.8	8.794
422.0	8.756
422.2	8.784
422.4	8.811
422.6	8.899
422.8	8.901
423.0	8.827
423.2	8.796
423.4	8.863
423.6	8.930
423.8	9.097
424.0	9.085
424.2	9.154
424.4	9.192
424.6	9.267
424.8	9.344
425.0	9.414
425.2	9.287
425.4	9.358
425.6	9.448
425.8	9.562
426.0	9.541
426.2	9.509
426.4	9.548
426.6	9.737
426.8	9.965
427.0	9.973
427.2	9.878
427.4	9.780
427.6	9.861
427.8	9.948
428.0	10.07
428.2	10.09
428.4	10.15
428.6	10.18
428.8	10.23
429.0	10.29
429.2	10.42
429.4	10.46
429.6	10.52
429.8	10.64
430.0	10.69
430.2	10.76
430.4	10.81
430.6	10.82
430.8	10.77
431.0	10.85
431.2	10.93
431.4	11.06
431.6	11.23
431.8	11.22
432.0	11.16
432.2	11.23
432.4	11.32
432.6	11.42
432.8	11.47
433.0	11.51
433.2	11.51
433.4	11.56
433.6	11.78
433.8	11.84
434.0	11.87
434.2	11.94
434.4	11.92
434.6	12.02
434.8	12.27
435.0	12.46
435.2	12.60
435.4	12.66
435.6	12.74
435.8	12.77
436.0	12.77
436.2	12.94
436.4	13.01
436.6	13.15
436.8	13.29
437.0	13.48
437.2	13.56
437.4	13.75
437.6	13.76
437.8	13.80
438.0	14.01
438.2	14.34
438.4	14.45
438.6	14.57
438.8	14.58
439.0	14.69
439.2	15.00
439.4	15.27
439.6	15.35
439.8	15.31
440.0	15.38
440.2	15.54
440.4	15.87
440.6	16.17
440.8	16.24
441.0	16.25
441.2	16.42
441.4	16.71
441.6	17.05
441.8	17.24
442.0	17.36
442.2	17.43
442.4	17.64
442.6	18.14
442.8	18.39
443.0	18.59
443.2	18.91
443.4	19.09
443.6	19.37
443.8	19.82
444.0	19.97
444.2	20.16
444.4	20.17
444.6	20.34
444.8	20.65
445.0	21.00
445.2	21.36
445.4	21.76
445.6	21.92
445.8	22.21
446.0	22.55
446.2	22.67
446.4	22.93
446.6	23.27
446.8	23.50
447.0	23.83
447.2	24.27
447.4	24.44
447.6	24.73
447.8	25.03
448.0	25.18
448.2	25.58
448.4	25.91
448.6	26.20
448.8	26.55
449.0	26.98
449.2	27.10
449.4	27.44
449.6	27.62
449.8	27.93
450.0	28.51
450.2	29.15
450.4	29.34
450.6	29.61
450.8	29.91
451.0	30.24
451.2	30.63
451.4	30.79
451.6	30.93
451.8	31.09
452.0	31.42
452.2	31.92
452.4	32.33
452.6	32.76
452.8	33.06
453.0	33.22
453.2	33.29
453.4	33.66
453.6	33.90
453.8	34.29
454.0	34.40
454.2	34.49
454.4	34.65
454.6	35.01
454.8	35.45
455.0	35.82
455.2	36.19
455.4	36.60
455.6	36.96
455.8	37.31
456.0	37.59
456.2	37.61
456.4	37.86
456.6	38.26
456.8	38.62
457.0	38.87
457.2	38.91
457.4	38.83
457.6	38.98
457.8	39.33
458.0	39.63
458.2	39.90
458.4	40.07
458.6	40.32
458.8	40.55
459.0	41.00
459.2	41.44
459.4	41.85
459.6	42.07
459.8	42.26
460.0	42.35
460.2	42.62
460.4	43.13
460.6	43.50
460.8	43.66
461.0	43.61
461.2	43.74
461.4	43.94
461.6	44.47
461.8	45.06
462.0	45.45
462.2	45.66
462.4	45.80
462.6	46.13
462.8	46.37
463.0	46.67
463.2	46.83
463.4	47.15
463.6	47.34
463.8	47.97
464.0	48.41
464.2	48.99
464.4	49.50
464.6	49.91
464.8	50.27
465.0	50.41
465.2	50.74
465.4	51.32
465.6	51.77
465.8	52.13
466.0	52.80
466.2	53.15
466.4	54.03
466.6	54.66
466.8	55.02
467.0	55.68
467.2	56.12
467.4	56.65
467.6	57.45
467.8	58.05
468.0	58.96
468.2	59.88
468.4	60.45
468.6	60.97
468.8	61.35
469.0	62.00
469.2	62.87
469.4	63.83
469.6	65.04
469.8	65.70
470.0	66.60
470.2	67.85
470.4	68.82
470.6	69.93
470.8	70.94
471.0	71.53
471.2	72.44
471.4	73.37
471.6	74.41
471.8	75.53
472.0	76.66
472.2	77.96
472.4	79.47
472.6	80.64
472.8	81.66
473.0	82.63
473.2	83.70
473.4	85.13
473.6	86.91
473.8	88.77
474.0	90.22
474.2	92.03
474.4	93.43
474.6	95.29
474.8	96.70
475.0	98.50
475.2	99.87
475.4	101.7
475.6	103.6
475.8	105.4
476.0	107.0
476.2	109.1
476.4	111.1
476.6	113.2
476.8	115.1
477.0	116.6
477.2	118.3
477.4	120.7
477.6	123.6
477.8	126.4
478.0	128.5
478.2	130.6
478.4	132.0
478.6	134.0
478.8	136.3
479.0	138.4
479.2	141.2
479.4	144.1
479.6	146.7
479.8	149.9
480.0	153.2
480.2	156.5
480.4	160.0
480.6	162.8
480.8	165.5
481.0	168.3
481.2	171.4
481.4	174.5
481.6	177.7
481.8	181.0
482.0	184.4
482.2	188.1
482.4	191.8
482.6	195.4
482.8	199.1
483.0	203.1
483.2	206.7
483.4	210.0
483.6	213.6
483.8	217.6
484.0	221.8
484.2	225.9
484.4	230.0
484.6	233.9
484.8	238.5
485.0	243.5
485.2	248.3
485.4	252.8
485.6	257.5
485.8	262.7
486.0	267.6
486.2	272.4
486.4	277.2
486.6	282.3
486.8	287.5
487.0	293.0
487.2	298.6
487.4	303.8
487.6	308.8
487.8	314.8
488.0	320.3
488.2	326.1
488.4	332.6
488.6	339.0
488.8	345.0
489.0	352.0
489.2	358.4
489.4	364.7
489.6	371.6
489.8	378.7
490.0	386.4
490.2	393.9
490.4	401.4
490.6	408.6
490.8	416.0
491.0	422.6
491.2	430.0
491.4	438.3
491.6	446.2
491.8	454.4
492.0	462.3
492.2	471.5
492.4	480.1
492.6	489.3
492.8	497.3
493.0	505.4
493.2	514.2
493.4	524.0
493.6	533.5
493.8	543.0
494.0	552.6
494.2	562.5
494.4	572.8
494.6	582.2
494.8	592.3
495.0	602.3
495.2	613.5
495.4	625.7
495.6	637.0
495.8	647.8
496.0	658.1
496.2	668.6
496.4	680.1
496.6	692.2
496.8	704.5
497.0	716.6
497.2	727.9
497.4	739.4
497.6	751.1
497.8	763.6
498.0	777.0
498.2	790.7
498.4	802.8
498.6	814.8
498.8	827.1
499.0	840.1
499.2	854.5
499.4	869.0
499.6	883.5
499.8	899.0
500.0	912.7
500.2	926.8
500.4	941.2
500.6	955.5
500.8	971.9
501.0	988.2
501.2	1005
501.4	1022
501.6	1038
501.8	1054
502.0	1069
502.2	1082
502.4	1098
502.6	1114
502.8	1133
503.0	1150
503.2	1166
503.4	1182
503.6	1197
503.8	1214
504.0	1232
504.2	1251
504.4	1270
504.6	1288
504.8	1306
505.0	1324
505.2	1341
505.4	1360
505.6	1378
505.8	1398
506.0	1417
506.2	1437
506.4	1458
506.6	1476
506.8	1494
507.0	1512
507.2	1530
507.4	1551
507.6	1573
507.8	1592
508.0	1612
508.2	1630
508.4	1650
508.6	1671
508.8	1689
509.0	1708
509.2	1731
509.4	1752
509.6	1774
509.8	1798
510.0	1818
510.2	1839
510.4	1861
510.6	1883
510.8	1903
511.0	1924
511.2	1945
511.4	1967
511.6	1989
511.8	2012
512.0	2034
512.2	2058
512.4	2079
512.6	2102
512.8	2121
513.0	2140
513.2	2159
513.4	2182
513.6	2202
513.8	2225
514.0	2249
514.2	2272
514.4	2294
514.6	2317
514.8	2337
515.0	2359
515.2	2382
515.4	2408
515.6	2433
515.8	2455
516.0	2478
516.2	2503
516.4	2524
516.6	2546
516.8	2567
517.0	2586
517.2	2606
517.4	2627
517.6	2647
517.8	2670
518.0	2691
518.2	2715
518.4	2736
518.6	2757
518.8	2779
519.0	2803
519.2	2826
519.4	2849
519.6	2872
519.8	2894
520.0	2915
520.2	2942
520.4	2967
520.6	2987
520.8	3009
521.0	3028
521.2	3046
521.4	3071
521.6	3090
521.8	3111
522.0	3131
522.2	3151
522.4	3171
522.6	3193
522.8	3213
523.0	3234
523.2	3255
523.4	3279
523.6	3299
523.8	3317
524.0	3334
524.2	3351
524.4	3370
524.6	3393
524.8	3416
525.0	3438
525.2	3455
525.4	3475
525.6	3488
525.8	3507
526.0	3525
526.2	3543
526.4	3558
526.6	3578
526.8	3598
527.0	3621
527.2	3644
527.4	3662
527.6	3673
527.8	3689
528.0	3708
528.2	3727
528.4	3746
528.6	3762
528.8	3775
529.0	3791
529.2	3805
529.4	3826
529.6	3840
529.8	3854
530.0	3866
530.2	3881
530.4	3896
530.6	3913
530.8	3928
531.0	3941
531.2	3953
531.4	3968
531.6	3984
531.8	3997
532.0	4009
532.2	4022
532.4	4037
532.6	4053
532.8	4069
533.0	4082
533.2	4092
533.4	4106
533.6	4119
533.8	4129
534.0	4141
534.2	4151
534.4	4162
534.6	4176
534.8	4189
535.0	4201
535.2	4211
535.4	4219
535.6	4227
535.8	4233
536.0	4241
536.2	4252
536.4	4263
536.6	4275
536.8	4285
537.0	4292
537.2	4300
537.4	4312
537.6	4321
537.8	4332
538.0	4343
538.2	4347
538.4	4355
538.6	4359
538.8	4361
539.0	4371
539.2	4380
539.4	4383
539.6	4388
539.8	4389
540.0	4394
540.2	4404
540.4	4414
540.6	4418
540.8	4423
541.0	4428
541.2	4434
541.4	4439
541.6	4442
541.8	4447
542.0	4452
542.2	4457
542.4	4465
542.6	4466
542.8	4466
543.0	4471
543.2	4474
543.4	4478
543.6	4483
543.8	4481
544.0	4480
544.2	4482
544.4	4485
544.6	4490
544.8	4492
545.0	4493
545.2	4491
545.4	4491
545.6	4489
545.8	4491
546.0	4497
546.2	4498
546.4	4500
546.6	4502
546.8	4498
547.0	4496
547.2	4497
547.4	4496
547.6	4496
547.8	4493
548.0	4491
548.2	4487
548.4	4485
548.6	4486
548.8	4484
549.0	4480
549.2	4480
549.4	4480
549.6	4479
549.8	4480
550.0	4478
550.2	4476
550.4	4474
550.6	4470
550.8	4465
551.0	4461
551.2	4456
551.4	4455
551.6	4453
551.8	4446
552.0	4441
552.2	4433
552.4	4431
552.6	4428
552.8	4424
553.0	4418
553.2	4410
553.4	4401
553.6	4397
553.8	4391
554.0	4388
554.2	4383
554.4	4380
554.6	4377
554.8	4373
555.0	4369
555.2	4363
555.4	4355
555.6	4350
555.8	4345
556.0	4339
556.2	4330
556.4	4320
556.6	4316
556.8	4309
557.0	4303
557.2	4295
557.4	4284
557.6	4275
557.8	4269
558.0	4263
558.2	4254
558.4	4245
558.6	4234
558.8	4227
559.0	4219
559.2	4216
559.4	4207
559.6	4199
559.8	4190
560.0	4185
560.2	4175
560.4	4171
560.6	4160
560.8	4150
561.0	4141
561.2	4134
561.4	4127
561.6	4122
561.8	4109
562.0	4102
562.2	4091
562.4	4082
562.6	4071
562.8	4056
563.0	4046
563.2	4039
563.4	4028
563.6	4024
563.8	4014
564.0	4002
564.2	3994
564.4	3983
564.6	3972
564.8	3964
565.0	3953
565.2	3942
565.4	3932
565.6	3919
565.8	3908
566.0	3898
566.2	3886
566.4	3877
566.6	3869
566.8	3858
567.0	3847
567.2	3837
567.4	3825
567.6	3817
567.8	3808
568.0	3800
568.2	3791
568.4	3783
568.6	3774
568.8	3760
569.0	3747
569.2	3735
569.4	3724
569.6	3717
569.8	3706
570.0	3690
570.2	3675
570.4	3661
570.6	3650
570.8	3642
571.0	3633
571.2	3624
571.4	3611
571.6	3597
571.8	3581
572.0	3568
572.2	3557
572.4	3548
572.6	3541
572.8	3529
573.0	3519
573.2	3511
573.4	3501
573.6	3490
573.8	3477
574.0	3462
574.2	3452
574.4	3439
574.6	3432
574.8	3424
575.0	3412
575.2	3397
575.4	3382
575.6	3366
575.8	3354
576.0	3344
576.2	3330
576.4	3318
576.6	3307
576.8	3298
577.0	3287
577.2	3279
577.4	3266
577.6	3254
577.8	3242
578.0	3233
578.2	3223
578.4	3213
578.6	3203
578.8	3190
579.0	3176
579.2	3165
579.4	3150
579.6	3136
579.8	3124
580.0	3111
580.2	3099
580.4	3090
580.6	3076
580.8	3062
581.0	3049
581.2	3035
581.4	3025
581.6	3016
581.8	3005
582.0	2997
582.2	2987
582.4	2976
582.6	2965
582.8	2955
583.0	2943
583.2	2935
583.4	2926
583.6	2915
583.8	2903
584.0	2892
584.2	2879
584.4	2865
584.6	2853
584.8	2838
585.0	2826
585.2	2815
585.4	2806
585.6	2793
585.8	2782
586.0	2770
586.2	2759
586.4	2748
586.6	2739
586.8	2727
587.0	2717
587.2	2708
587.4	2695
587.6	2682
587.8	2667
588.0	2654
588.2	2642
588.4	2634
588.6	2625
588.8	2616
589.0	2604
589.2	2595
589.4	2582
589.6	2571
589.8	2560
590.0	2550
590.2	2539
590.4	2530
590.6	2519
590.8	2507
591.0	2495
591.2	2483
591.4	2471
591.6	2462
591.8	2453
592.0	2444
592.2	2434
592.4	2422
592.6	2413
592.8	2403
593.0	2391
593.2	2380
593.4	2369
593.6	2358
593.8	2346
594.0	2335
594.2	2323
594.4	2312
594.6	2303
594.8	2292
595.0	2283
595.2	2276
595.4	2265
595.6	2256
595.8	2247
596.0	2237
596.2	2228
596.4	2220
596.6	2208
596.8	2196
597.0	2186
597.2	2176
597.4	2166
597.6	2157
597.8	2147
598.0	2136
598.2	2126
598.4	2116
598.6	2104
598.8	2092
599.0	2083
599.2	2076
599.4	2067
599.6	2059
599.8	2047
600.0	2035
600.2	2026
600.4	2018
600.6	2012
600.8	2002
601.0	1992
601.2	1982
601.4	1969
601.6	1961
601.8	1954
602.0	1945
602.2	1936
602.4	1926
602.6	1914
602.8	1907
603.0	1896
603.2	1886
603.4	1874
603.6	1862
603.8	1852
604.0	1844
604.2	1837
604.4	1830
604.6	1821
604.8	1813
605.0	1803
605.2	1791
605.4	1782
605.6	1774
605.8	1764
606.0	1757
606.2	1749
606.4	1739
606.6	1729
606.8	1720
607.0	1711
607.2	1703
607.4	1693
607.6	1685
607.8	1675
608.0	1667
608.2	1657
608.4	1648
608.6	1638
608.8	1630
609.0	1622
609.2	1613
609.4	1604
609.6	1598
609.8	1589
610.0	1581
610.2	1574
610.4	1565
610.6	1557
610.8	1550
611.0	1542
611.2	1534
611.4	1525
611.6	1515
611.8	1505
612.0	1497
612.2	1489
612.4	1480
612.6	1472
612.8	1463
613.0	1455
613.2	1449
613.4	1440
613.6	1432
613.8	1426
614.0	1418
614.2	1411
614.4	1403
614.6	1393
614.8	1384
615.0	1378
615.2	1371
615.4	1364
615.6	1356
615.8	1346
616.0	1338
616.2	1331
616.4	1324
616.6	1317
616.8	1309
617.0	1301
617.2	1295
617.4	1288
617.6	1281
617.8	1272
618.0	1263
618.2	1257
618.4	1251
618.6	1245
618.8	1237
619.0	1229
619.2	1221
619.4	1215
619.6	1208
619.8	1202
620.0	1194
620.2	1187
620.4	1178
620.6	1171
620.8	1165
621.0	1157
621.2	1152
621.4	1146
621.6	1138
621.8	1131
622.0	1125
622.2	1118
622.4	1113
622.6	1106
622.8	1100
623.0	1094
623.2	1086
623.4	1079
623.6	1072
623.8	1066
624.0	1061
624.2	1054
624.4	1046
624.6	1042
624.8	1036
625.0	1029
625.2	1023
625.4	1015
625.6	1008
625.8	1003
626.0	997.4
626.2	992.4
626.4	986.1
626.6	978.9
626.8	972.7
627.0	966.4
627.2	960.4
627.4	954.8
627.6	949.8
627.8	944.1
628.0	937.2
628.2	930.6
628.4	923.3
628.6	917.8
628.8	914.4
629.0	908.2
629.2	901.9
629.4	895.6
629.6	888.5
629.8	883.4
630.0	879.1
630.2	871.2
630.4	865.3
630.6	860.0
630.8	855.2
631.0	850.7
631.2	846.8
631.4	840.0
631.6	834.3
631.8	829.7
632.0	825.4
632.2	820.5
632.4	815.8
632.6	809.7
632.8	804.8
633.0	800.3
633.2	796.3
633.4	792.1
633.6	787.6
633.8	781.9
634.0	776.2
634.2	770.2
634.4	764.7
634.6	760.0
634.8	756.3
635.0	751.7
635.2	746.7
635.4	741.0
635.6	735.3
635.8	730.4
636.0	725.6
636.2	721.6
636.4	717.2
636.6	712.8
636.8	708.2
637.0	703.0
637.2	698.4
637.4	694.5
637.6	689.5
637.8	685.1
638.0	681.4
638.2	677.7
638.4	674.0
638.6	670.6
638.8	665.8
639.0	660.6
639.2	656.1
639.4	651.2
639.6	646.1
639.8	642.3
640.0	638.8
640.2	635.2
640.4	630.9
640.6	625.7
640.8	620.9
641.0	616.4
641.2	613.2
641.4	609.4
641.6	605.6
641.8	600.8
642.0	596.5
642.2	592.8
642.4	588.9
642.6	585.3
642.8	581.9
643.0	577.6
643.2	574.0
643.4	570.3
643.6	566.4
643.8	563.4
644.0	560.1
644.2	556.7
644.4	553.0
644.6	549.0
644.8	545.6
645.0	543.2
645.2	539.7
645.4	535.9
645.6	531.1
645.8	526.6
646.0	521.9
646.2	518.7
646.4	514.9
646.6	511.9
646.8	509.0
647.0	505.3
647.2	502.4
647.4	498.4
647.6	494.3
647.8	490.8
648.0	487.4
648.2	484.2
648.4	482.5
648.6	479.6
648.8	476.6
649.0	473.6
649.2	470.5
649.4	466.9
649.6	463.2
649.8	459.8
650.0	456.0
650.2	452.9
650.4	449.9
650.6	446.7
650.8	444.0
651.0	440.8
651.2	437.8
651.4	435.0
651.6	432.5
651.8	430.2
652.0	427.3
652.2	424.0
652.4	420.7
652.6	417.4
652.8	414.0
653.0	411.3
653.2	408.2
653.4	405.8
653.6	403.9
653.8	401.5
654.0	398.1
654.2	394.8
654.4	392.0
654.6	389.8
654.8	387.4
655.0	384.2
655.2	381.3
655.4	378.8
655.6	377.0
655.8	375.3
656.0	372.5
656.2	368.9
656.4	366.2
656.6	363.5
656.8	361.3
657.0	359.3
657.2	357.4
657.4	354.7
657.6	351.1
657.8	348.0
658.0	345.2
658.2	343.1
658.4	341.5
658.6	339.4
658.8	336.6
659.0	334.3
659.2	332.1
659.4	329.7
659.6	327.3
659.8	325.2
660.0	323.1
660.2	321.2
660.4	319.1
660.6	316.6
660.8	313.6
661.0	311.0
661.2	309.0
661.4	307.2
661.6	305.5
661.8	303.1
662.0	299.8
662.2	296.9
662.4	295.5
662.6	293.8
662.8	292.7
663.0	290.2
663.2	288.0
663.4	285.5
663.6	284.5
663.8	282.7
664.0	280.4
664.2	277.2
664.4	275.1
664.6	272.7
664.8	271.6
665.0	269.5
665.2	267.4
665.4	265.1
665.6	263.6
665.8	262.6
666.0	261.3
666.2	258.8
666.4	256.9
666.6	254.8
666.8	253.0
667.0	252.0
667.2	250.8
667.4	249.1
667.6	247.7
667.8	245.4
668.0	242.7
668.2	239.9
668.4	237.7
668.6	235.5
668.8	234.2
669.0	232.7
669.2	232.0
669.4	231.5
669.6	230.0
669.8	227.7
670.0	225.2
670.2	222.7
670.4	221.4
670.6	220.7
670.8	219.3
671.0	218.0
671.2	216.1
671.4	214.2
671.6	212.6
671.8	211.3
672.0	210.1
672.2	208.6
672.4	206.9
672.6	205.1
672.8	203.9
673.0	202.4
673.2	201.2
673.4	199.4
673.6	197.5
673.8	195.6
674.0	194.8
674.2	193.2
674.4	192.2
674.6	191.0
674.8	189.3
675.0	187.5
675.2	186.4
675.4	184.7
675.6	183.2
675.8	182.1
676.0	180.0
676.2	178.5
676.4	177.5
676.6	176.5
676.8	175.5
677.0	174.6
677.2	172.7
677.4	171.3
677.6	170.0
677.8	169.3
678.0	168.3
678.2	166.7
678.4	164.8
678.6	163.4
678.8	162.1
679.0	161.6
679.2	160.5
679.4	159.1
679.6	157.9
679.8	156.9
680.0	155.5
680.2	154.3
680.4	153.1
680.6	151.7
680.8	150.6
681.0	149.7
681.2	148.4
681.4	147.7
681.6	147.3
681.8	146.8
682.0	146.1
682.2	145.0
682.4	143.4
682.6	141.8
682.8	140.2
683.0	139.2
683.2	138.6
683.4	137.8
683.6	137.0
683.8	135.8
684.0	134.3
684.2	133.0
684.4	132.0
684.6	130.8
684.8	130.2
685.0	129.9
685.2	128.7
685.4	127.6
685.6	126.7
685.8	125.6
686.0	124.6
686.2	124.3
686.4	123.4
686.6	122.4
686.8	121.6
687.0	120.4
687.2	119.0
687.4	118.4
687.6	117.3
687.8	116.3
688.0	115.6
688.2	114.3
688.4	113.7
688.6	112.9
688.8	112.0
689.0	111.3
689.2	110.3
689.4	109.1
689.6	108.7
689.8	107.6
690.0	106.8
690.2	106.4
690.4	105.7
690.6	105.0
690.8	104.3
691.0	103.0
691.2	102.2
691.4	101.8
691.6	101.2
691.8	100.7
692.0	99.71
692.2	98.37
692.4	97.46
692.6	96.76
692.8	96.05
693.0	95.55
693.2	95.11
693.4	94.30
693.6	93.79
693.8	93.17
694.0	92.44
694.2	91.84
694.4	91.42
694.6	90.72
694.8	90.24
695.0	89.22
695.2	88.46
695.4	87.68
695.6	87.08
695.8	86.89
696.0	86.43
696.2	85.64
696.4	85.14
696.6	84.09
696.8	83.20
697.0	82.81
697.2	82.36
697.4	82.05
697.6	81.91
697.8	81.41
698.0	80.79
698.2	80.17
698.4	79.57
698.6	78.85
698.8	78.59
699.0	78.42
699.2	77.79
699.4	76.93
699.6	76.35
699.8	75.75
700.0	75.55
700.2	75.35
700.4	74.58
700.6	73.77
700.8	73.35
701.0	72.75
701.2	72.60
701.4	72.04
701.6	71.21
701.8	70.70
702.0	70.20
702.2	69.67
702.4	69.80
702.6	69.27
702.8	68.76
703.0	68.49
703.2	67.87
703.4	67.52
703.6	66.98
703.8	66.33
704.0	65.89
704.2	65.64
704.4	65.02
704.6	64.72
704.8	63.95
705.0	63.50
705.2	63.38
705.4	63.32
705.6	62.63
705.8	62.10
706.0	61.54
706.2	61.05
706.4	60.68
706.6	60.28
706.8	59.63
707.0	59.34
707.2	59.30
707.4	59.13
707.6	58.84
707.8	58.41
708.0	57.72
708.2	57.35
708.4	56.91
708.6	56.50
708.8	56.33
709.0	56.12
709.2	55.50
709.4	54.99
709.6	54.41
709.8	54.14
710.0	54.18
710.2	54.01
710.4	53.58
710.6	52.80
710.8	52.32
711.0	51.91
711.2	51.71
711.4	51.43
711.6	51.29
711.8	50.88
712.0	50.55
712.2	50.15
712.4	49.91
712.6	49.59
712.8	49.25
713.0	48.81
713.2	48.15
713.4	47.80
713.6	47.51
713.8	47.16
714.0	46.80
714.2	46.43
714.4	46.06
714.6	45.74
714.8	45.55
715.0	45.48
715.2	45.24
715.4	44.82
715.6	44.37
715.8	43.78
716.0	43.66
716.2	43.38
716.4	43.26
716.6	43.00
716.8	42.57
717.0	42.23
717.2	42.13
717.4	41.71
717.6	41.58
717.8	41.16
718.0	40.58
718.2	40.17
718.4	39.90
718.6	39.66
718.8	39.38
719.0	39.00
719.2	38.68
719.4	38.40
719.6	38.19
719.8	38.01
720.0	37.74
720.2	37.42
720.4	37.21
720.6	36.90
720.8	36.71
721.0	36.46
721.2	36.18
721.4	35.82
721.6	35.63
721.8	35.36
722.0	35.22
722.2	34.69
722.4	34.38
722.6	34.02
