Sample:	'20211010A(EM)
File name:	G-c-NI-dots-CHO 600S2-.FDS
Run date:	'17:15:10, 03/22/2023
Operator:	Administrator
Comment:	'

Instrument
Model:	F-4700 FL Spectrophotometer
Serial number:	2019-001
ROM Version:	5J24010 00

Instrument parameters
Measurement type:	Wavelength scan
Scan mode:	Emission
Data mode:	Fluorescence
EX WL:	400.0 nm
EM  Start WL:	420.0 nm
EM  End WL:	850.0 nm
Scan speed:	1200 nm/min
Delay:	0.0 s
EX Slit:	10.0 nm
EM Slit:	10.0 nm
PMT Voltage:	410 V
Response:	0.002 s
Corrected spectra:	Off
Shutter control:	On

Processing performed
Savitsky-Golay smoothed
Smoothing order:	3
Number of points:	7
Number of times:	1

Peak integration
Integration method:	Rectangular
Sensitivity:	1
Threshold:	1.000

Peaks
No.	Start(nm)	Apex(nm)	End(nm)	Height(Data)	Valley(nm)	Valley(Data)
1	420.0	531.8	777.0	7574	777.0	5.871
2	777.0	803.8	850.0	140.5	850.0	2.048

Data points
nm	Data
420.0	23.48
420.2	23.16
420.4	23.01
420.6	23.00
420.8	23.12
421.0	23.47
421.2	23.60
421.4	23.63
421.6	23.63
421.8	23.58
422.0	23.64
422.2	23.78
422.4	23.82
422.6	23.87
422.8	24.07
423.0	24.42
423.2	24.50
423.4	24.50
423.6	24.49
423.8	24.34
424.0	24.51
424.2	24.69
424.4	24.79
424.6	25.00
424.8	25.18
425.0	25.19
425.2	25.27
425.4	25.27
425.6	25.29
425.8	25.37
426.0	25.39
426.2	25.45
426.4	25.57
426.6	25.77
426.8	26.14
427.0	26.35
427.2	26.36
427.4	26.62
427.6	26.70
427.8	26.69
428.0	26.89
428.2	26.69
428.4	26.56
428.6	26.89
428.8	27.05
429.0	27.39
429.2	27.83
429.4	27.98
429.6	27.89
429.8	27.84
430.0	27.76
430.2	27.87
430.4	28.07
430.6	28.40
430.8	28.58
431.0	28.77
431.2	28.74
431.4	28.88
431.6	29.00
431.8	29.36
432.0	29.68
432.2	30.09
432.4	30.03
432.6	30.27
432.8	30.41
433.0	30.60
433.2	30.63
433.4	30.72
433.6	30.68
433.8	30.97
434.0	31.18
434.2	31.81
434.4	32.14
434.6	32.11
434.8	32.06
435.0	32.03
435.2	32.22
435.4	32.79
435.6	33.30
435.8	33.49
436.0	33.72
436.2	33.92
436.4	34.30
436.6	34.49
436.8	34.79
437.0	35.12
437.2	35.42
437.4	35.92
437.6	36.16
437.8	36.42
438.0	36.81
438.2	37.28
438.4	37.52
438.6	38.01
438.8	38.45
439.0	38.77
439.2	39.10
439.4	39.53
439.6	39.75
439.8	40.15
440.0	40.68
440.2	41.14
440.4	41.73
440.6	42.63
440.8	43.31
441.0	43.85
441.2	44.22
441.4	44.39
441.6	44.71
441.8	45.27
442.0	46.06
442.2	46.86
442.4	47.73
442.6	48.41
442.8	49.01
443.0	49.60
443.2	50.04
443.4	50.65
443.6	51.42
443.8	52.43
444.0	53.26
444.2	54.17
444.4	54.43
444.6	55.16
444.8	56.11
445.0	57.29
445.2	58.36
445.4	59.50
445.6	59.91
445.8	60.58
446.0	61.42
446.2	62.26
446.4	63.41
446.6	64.64
446.8	65.86
447.0	66.92
447.2	68.05
447.4	68.98
447.6	70.41
447.8	71.57
448.0	73.41
448.2	74.83
448.4	76.31
448.6	77.55
448.8	78.59
449.0	79.90
449.2	81.46
449.4	82.54
449.6	83.88
449.8	85.48
450.0	87.09
450.2	89.45
450.4	91.37
450.6	92.68
450.8	94.08
451.0	95.63
451.2	97.43
451.4	99.28
451.6	101.5
451.8	103.6
452.0	106.0
452.2	108.3
452.4	110.8
452.6	112.7
452.8	115.0
453.0	117.7
453.2	120.1
453.4	122.7
453.6	125.7
453.8	127.8
454.0	130.5
454.2	132.9
454.4	135.4
454.6	138.6
454.8	142.0
455.0	145.6
455.2	149.1
455.4	151.8
455.6	155.0
455.8	158.2
456.0	161.7
456.2	166.2
456.4	170.4
456.6	175.1
456.8	179.0
457.0	182.9
457.2	186.9
457.4	191.7
457.6	196.0
457.8	201.1
458.0	205.6
458.2	210.6
458.4	215.6
458.6	220.6
458.8	225.4
459.0	231.4
459.2	237.3
459.4	243.1
459.6	249.2
459.8	255.1
460.0	262.1
460.2	269.4
460.4	276.6
460.6	283.7
460.8	290.9
461.0	298.0
461.2	306.0
461.4	314.0
461.6	321.8
461.8	329.4
462.0	337.4
462.2	345.2
462.4	353.9
462.6	362.8
462.8	372.3
463.0	382.6
463.2	392.3
463.4	401.8
463.6	410.5
463.8	420.1
464.0	430.6
464.2	442.8
464.4	454.1
464.6	466.2
464.8	476.9
465.0	488.7
465.2	500.1
465.4	512.8
465.6	524.3
465.8	537.5
466.0	550.4
466.2	564.4
466.4	577.2
466.6	590.8
466.8	602.1
467.0	615.4
467.2	628.9
467.4	643.4
467.6	657.3
467.8	671.9
468.0	687.0
468.2	704.3
468.4	720.5
468.6	736.1
468.8	750.8
469.0	767.1
469.2	785.3
469.4	804.5
469.6	823.4
469.8	841.5
470.0	858.9
470.2	877.4
470.4	896.8
470.6	915.9
470.8	936.1
471.0	955.1
471.2	972.6
471.4	990.9
471.6	1011
471.8	1030
472.0	1049
472.2	1069
472.4	1089
472.6	1110
472.8	1129
473.0	1150
473.2	1170
473.4	1191
473.6	1213
473.8	1235
474.0	1257
474.2	1281
474.4	1306
474.6	1330
474.8	1355
475.0	1380
475.2	1403
475.4	1428
475.6	1450
475.8	1474
476.0	1497
476.2	1521
476.4	1546
476.6	1571
476.8	1591
477.0	1615
477.2	1639
477.4	1667
477.6	1694
477.8	1721
478.0	1744
478.2	1769
478.4	1794
478.6	1823
478.8	1850
479.0	1876
479.2	1901
479.4	1926
479.6	1954
479.8	1984
480.0	2011
480.2	2041
480.4	2065
480.6	2091
480.8	2120
481.0	2147
481.2	2175
481.4	2204
481.6	2228
481.8	2255
482.0	2283
482.2	2310
482.4	2338
482.6	2366
482.8	2394
483.0	2425
483.2	2453
483.4	2482
483.6	2510
483.8	2539
484.0	2570
484.2	2600
484.4	2627
484.6	2657
484.8	2684
485.0	2714
485.2	2745
485.4	2775
485.6	2806
485.8	2837
486.0	2867
486.2	2898
486.4	2926
486.6	2955
486.8	2983
487.0	3012
487.2	3043
487.4	3073
487.6	3102
487.8	3131
488.0	3159
488.2	3187
488.4	3219
488.6	3252
488.8	3282
489.0	3314
489.2	3344
489.4	3369
489.6	3398
489.8	3426
490.0	3456
490.2	3489
490.4	3520
490.6	3554
490.8	3588
491.0	3619
491.2	3653
491.4	3683
491.6	3711
491.8	3744
492.0	3773
492.2	3805
492.4	3837
492.6	3870
492.8	3898
493.0	3927
493.2	3954
493.4	3985
493.6	4018
493.8	4050
494.0	4080
494.2	4108
494.4	4137
494.6	4167
494.8	4195
495.0	4225
495.2	4256
495.4	4288
495.6	4322
495.8	4354
496.0	4383
496.2	4414
496.4	4444
496.6	4475
496.8	4505
497.0	4536
497.2	4567
497.4	4599
497.6	4630
497.8	4659
498.0	4688
498.2	4717
498.4	4746
498.6	4777
498.8	4807
499.0	4835
499.2	4864
499.4	4896
499.6	4928
499.8	4958
500.0	4985
500.2	5015
500.4	5043
500.6	5077
500.8	5107
501.0	5138
501.2	5166
501.4	5196
501.6	5224
501.8	5255
502.0	5284
502.2	5317
502.4	5343
502.6	5372
502.8	5399
503.0	5425
503.2	5452
503.4	5481
503.6	5509
503.8	5537
504.0	5562
504.2	5588
504.4	5612
504.6	5642
504.8	5670
505.0	5695
505.2	5721
505.4	5749
505.6	5774
505.8	5806
506.0	5833
506.2	5864
506.4	5892
506.6	5918
506.8	5945
507.0	5973
507.2	5999
507.4	6025
507.6	6048
507.8	6072
508.0	6095
508.2	6119
508.4	6142
508.6	6164
508.8	6185
509.0	6211
509.2	6236
509.4	6261
509.6	6285
509.8	6308
510.0	6330
510.2	6356
510.4	6382
510.6	6411
510.8	6433
511.0	6457
511.2	6480
511.4	6497
511.6	6516
511.8	6540
512.0	6561
512.2	6585
512.4	6607
512.6	6622
512.8	6638
513.0	6653
513.2	6669
513.4	6691
513.6	6713
513.8	6733
514.0	6754
514.2	6774
514.4	6790
514.6	6815
514.8	6834
515.0	6855
515.2	6875
515.4	6891
515.6	6908
515.8	6926
516.0	6937
516.2	6955
516.4	6972
516.6	6989
516.8	7011
517.0	7028
517.2	7045
517.4	7059
517.6	7070
517.8	7079
518.0	7088
518.2	7099
518.4	7113
518.6	7128
518.8	7145
519.0	7159
519.2	7177
519.4	7194
519.6	7207
519.8	7225
520.0	7239
520.2	7252
520.4	7262
520.6	7272
520.8	7283
521.0	7295
521.2	7312
521.4	7325
521.6	7330
521.8	7342
522.0	7348
522.2	7355
522.4	7366
522.6	7372
522.8	7376
523.0	7383
523.2	7387
523.4	7395
523.6	7403
523.8	7412
524.0	7420
524.2	7435
524.4	7445
524.6	7455
524.8	7465
525.0	7472
525.2	7480
525.4	7490
525.6	7494
525.8	7503
526.0	7508
526.2	7519
526.4	7520
526.6	7524
526.8	7523
527.0	7523
527.2	7523
527.4	7529
527.6	7531
527.8	7539
528.0	7539
528.2	7541
528.4	7544
528.6	7543
528.8	7546
529.0	7551
529.2	7555
529.4	7558
529.6	7562
529.8	7565
530.0	7565
530.2	7569
530.4	7572
530.6	7573
530.8	7574
531.0	7572
531.2	7570
531.4	7571
531.6	7572
531.8	7574
532.0	7570
532.2	7569
532.4	7570
532.6	7567
532.8	7561
533.0	7554
533.2	7551
533.4	7554
533.6	7554
533.8	7552
534.0	7544
534.2	7544
534.4	7551
534.6	7553
534.8	7554
535.0	7548
535.2	7539
535.4	7532
535.6	7527
535.8	7517
536.0	7515
536.2	7512
536.4	7508
536.6	7503
536.8	7502
537.0	7494
537.2	7489
537.4	7485
537.6	7478
537.8	7468
538.0	7461
538.2	7452
538.4	7449
538.6	7445
538.8	7443
539.0	7433
539.2	7426
539.4	7420
539.6	7412
539.8	7404
540.0	7395
540.2	7387
540.4	7379
540.6	7371
540.8	7363
541.0	7352
541.2	7340
541.4	7334
541.6	7322
541.8	7317
542.0	7310
542.2	7303
542.4	7296
542.6	7284
542.8	7272
543.0	7256
543.2	7247
543.4	7240
543.6	7231
543.8	7222
544.0	7211
544.2	7195
544.4	7186
544.6	7172
544.8	7158
545.0	7145
545.2	7131
545.4	7120
545.6	7109
545.8	7100
546.0	7085
546.2	7073
546.4	7062
546.6	7051
546.8	7044
547.0	7038
547.2	7024
547.4	7012
547.6	6995
547.8	6981
548.0	6968
548.2	6957
548.4	6947
548.6	6935
548.8	6922
549.0	6907
549.2	6888
549.4	6869
549.6	6850
549.8	6833
550.0	6818
550.2	6804
550.4	6789
550.6	6770
550.8	6756
551.0	6738
551.2	6724
551.4	6716
551.6	6705
551.8	6694
552.0	6684
552.2	6667
552.4	6650
552.6	6633
552.8	6616
553.0	6601
553.2	6586
553.4	6572
553.6	6559
553.8	6546
554.0	6529
554.2	6513
554.4	6495
554.6	6473
554.8	6452
555.0	6432
555.2	6412
555.4	6394
555.6	6375
555.8	6357
556.0	6342
556.2	6329
556.4	6313
556.6	6297
556.8	6282
557.0	6266
557.2	6251
557.4	6236
557.6	6216
557.8	6200
558.0	6186
558.2	6172
558.4	6156
558.6	6135
558.8	6116
559.0	6095
559.2	6075
559.4	6057
559.6	6036
559.8	6016
560.0	5998
560.2	5977
560.4	5958
560.6	5938
560.8	5919
561.0	5904
561.2	5887
561.4	5872
561.6	5853
561.8	5834
562.0	5821
562.2	5800
562.4	5784
562.6	5768
562.8	5747
563.0	5726
563.2	5708
563.4	5687
563.6	5669
563.8	5652
564.0	5630
564.2	5608
564.4	5588
564.6	5570
564.8	5553
565.0	5537
565.2	5514
565.4	5494
565.6	5473
565.8	5451
566.0	5435
566.2	5419
566.4	5402
566.6	5387
566.8	5369
567.0	5351
567.2	5333
567.4	5313
567.6	5289
567.8	5268
568.0	5251
568.2	5234
568.4	5219
568.6	5201
568.8	5181
569.0	5161
569.2	5142
569.4	5120
569.6	5099
569.8	5074
570.0	5055
570.2	5035
570.4	5023
570.6	5005
570.8	4987
571.0	4965
571.2	4944
571.4	4926
571.6	4910
571.8	4892
572.0	4874
572.2	4852
572.4	4831
572.6	4808
572.8	4786
573.0	4769
573.2	4749
573.4	4735
573.6	4719
573.8	4701
574.0	4684
574.2	4666
574.4	4647
574.6	4633
574.8	4613
575.0	4594
575.2	4574
575.4	4555
575.6	4538
575.8	4523
576.0	4502
576.2	4480
576.4	4461
576.6	4440
576.8	4421
577.0	4403
577.2	4384
577.4	4366
577.6	4348
577.8	4328
578.0	4309
578.2	4287
578.4	4274
578.6	4260
578.8	4244
579.0	4228
579.2	4212
579.4	4192
579.6	4176
579.8	4158
580.0	4142
580.2	4122
580.4	4104
580.6	4083
580.8	4064
581.0	4046
581.2	4029
581.4	4013
581.6	3998
581.8	3980
582.0	3964
582.2	3942
582.4	3922
582.6	3902
582.8	3886
583.0	3869
583.2	3853
583.4	3834
583.6	3817
583.8	3800
584.0	3786
584.2	3768
584.4	3754
584.6	3738
584.8	3723
585.0	3709
585.2	3694
585.4	3675
585.6	3659
585.8	3639
586.0	3621
586.2	3602
586.4	3584
586.6	3566
586.8	3551
587.0	3537
587.2	3522
587.4	3505
587.6	3488
587.8	3470
588.0	3456
588.2	3439
588.4	3425
588.6	3409
588.8	3395
589.0	3382
589.2	3369
589.4	3352
589.6	3338
589.8	3323
590.0	3307
590.2	3289
590.4	3272
590.6	3253
590.8	3238
591.0	3223
591.2	3206
591.4	3186
591.6	3173
591.8	3158
592.0	3146
592.2	3131
592.4	3116
592.6	3100
592.8	3087
593.0	3073
593.2	3057
593.4	3042
593.6	3028
593.8	3015
594.0	3000
594.2	2984
594.4	2967
594.6	2951
594.8	2936
595.0	2923
595.2	2909
595.4	2896
595.6	2884
595.8	2868
596.0	2852
596.2	2839
596.4	2825
596.6	2813
596.8	2799
597.0	2784
597.2	2768
597.4	2756
597.6	2743
597.8	2729
598.0	2714
598.2	2698
598.4	2687
598.6	2675
598.8	2664
599.0	2651
599.2	2636
599.4	2619
599.6	2607
599.8	2591
600.0	2577
600.2	2562
600.4	2549
600.6	2538
600.8	2527
601.0	2518
601.2	2506
601.4	2493
601.6	2479
601.8	2465
602.0	2449
602.2	2439
602.4	2427
602.6	2416
602.8	2405
603.0	2391
603.2	2377
603.4	2365
603.6	2352
603.8	2338
604.0	2326
604.2	2313
604.4	2302
604.6	2290
604.8	2273
605.0	2259
605.2	2247
605.4	2236
605.6	2226
605.8	2214
606.0	2201
606.2	2190
606.4	2180
606.6	2168
606.8	2155
607.0	2142
607.2	2128
607.4	2118
607.6	2106
607.8	2091
608.0	2081
608.2	2070
608.4	2058
608.6	2050
608.8	2038
609.0	2025
609.2	2013
609.4	2002
609.6	1988
609.8	1977
610.0	1966
610.2	1953
610.4	1942
610.6	1934
610.8	1924
611.0	1914
611.2	1906
611.4	1895
611.6	1885
611.8	1876
612.0	1865
612.2	1852
612.4	1841
612.6	1829
612.8	1821
613.0	1812
613.2	1803
613.4	1791
613.6	1779
613.8	1764
614.0	1753
614.2	1740
614.4	1729
614.6	1720
614.8	1711
615.0	1701
615.2	1693
615.4	1683
615.6	1675
615.8	1664
616.0	1655
616.2	1643
616.4	1633
616.6	1623
616.8	1614
617.0	1603
617.2	1595
617.4	1585
617.6	1576
617.8	1566
618.0	1558
618.2	1549
618.4	1539
618.6	1530
618.8	1520
619.0	1511
619.2	1502
619.4	1493
619.6	1483
619.8	1474
620.0	1463
620.2	1456
620.4	1448
620.6	1439
620.8	1428
621.0	1418
621.2	1408
621.4	1399
621.6	1394
621.8	1386
622.0	1378
622.2	1370
622.4	1361
622.6	1350
622.8	1342
623.0	1334
623.2	1326
623.4	1319
623.6	1312
623.8	1304
624.0	1295
624.2	1286
624.4	1278
624.6	1269
624.8	1260
625.0	1252
625.2	1244
625.4	1236
625.6	1231
625.8	1223
626.0	1214
626.2	1205
626.4	1197
626.6	1188
626.8	1182
627.0	1176
627.2	1168
627.4	1160
627.6	1153
627.8	1142
628.0	1135
628.2	1129
628.4	1121
628.6	1115
628.8	1107
629.0	1098
629.2	1090
629.4	1083
629.6	1078
629.8	1072
630.0	1065
630.2	1058
630.4	1051
630.6	1044
630.8	1038
631.0	1031
631.2	1025
631.4	1019
631.6	1013
631.8	1005
632.0	996.6
632.2	988.7
632.4	983.6
632.6	977.7
632.8	972.1
633.0	965.6
633.2	957.8
633.4	950.8
633.6	946.5
633.8	940.3
634.0	935.6
634.2	928.5
634.4	920.3
634.6	913.9
634.8	908.2
635.0	902.1
635.2	896.5
635.4	888.4
635.6	882.1
635.8	877.0
636.0	871.7
636.2	865.5
636.4	860.4
636.6	855.2
636.8	849.3
637.0	844.4
637.2	839.0
637.4	831.3
637.6	827.4
637.8	822.5
638.0	816.3
638.2	810.2
638.4	804.3
638.6	798.6
638.8	793.8
639.0	788.2
639.2	783.2
639.4	778.1
639.6	773.4
639.8	767.4
640.0	761.0
640.2	755.1
640.4	750.2
640.6	747.0
640.8	743.1
641.0	737.4
641.2	732.6
641.4	727.0
641.6	721.4
641.8	716.5
642.0	713.0
642.2	708.4
642.4	703.3
642.6	697.9
642.8	691.7
643.0	685.7
643.2	682.1
643.4	677.8
643.6	673.3
643.8	669.1
644.0	663.8
644.2	659.0
644.4	655.0
644.6	650.9
644.8	646.4
645.0	641.1
645.2	636.5
645.4	632.3
645.6	627.2
645.8	622.5
646.0	618.6
646.2	614.8
646.4	611.8
646.6	607.7
646.8	602.4
647.0	597.1
647.2	592.6
647.4	588.7
647.6	584.8
647.8	579.7
648.0	575.1
648.2	571.8
648.4	568.8
648.6	565.4
648.8	561.0
649.0	556.6
649.2	552.9
649.4	549.2
649.6	546.6
649.8	543.0
650.0	538.3
650.2	534.8
650.4	531.4
650.6	527.7
650.8	524.2
651.0	520.5
651.2	516.0
651.4	511.3
651.6	507.4
651.8	504.4
652.0	500.8
652.2	497.8
652.4	494.9
652.6	491.2
652.8	487.7
653.0	484.3
653.2	481.3
653.4	477.0
653.6	472.7
653.8	468.1
654.0	463.9
654.2	460.6
654.4	459.2
654.6	456.5
654.8	453.3
655.0	450.4
655.2	447.5
655.4	443.7
655.6	440.9
655.8	437.6
656.0	435.0
656.2	432.4
656.4	429.1
656.6	425.4
656.8	421.9
657.0	419.3
657.2	417.0
657.4	414.1
657.6	410.5
657.8	407.7
658.0	404.4
658.2	401.8
658.4	399.1
658.6	395.9
658.8	392.2
659.0	389.7
659.2	386.7
659.4	383.6
659.6	381.8
659.8	379.1
660.0	375.6
660.2	373.0
660.4	370.2
660.6	367.1
660.8	365.0
661.0	362.8
661.2	360.0
661.4	357.3
661.6	354.2
661.8	350.8
662.0	348.1
662.2	345.9
662.4	343.4
662.6	341.3
662.8	338.4
663.0	335.7
663.2	333.4
663.4	331.3
663.6	329.3
663.8	326.9
664.0	324.2
664.2	321.5
664.4	318.7
664.6	316.6
664.8	314.2
665.0	311.7
665.2	310.0
665.4	307.3
665.6	305.4
665.8	303.1
666.0	299.8
666.2	297.8
666.4	296.2
666.6	294.3
666.8	293.3
667.0	291.4
667.2	288.7
667.4	286.3
667.6	283.8
667.8	281.2
668.0	279.0
668.2	277.5
668.4	276.0
668.6	273.8
668.8	272.0
669.0	269.0
669.2	266.7
669.4	264.3
669.6	262.6
669.8	260.6
670.0	259.5
670.2	257.5
670.4	255.9
670.6	253.6
670.8	252.2
671.0	250.4
671.2	248.7
671.4	246.4
671.6	244.4
671.8	242.1
672.0	240.1
672.2	238.3
672.4	236.4
672.6	234.3
672.8	232.7
673.0	230.9
673.2	229.2
673.4	227.6
673.6	225.9
673.8	223.6
674.0	222.6
674.2	221.4
674.4	220.3
674.6	219.3
674.8	217.5
675.0	215.2
675.2	213.6
675.4	211.6
675.6	209.9
675.8	208.3
676.0	206.3
676.2	204.9
676.4	203.3
676.6	201.7
676.8	200.3
677.0	198.8
677.2	197.2
677.4	195.6
677.6	194.1
677.8	192.8
678.0	191.3
678.2	190.3
678.4	188.7
678.6	187.8
678.8	186.7
679.0	185.8
679.2	184.4
679.4	182.6
679.6	179.7
679.8	177.9
680.0	176.5
680.2	175.7
680.4	174.5
680.6	173.6
680.8	172.2
681.0	170.8
681.2	169.4
681.4	167.9
681.6	165.7
681.8	164.8
682.0	163.6
682.2	162.8
682.4	161.9
682.6	160.8
682.8	159.4
683.0	158.4
683.2	156.9
683.4	155.5
683.6	154.3
683.8	153.4
684.0	152.3
684.2	151.4
684.4	150.4
684.6	149.1
684.8	148.2
685.0	147.1
685.2	145.5
685.4	143.7
685.6	142.7
685.8	141.8
686.0	140.8
686.2	140.1
686.4	138.7
686.6	137.3
686.8	136.3
687.0	135.5
687.2	134.2
687.4	133.3
687.6	132.2
687.8	131.4
688.0	130.2
688.2	129.1
688.4	128.2
688.6	127.3
688.8	126.8
689.0	126.1
689.2	124.7
689.4	123.9
689.6	122.8
689.8	122.0
690.0	121.3
690.2	120.0
690.4	118.7
690.6	117.6
690.8	116.7
691.0	116.1
691.2	115.4
691.4	114.4
691.6	113.6
691.8	112.6
692.0	112.3
692.2	111.7
692.4	111.2
692.6	109.9
692.8	108.9
693.0	107.4
693.2	106.8
693.4	105.9
693.6	105.4
693.8	104.9
694.0	104.9
694.2	103.9
694.4	103.3
694.6	102.0
694.8	100.5
695.0	99.59
695.2	98.97
695.4	98.47
695.6	98.31
695.8	98.12
696.0	97.59
696.2	96.53
696.4	95.24
696.6	94.15
696.8	93.47
697.0	93.04
697.2	92.57
697.4	91.69
697.6	91.12
697.8	90.72
698.0	90.52
698.2	90.17
698.4	89.59
698.6	88.63
698.8	88.01
699.0	87.30
699.2	86.55
699.4	85.81
699.6	85.08
699.8	84.55
700.0	84.10
700.2	83.69
700.4	83.21
700.6	82.59
700.8	81.89
701.0	80.90
701.2	80.18
701.4	79.63
701.6	79.50
701.8	79.29
702.0	78.89
702.2	77.99
702.4	77.42
702.6	76.65
702.8	76.35
703.0	75.92
703.2	75.53
703.4	75.01
703.6	74.48
703.8	73.78
704.0	73.73
704.2	73.46
704.4	73.29
704.6	72.81
704.8	72.19
705.0	71.50
705.2	71.23
705.4	70.46
705.6	69.92
705.8	69.28
706.0	68.62
706.2	68.20
706.4	67.69
706.6	67.10
706.8	66.64
707.0	66.17
707.2	65.74
707.4	65.40
707.6	65.09
707.8	64.66
708.0	64.39
708.2	63.96
708.4	63.24
708.6	62.55
708.8	62.02
709.0	61.34
709.2	61.15
709.4	60.83
709.6	60.30
709.8	60.07
710.0	59.96
710.2	59.72
710.4	59.46
710.6	58.95
710.8	58.43
711.0	57.78
711.2	57.42
711.4	56.95
711.6	56.65
711.8	56.22
712.0	55.92
712.2	55.32
712.4	55.01
712.6	54.55
712.8	54.20
713.0	53.92
713.2	53.28
713.4	52.80
713.6	52.48
713.8	52.37
714.0	51.90
714.2	51.41
714.4	50.82
714.6	50.63
714.8	50.49
715.0	50.34
715.2	49.95
715.4	49.51
715.6	49.25
715.8	48.83
716.0	48.44
716.2	47.74
716.4	47.29
716.6	46.72
716.8	46.51
717.0	46.15
717.2	45.86
717.4	45.58
717.6	45.27
717.8	44.60
718.0	44.47
718.2	44.04
718.4	43.69
718.6	43.44
718.8	43.15
719.0	42.71
719.2	42.58
719.4	42.21
719.6	41.69
719.8	41.50
720.0	41.34
720.2	41.07
720.4	40.96
720.6	40.71
720.8	40.15
721.0	39.83
721.2	39.61
721.4	39.09
721.6	38.92
721.8	38.81
722.0	38.65
722.2	38.48
722.4	38.06
722.6	37.42
722.8	36.93
723.0	36.40
723.2	36.28
723.4	36.19
723.6	35.96
723.8	35.83
724.0	35.54
724.2	35.08
724.4	34.79
724.6	34.39
724.8	34.25
725.0	34.13
725.2	34.01
725.4	33.68
