Sample:	'20211010A(EM)
File name:	G-c-dots 300S2-.FDS
Run date:	'16:42:52, 03/22/2023
Operator:	Administrator
Comment:	'

Instrument
Model:	F-4700 FL Spectrophotometer
Serial number:	2019-001
ROM Version:	5J24010 00

Instrument parameters
Measurement type:	Wavelength scan
Scan mode:	Emission
Data mode:	Fluorescence
EX WL:	400.0 nm
EM  Start WL:	420.0 nm
EM  End WL:	850.0 nm
Scan speed:	1200 nm/min
Delay:	0.0 s
EX Slit:	10.0 nm
EM Slit:	10.0 nm
PMT Voltage:	405 V
Response:	0.002 s
Corrected spectra:	Off
Shutter control:	On

Processing performed
Savitsky-Golay smoothed
Smoothing order:	3
Number of points:	7
Number of times:	1

Peak integration
Integration method:	Rectangular
Sensitivity:	1
Threshold:	1.000

Peaks
No.	Start(nm)	Apex(nm)	End(nm)	Height(Data)	Valley(nm)	Valley(Data)
1	420.0	545.8	777.8	4788	777.8	4.802
2	777.8	802.2	850.0	38.31	850.0	1.160

Data points
nm	Data
420.0	9.985
420.2	10.04
420.4	10.15
420.6	10.26
420.8	10.31
421.0	10.24
421.2	10.14
421.4	10.23
421.6	10.30
421.8	10.49
422.0	10.60
422.2	10.56
422.4	10.52
422.6	10.65
422.8	10.77
423.0	10.89
423.2	10.90
423.4	10.83
423.6	10.86
423.8	10.96
424.0	11.15
424.2	11.28
424.4	11.26
424.6	11.24
424.8	11.10
425.0	11.06
425.2	11.08
425.4	11.17
425.6	11.30
425.8	11.47
426.0	11.53
426.2	11.53
426.4	11.49
426.6	11.61
426.8	11.73
427.0	11.81
427.2	11.83
427.4	11.86
427.6	11.99
427.8	12.13
428.0	12.24
428.2	12.25
428.4	12.25
428.6	12.34
428.8	12.41
429.0	12.45
429.2	12.48
429.4	12.51
429.6	12.75
429.8	12.89
430.0	12.85
430.2	12.89
430.4	12.82
430.6	12.84
430.8	13.03
431.0	13.16
431.2	13.29
431.4	13.44
431.6	13.57
431.8	13.66
432.0	13.74
432.2	13.60
432.4	13.72
432.6	13.79
432.8	13.84
433.0	13.93
433.2	13.93
433.4	13.91
433.6	14.09
433.8	14.18
434.0	14.36
434.2	14.48
434.4	14.58
434.6	14.78
434.8	15.04
435.0	15.15
435.2	15.34
435.4	15.25
435.6	15.19
435.8	15.35
436.0	15.58
436.2	15.82
436.4	16.06
436.6	16.09
436.8	16.13
437.0	16.26
437.2	16.28
437.4	16.38
437.6	16.68
437.8	16.75
438.0	17.05
438.2	17.16
438.4	17.26
438.6	17.21
438.8	17.49
439.0	17.59
439.2	17.91
439.4	18.18
439.6	18.38
439.8	18.62
440.0	19.04
440.2	19.32
440.4	19.50
440.6	19.59
440.8	19.82
441.0	19.98
441.2	20.10
441.4	20.26
441.6	20.58
441.8	20.79
442.0	21.28
442.2	21.37
442.4	21.41
442.6	21.52
442.8	21.79
443.0	22.13
443.2	22.66
443.4	23.04
443.6	23.24
443.8	23.43
444.0	23.63
444.2	24.07
444.4	24.40
444.6	24.86
444.8	25.20
445.0	25.53
445.2	25.80
445.4	26.19
445.6	26.45
445.8	26.82
446.0	27.09
446.2	27.44
446.4	27.80
446.6	28.07
446.8	28.45
447.0	28.80
447.2	29.31
447.4	29.97
447.6	30.37
447.8	30.60
448.0	30.89
448.2	31.15
448.4	31.57
448.6	31.86
448.8	32.38
449.0	32.80
449.2	33.33
449.4	33.53
449.6	33.74
449.8	33.88
450.0	34.52
450.2	34.82
450.4	35.26
450.6	35.64
450.8	36.14
451.0	36.60
451.2	37.00
451.4	37.19
451.6	37.42
451.8	37.78
452.0	38.07
452.2	38.53
452.4	38.87
452.6	39.22
452.8	39.63
453.0	39.94
453.2	40.17
453.4	40.40
453.6	40.71
453.8	41.28
454.0	41.70
454.2	41.88
454.4	42.11
454.6	42.17
454.8	42.48
455.0	42.98
455.2	43.20
455.4	43.66
455.6	44.26
455.8	44.96
456.0	45.28
456.2	45.30
456.4	45.29
456.6	45.35
456.8	45.59
457.0	45.97
457.2	46.29
457.4	46.56
457.6	47.07
457.8	47.29
458.0	47.62
458.2	48.01
458.4	48.53
458.6	48.72
458.8	48.67
459.0	48.77
459.2	49.05
459.4	49.56
459.6	49.93
459.8	50.17
460.0	50.37
460.2	50.72
460.4	51.13
460.6	51.09
460.8	51.21
461.0	51.28
461.2	51.68
461.4	52.20
461.6	52.77
461.8	53.10
462.0	53.62
462.2	53.86
462.4	54.25
462.6	54.65
462.8	55.17
463.0	55.59
463.2	55.89
463.4	56.05
463.6	56.33
463.8	56.59
464.0	57.19
464.2	57.82
464.4	58.42
464.6	58.89
464.8	59.31
465.0	59.50
465.2	59.86
465.4	60.31
465.6	60.89
465.8	61.66
466.0	62.44
466.2	63.06
466.4	63.59
466.6	64.20
466.8	64.86
467.0	65.59
467.2	66.48
467.4	67.22
467.6	67.57
467.8	68.22
468.0	68.78
468.2	69.73
468.4	70.65
468.6	71.54
468.8	72.26
469.0	73.25
469.2	74.06
469.4	75.29
469.6	76.18
469.8	77.27
470.0	78.24
470.2	79.33
470.4	80.26
470.6	81.55
470.8	83.05
471.0	84.07
471.2	85.08
471.4	86.31
471.6	87.20
471.8	88.60
472.0	90.32
472.2	91.52
472.4	92.74
472.6	94.10
472.8	95.31
473.0	96.91
473.2	98.50
473.4	100.1
473.6	101.4
473.8	103.2
474.0	104.9
474.2	106.9
474.4	109.0
474.6	110.8
474.8	112.4
475.0	114.1
475.2	115.8
475.4	118.0
475.6	120.5
475.8	122.8
476.0	125.0
476.2	127.2
476.4	129.2
476.6	131.4
476.8	133.6
477.0	136.0
477.2	138.2
477.4	140.8
477.6	143.0
477.8	145.7
478.0	148.5
478.2	151.1
478.4	153.6
478.6	156.2
478.8	158.6
479.0	161.8
479.2	165.5
479.4	168.3
479.6	171.5
479.8	174.3
480.0	177.5
480.2	180.8
480.4	184.4
480.6	187.2
480.8	190.1
481.0	193.4
481.2	197.1
481.4	200.7
481.6	204.9
481.8	208.8
482.0	212.3
482.2	216.2
482.4	219.8
482.6	223.0
482.8	227.5
483.0	232.0
483.2	236.3
483.4	241.7
483.6	245.7
483.8	249.9
484.0	254.8
484.2	258.7
484.4	262.6
484.6	268.2
484.8	273.0
485.0	278.3
485.2	283.8
485.4	288.9
485.6	294.3
485.8	300.2
486.0	305.9
486.2	311.4
486.4	317.0
486.6	322.8
486.8	327.9
487.0	333.5
487.2	339.0
487.4	345.1
487.6	351.7
487.8	358.4
488.0	364.9
488.2	372.2
488.4	379.2
488.6	385.9
488.8	392.6
489.0	400.0
489.2	407.7
489.4	415.6
489.6	423.6
489.8	430.3
490.0	437.3
490.2	444.9
490.4	453.4
490.6	462.1
490.8	470.7
491.0	478.6
491.2	486.7
491.4	495.3
491.6	505.0
491.8	514.9
492.0	524.6
492.2	533.2
492.4	540.7
492.6	549.1
492.8	558.7
493.0	570.2
493.2	581.3
493.4	591.6
493.6	601.1
493.8	611.3
494.0	622.0
494.2	633.5
494.4	644.3
494.6	655.4
494.8	667.0
495.0	678.6
495.2	690.1
495.4	702.4
495.6	714.6
495.8	726.9
496.0	739.7
496.2	751.2
496.4	763.6
496.6	775.5
496.8	787.9
497.0	801.0
497.2	815.0
497.4	829.0
497.6	842.9
497.8	855.6
498.0	868.3
498.2	883.1
498.4	898.2
498.6	913.3
498.8	926.6
499.0	940.3
499.2	954.0
499.4	970.3
499.6	987.8
499.8	1005
500.0	1021
500.2	1038
500.4	1054
500.6	1070
500.8	1086
501.0	1101
501.2	1117
501.4	1135
501.6	1153
501.8	1171
502.0	1187
502.2	1204
502.4	1219
502.6	1236
502.8	1254
503.0	1274
503.2	1292
503.4	1311
503.6	1329
503.8	1348
504.0	1368
504.2	1389
504.4	1407
504.6	1429
504.8	1449
505.0	1469
505.2	1487
505.4	1507
505.6	1525
505.8	1545
506.0	1565
506.2	1586
506.4	1607
506.6	1630
506.8	1651
507.0	1670
507.2	1690
507.4	1712
507.6	1733
507.8	1757
508.0	1780
508.2	1801
508.4	1822
508.6	1843
508.8	1862
509.0	1885
509.2	1908
509.4	1931
509.6	1954
509.8	1976
510.0	1999
510.2	2023
510.4	2045
510.6	2066
510.8	2090
511.0	2114
511.2	2138
511.4	2162
511.6	2184
511.8	2206
512.0	2229
512.2	2253
512.4	2276
512.6	2300
512.8	2323
513.0	2345
513.2	2367
513.4	2392
513.6	2417
513.8	2441
514.0	2465
514.2	2487
514.4	2509
514.6	2534
514.8	2558
515.0	2582
515.2	2608
515.4	2632
515.6	2657
515.8	2684
516.0	2708
516.2	2732
516.4	2756
516.6	2778
516.8	2801
517.0	2824
517.2	2847
517.4	2870
517.6	2893
517.8	2918
518.0	2940
518.2	2965
518.4	2987
518.6	3009
518.8	3031
519.0	3054
519.2	3074
519.4	3097
519.6	3119
519.8	3143
520.0	3168
520.2	3196
520.4	3219
520.6	3244
520.8	3267
521.0	3290
521.2	3311
521.4	3334
521.6	3355
521.8	3379
522.0	3401
522.2	3423
522.4	3444
522.6	3468
522.8	3490
523.0	3511
523.2	3529
523.4	3548
523.6	3570
523.8	3591
524.0	3611
524.2	3632
524.4	3649
524.6	3668
524.8	3690
525.0	3710
525.2	3733
525.4	3755
525.6	3773
525.8	3792
526.0	3812
526.2	3832
526.4	3854
526.6	3874
526.8	3893
527.0	3910
527.2	3928
527.4	3946
527.6	3962
527.8	3980
528.0	3998
528.2	4018
528.4	4036
528.6	4053
528.8	4065
529.0	4079
529.2	4091
529.4	4108
529.6	4126
529.8	4146
530.0	4167
530.2	4186
530.4	4200
530.6	4214
530.8	4228
531.0	4245
531.2	4265
531.4	4282
531.6	4294
531.8	4303
532.0	4312
532.2	4324
532.4	4334
532.6	4350
532.8	4364
533.0	4379
533.2	4393
533.4	4409
533.6	4418
533.8	4431
534.0	4442
534.2	4453
534.4	4461
534.6	4473
534.8	4484
535.0	4498
535.2	4511
535.4	4521
535.6	4530
535.8	4540
536.0	4548
536.2	4557
536.4	4566
536.6	4573
536.8	4584
537.0	4595
537.2	4604
537.4	4609
537.6	4616
537.8	4624
538.0	4631
538.2	4640
538.4	4649
538.6	4656
538.8	4662
539.0	4669
539.2	4676
539.4	4683
539.6	4694
539.8	4703
540.0	4710
540.2	4712
540.4	4716
540.6	4717
540.8	4721
541.0	4725
541.2	4731
541.4	4733
541.6	4740
541.8	4742
542.0	4743
542.2	4749
542.4	4755
542.6	4759
542.8	4763
543.0	4764
543.2	4766
543.4	4770
543.6	4773
543.8	4774
544.0	4776
544.2	4779
544.4	4781
544.6	4784
544.8	4785
545.0	4780
545.2	4782
545.4	4783
545.6	4784
545.8	4788
546.0	4787
546.2	4785
546.4	4782
546.6	4780
546.8	4778
547.0	4775
547.2	4776
547.4	4778
547.6	4777
547.8	4774
548.0	4771
548.2	4770
548.4	4771
548.6	4771
548.8	4771
549.0	4771
549.2	4770
549.4	4767
549.6	4763
549.8	4756
550.0	4750
550.2	4746
550.4	4740
550.6	4732
550.8	4730
551.0	4723
551.2	4722
551.4	4718
551.6	4714
551.8	4707
552.0	4702
552.2	4699
552.4	4697
552.6	4692
552.8	4689
553.0	4682
553.2	4674
553.4	4671
553.6	4662
553.8	4658
554.0	4653
554.2	4648
554.4	4641
554.6	4634
554.8	4625
555.0	4618
555.2	4611
555.4	4601
555.6	4594
555.8	4588
556.0	4581
556.2	4576
556.4	4570
556.6	4562
556.8	4558
557.0	4552
557.2	4548
557.4	4541
557.6	4531
557.8	4522
558.0	4511
558.2	4500
558.4	4493
558.6	4485
558.8	4475
559.0	4464
559.2	4453
559.4	4444
559.6	4436
559.8	4431
560.0	4423
560.2	4412
560.4	4404
560.6	4398
560.8	4388
561.0	4378
561.2	4371
561.4	4361
561.6	4348
561.8	4339
562.0	4325
562.2	4314
562.4	4305
562.6	4297
562.8	4287
563.0	4278
563.2	4267
563.4	4256
563.6	4243
563.8	4233
564.0	4221
564.2	4207
564.4	4194
564.6	4181
564.8	4171
565.0	4161
565.2	4152
565.4	4139
565.6	4126
565.8	4116
566.0	4107
566.2	4100
566.4	4092
566.6	4079
566.8	4067
567.0	4054
567.2	4043
567.4	4032
567.6	4024
567.8	4012
568.0	3999
568.2	3985
568.4	3974
568.6	3964
568.8	3954
569.0	3944
569.2	3930
569.4	3916
569.6	3902
569.8	3891
570.0	3878
570.2	3869
570.4	3861
570.6	3847
570.8	3835
571.0	3825
571.2	3815
571.4	3804
571.6	3792
571.8	3777
572.0	3762
572.2	3750
572.4	3739
572.6	3729
572.8	3719
573.0	3706
573.2	3692
573.4	3676
573.6	3658
573.8	3646
574.0	3636
574.2	3622
574.4	3611
574.6	3595
574.8	3579
575.0	3571
575.2	3563
575.4	3555
575.6	3542
575.8	3526
576.0	3515
576.2	3504
576.4	3496
576.6	3487
576.8	3473
577.0	3458
577.2	3446
577.4	3429
577.6	3414
577.8	3398
578.0	3385
578.2	3376
578.4	3367
578.6	3355
578.8	3341
579.0	3327
579.2	3315
579.4	3303
579.6	3291
579.8	3277
580.0	3263
580.2	3252
580.4	3241
580.6	3230
580.8	3219
581.0	3207
581.2	3195
581.4	3184
581.6	3172
581.8	3161
582.0	3150
582.2	3137
582.4	3123
582.6	3110
582.8	3097
583.0	3086
583.2	3076
583.4	3066
583.6	3051
583.8	3041
584.0	3027
584.2	3012
584.4	3000
584.6	2986
584.8	2971
585.0	2958
585.2	2946
585.4	2934
585.6	2927
585.8	2917
586.0	2904
586.2	2892
586.4	2880
586.6	2867
586.8	2857
587.0	2844
587.2	2831
587.4	2820
587.6	2809
587.8	2798
588.0	2788
588.2	2775
588.4	2762
588.6	2749
588.8	2740
589.0	2729
589.2	2720
589.4	2709
589.6	2698
589.8	2686
590.0	2676
590.2	2661
590.4	2648
590.6	2634
590.8	2623
591.0	2612
591.2	2599
591.4	2586
591.6	2574
591.8	2561
592.0	2549
592.2	2537
592.4	2526
592.6	2514
592.8	2507
593.0	2500
593.2	2492
593.4	2485
593.6	2476
593.8	2462
594.0	2451
594.2	2439
594.4	2427
594.6	2416
594.8	2406
595.0	2392
595.2	2382
595.4	2370
595.6	2358
595.8	2348
596.0	2336
596.2	2326
596.4	2316
596.6	2303
596.8	2292
597.0	2281
597.2	2268
597.4	2259
597.6	2248
597.8	2239
598.0	2232
598.2	2223
598.4	2213
598.6	2203
598.8	2191
599.0	2179
599.2	2169
599.4	2159
599.6	2150
599.8	2142
600.0	2132
600.2	2123
600.4	2115
600.6	2101
600.8	2088
601.0	2077
601.2	2065
601.4	2056
601.6	2048
601.8	2038
602.0	2027
602.2	2017
602.4	2005
602.6	1994
602.8	1986
603.0	1978
603.2	1969
603.4	1959
603.6	1948
603.8	1937
604.0	1927
604.2	1919
604.4	1912
604.6	1902
604.8	1892
605.0	1881
605.2	1870
605.4	1860
605.6	1851
605.8	1841
606.0	1832
606.2	1823
606.4	1814
606.6	1803
606.8	1795
607.0	1785
607.2	1776
607.4	1767
607.6	1758
607.8	1749
608.0	1742
608.2	1732
608.4	1723
608.6	1712
608.8	1703
609.0	1694
609.2	1685
609.4	1677
609.6	1669
609.8	1661
610.0	1654
610.2	1643
610.4	1632
610.6	1622
610.8	1613
611.0	1605
611.2	1597
611.4	1589
611.6	1580
611.8	1571
612.0	1563
612.2	1553
612.4	1544
612.6	1536
612.8	1528
613.0	1521
613.2	1513
613.4	1503
613.6	1493
613.8	1484
614.0	1477
614.2	1468
614.4	1461
614.6	1452
614.8	1443
615.0	1436
615.2	1428
615.4	1421
615.6	1414
615.8	1404
616.0	1396
616.2	1388
616.4	1380
616.6	1374
616.8	1367
617.0	1359
617.2	1351
617.4	1345
617.6	1336
617.8	1327
618.0	1318
618.2	1309
618.4	1299
618.6	1293
618.8	1287
619.0	1280
619.2	1272
619.4	1263
619.6	1254
619.8	1248
620.0	1243
620.2	1237
620.4	1230
620.6	1222
620.8	1213
621.0	1207
621.2	1200
621.4	1192
621.6	1185
621.8	1178
622.0	1171
622.2	1164
622.4	1157
622.6	1151
622.8	1145
623.0	1139
623.2	1131
623.4	1124
623.6	1116
623.8	1109
624.0	1102
624.2	1093
624.4	1087
624.6	1081
624.8	1075
625.0	1070
625.2	1064
625.4	1057
625.6	1050
625.8	1044
626.0	1039
626.2	1032
626.4	1025
626.6	1018
626.8	1012
627.0	1006
627.2	1000
627.4	993.6
627.6	986.1
627.8	978.6
628.0	972.4
628.2	965.6
628.4	960.5
628.6	954.9
628.8	948.8
629.0	943.1
629.2	936.8
629.4	929.9
629.6	924.2
629.8	918.4
630.0	912.7
630.2	907.1
630.4	901.7
630.6	895.9
630.8	890.3
631.0	885.3
631.2	880.7
631.4	875.3
631.6	870.2
631.8	864.3
632.0	858.2
632.2	851.8
632.4	846.4
632.6	840.0
632.8	833.8
633.0	827.7
633.2	822.2
633.4	817.0
633.6	813.2
633.8	808.0
634.0	803.6
634.2	798.0
634.4	793.6
634.6	788.3
634.8	783.9
635.0	779.1
635.2	774.6
635.4	768.7
635.6	764.0
635.8	758.5
636.0	754.1
636.2	749.3
636.4	745.0
636.6	739.4
636.8	734.2
637.0	728.7
637.2	723.3
637.4	718.4
637.6	715.5
637.8	711.1
638.0	706.7
638.2	700.6
638.4	695.2
638.6	690.4
638.8	687.4
639.0	683.9
639.2	679.9
639.4	675.7
639.6	671.4
639.8	666.1
640.0	661.2
640.2	656.6
640.4	652.4
640.6	647.4
640.8	642.4
641.0	637.7
641.2	633.9
641.4	631.1
641.6	628.3
641.8	623.3
642.0	619.4
642.2	614.3
642.4	610.1
642.6	605.7
642.8	602.0
643.0	599.3
643.2	596.4
643.4	591.2
643.6	587.0
643.8	581.8
644.0	577.4
644.2	574.2
644.4	570.7
644.6	566.8
644.8	564.0
645.0	560.7
645.2	556.6
645.4	552.5
645.6	549.3
645.8	545.2
646.0	542.3
646.2	538.2
646.4	533.6
646.6	529.6
646.8	525.9
647.0	521.5
647.2	518.6
647.4	515.0
647.6	511.3
647.8	508.5
648.0	506.1
648.2	502.8
648.4	499.2
648.6	495.6
648.8	492.0
649.0	488.6
649.2	485.7
649.4	482.1
649.6	479.0
649.8	475.6
650.0	473.0
650.2	470.4
650.4	467.5
650.6	464.1
650.8	460.8
651.0	456.8
651.2	453.6
651.4	450.3
651.6	447.8
651.8	444.2
652.0	441.0
652.2	437.1
652.4	434.1
652.6	430.9
652.8	428.3
653.0	425.5
653.2	422.8
653.4	419.4
653.6	417.1
653.8	414.2
654.0	411.7
654.2	409.3
654.4	406.4
654.6	403.1
654.8	400.1
655.0	397.2
655.2	394.7
655.4	392.1
655.6	389.6
655.8	386.6
656.0	384.5
656.2	381.7
656.4	378.5
656.6	375.6
656.8	373.2
657.0	370.3
657.2	368.1
657.4	365.0
657.6	362.0
657.8	359.5
658.0	356.9
658.2	354.2
658.4	351.4
658.6	348.8
658.8	346.6
659.0	344.7
659.2	342.5
659.4	341.0
659.6	338.8
659.8	336.5
660.0	334.4
660.2	331.5
660.4	328.5
660.6	326.3
660.8	323.8
661.0	321.3
661.2	319.4
661.4	316.1
661.6	313.3
661.8	311.2
662.0	309.5
662.2	307.3
662.4	306.0
662.6	303.6
662.8	301.4
663.0	299.0
663.2	297.5
663.4	294.7
663.6	292.9
663.8	290.6
664.0	288.5
664.2	286.5
664.4	285.0
664.6	282.5
664.8	280.0
665.0	277.4
665.2	275.9
665.4	274.8
665.6	273.7
665.8	271.7
666.0	269.5
666.2	266.9
666.4	265.1
666.6	263.4
666.8	261.8
667.0	259.3
667.2	257.7
667.4	255.4
667.6	253.5
667.8	251.9
668.0	250.2
668.2	248.4
668.4	247.0
668.6	245.2
668.8	243.2
669.0	241.7
669.2	239.6
669.4	237.4
669.6	235.5
669.8	234.2
670.0	232.7
670.2	231.1
670.4	229.0
670.6	226.8
670.8	225.1
671.0	224.1
671.2	222.6
671.4	220.9
671.6	218.5
671.8	216.4
672.0	214.1
672.2	212.4
672.4	211.6
672.6	211.1
672.8	210.2
673.0	208.6
673.2	206.3
673.4	203.7
673.6	202.3
673.8	201.3
674.0	200.4
674.2	199.3
674.4	198.3
674.6	196.3
674.8	195.1
675.0	193.8
675.2	191.8
675.4	190.2
675.6	188.4
675.8	186.3
676.0	185.2
676.2	184.0
676.4	182.8
676.6	181.6
676.8	180.6
677.0	179.1
677.2	178.4
677.4	176.9
677.6	175.7
677.8	174.3
678.0	173.5
678.2	171.8
678.4	170.6
678.6	168.7
678.8	167.6
679.0	166.8
679.2	165.8
679.4	164.3
679.6	163.1
679.8	161.4
680.0	160.4
680.2	159.4
680.4	158.4
680.6	157.1
680.8	155.7
681.0	154.5
681.2	153.4
681.4	152.2
681.6	151.4
681.8	150.3
682.0	148.7
682.2	147.4
682.4	146.2
682.6	145.0
682.8	144.2
683.0	143.7
683.2	142.4
683.4	141.5
683.6	139.9
683.8	138.8
684.0	137.9
684.2	137.2
684.4	136.1
684.6	135.0
684.8	133.2
685.0	132.3
685.2	131.5
685.4	130.9
685.6	130.0
685.8	129.2
686.0	128.0
686.2	127.4
686.4	126.7
686.6	125.5
686.8	124.2
687.0	123.3
687.2	122.0
687.4	121.1
687.6	120.2
687.8	119.2
688.0	118.3
688.2	117.9
688.4	117.8
688.6	117.3
688.8	116.1
689.0	114.3
689.2	112.3
689.4	111.3
689.6	111.3
689.8	111.4
690.0	110.8
690.2	109.7
690.4	108.0
690.6	106.8
690.8	106.2
691.0	105.6
691.2	105.5
691.4	105.4
691.6	104.5
691.8	103.5
692.0	102.2
692.2	100.9
692.4	100.0
692.6	99.55
692.8	99.41
693.0	98.65
693.2	97.76
693.4	97.07
693.6	96.09
693.8	95.64
694.0	95.28
694.2	94.52
694.4	93.52
694.6	92.86
694.8	91.93
695.0	91.63
695.2	91.14
695.4	90.48
695.6	89.61
695.8	89.09
696.0	88.17
696.2	87.55
696.4	87.23
696.6	86.83
696.8	86.11
697.0	85.42
697.2	84.58
697.4	83.91
697.6	83.70
697.8	83.49
698.0	82.80
698.2	81.94
698.4	81.16
698.6	80.57
698.8	79.91
699.0	79.79
699.2	79.61
699.4	79.24
699.6	78.62
699.8	78.04
700.0	77.35
700.2	77.17
700.4	76.68
700.6	76.35
700.8	75.69
701.0	74.80
701.2	74.30
701.4	73.88
701.6	73.61
701.8	73.58
702.0	73.26
702.2	72.37
702.4	71.84
702.6	70.94
702.8	70.46
703.0	70.19
703.2	69.92
703.4	69.44
703.6	69.08
703.8	68.02
704.0	67.65
704.2	67.26
704.4	66.74
704.6	66.44
704.8	66.13
705.0	65.41
705.2	65.34
705.4	64.80
705.6	64.23
705.8	64.09
706.0	63.61
706.2	63.19
706.4	62.75
706.6	62.06
706.8	61.70
707.0	61.56
707.2	60.93
707.4	60.60
707.6	60.15
707.8	59.63
708.0	59.50
708.2	59.19
708.4	58.69
708.6	58.57
708.8	58.15
709.0	57.71
709.2	57.31
709.4	56.63
709.6	56.10
709.8	55.61
710.0	54.95
710.2	54.71
710.4	54.67
710.6	54.64
710.8	54.63
711.0	53.92
711.2	53.00
711.4	52.15
711.6	51.72
711.8	51.27
712.0	51.17
712.2	51.10
712.4	50.92
712.6	50.58
712.8	50.23
713.0	49.87
713.2	49.56
713.4	49.29
713.6	48.94
713.8	48.55
714.0	47.97
714.2	47.62
714.4	47.46
714.6	47.17
714.8	46.91
715.0	46.49
715.2	45.99
715.4	45.23
715.6	45.04
715.8	44.79
716.0	44.59
716.2	44.32
716.4	44.28
716.6	43.86
716.8	43.70
717.0	42.98
717.2	42.54
717.4	42.17
717.6	42.00
717.8	41.65
718.0	41.44
718.2	40.89
718.4	40.64
718.6	40.47
718.8	40.03
719.0	39.66
719.2	39.57
719.4	39.59
719.6	39.33
719.8	38.89
720.0	38.40
720.2	37.97
720.4	37.80
720.6	37.75
720.8	37.38
721.0	36.97
721.2	36.52
721.4	36.23
721.6	35.96
721.8	35.78
722.0	35.48
722.2	35.07
722.4	34.38
722.6	34.27
722.8	34.07
723.0	34.00
