Sample:	'20211010A(EM)
File name:	r-c-dots 100S2-.FDS
Run date:	'20:53:50, 03/22/2023
Operator:	Administrator
Comment:	'

Instrument
Model:	F-4700 FL Spectrophotometer
Serial number:	2019-001
ROM Version:	5J24010 00

Instrument parameters
Measurement type:	Wavelength scan
Scan mode:	Emission
Data mode:	Fluorescence
EX WL:	520.0 nm
EM  Start WL:	540.0 nm
EM  End WL:	900.0 nm
Scan speed:	1200 nm/min
Delay:	0.0 s
EX Slit:	10.0 nm
EM Slit:	10.0 nm
PMT Voltage:	570 V
Response:	0.002 s
Corrected spectra:	Off
Shutter control:	On

Processing performed
Savitsky-Golay smoothed
Smoothing order:	3
Number of points:	7
Number of times:	1

Peak integration
Integration method:	Rectangular
Sensitivity:	1
Threshold:	1.000

Peaks
No.	Start(nm)	Apex(nm)	End(nm)	Height(Data)	Valley(nm)	Valley(Data)
1	540.0	633.8	634.6	5900	634.6	5879
2	634.6	636.0	790.4	5905	790.4	47.69
3	790.4	791.2	801.0	49.41	801.0	37.08
4	801.0	801.6	900.0	38.44	900.0	3.365

Data points
nm	Data
540.0	1425
540.2	1433
540.4	1441
540.6	1449
540.8	1455
541.0	1463
541.2	1471
541.4	1483
541.6	1487
541.8	1495
542.0	1500
542.2	1504
542.4	1509
542.6	1518
542.8	1521
543.0	1536
543.2	1544
543.4	1547
543.6	1551
543.8	1559
544.0	1563
544.2	1573
544.4	1584
544.6	1594
544.8	1603
545.0	1613
545.2	1618
545.4	1625
545.6	1638
545.8	1641
546.0	1645
546.2	1649
546.4	1655
546.6	1663
546.8	1676
547.0	1680
547.2	1688
547.4	1694
547.6	1703
547.8	1709
548.0	1717
548.2	1725
548.4	1735
548.6	1740
548.8	1750
549.0	1758
549.2	1771
549.4	1783
549.6	1786
549.8	1789
550.0	1797
550.2	1808
550.4	1820
550.6	1833
550.8	1835
551.0	1844
551.2	1846
551.4	1850
551.6	1853
551.8	1861
552.0	1872
552.2	1881
552.4	1890
552.6	1900
552.8	1908
553.0	1912
553.2	1918
553.4	1923
553.6	1932
553.8	1944
554.0	1956
554.2	1961
554.4	1967
554.6	1979
554.8	1984
555.0	1989
555.2	2003
555.4	2011
555.6	2022
555.8	2040
556.0	2050
556.2	2063
556.4	2069
556.6	2072
556.8	2079
557.0	2084
557.2	2096
557.4	2113
557.6	2126
557.8	2134
558.0	2141
558.2	2143
558.4	2155
558.6	2161
558.8	2172
559.0	2179
559.2	2186
559.4	2197
559.6	2209
559.8	2213
560.0	2219
560.2	2231
560.4	2242
560.6	2259
560.8	2283
561.0	2296
561.2	2301
561.4	2307
561.6	2310
561.8	2323
562.0	2338
562.2	2351
562.4	2351
562.6	2354
562.8	2365
563.0	2380
563.2	2397
563.4	2416
563.6	2424
563.8	2433
564.0	2444
564.2	2452
564.4	2464
564.6	2476
564.8	2484
565.0	2497
565.2	2504
565.4	2517
565.6	2530
565.8	2542
566.0	2549
566.2	2559
566.4	2567
566.6	2583
566.8	2602
567.0	2620
567.2	2632
567.4	2645
567.6	2658
567.8	2669
568.0	2680
568.2	2691
568.4	2690
568.6	2694
568.8	2705
569.0	2716
569.2	2737
569.4	2755
569.6	2764
569.8	2772
570.0	2789
570.2	2800
570.4	2813
570.6	2823
570.8	2834
571.0	2848
571.2	2872
571.4	2886
571.6	2898
571.8	2908
572.0	2917
572.2	2932
572.4	2946
572.6	2959
572.8	2975
573.0	2989
573.2	3004
573.4	3019
573.6	3026
573.8	3032
574.0	3039
574.2	3050
574.4	3065
574.6	3080
574.8	3093
575.0	3109
575.2	3118
575.4	3131
575.6	3141
575.8	3154
576.0	3165
576.2	3181
576.4	3194
576.6	3209
576.8	3225
577.0	3239
577.2	3250
577.4	3261
577.6	3275
577.8	3284
578.0	3298
578.2	3309
578.4	3321
578.6	3335
578.8	3346
579.0	3349
579.2	3360
579.4	3375
579.6	3384
579.8	3402
580.0	3411
580.2	3418
580.4	3432
580.6	3448
580.8	3463
581.0	3476
581.2	3489
581.4	3497
581.6	3505
581.8	3516
582.0	3527
582.2	3537
582.4	3549
582.6	3564
582.8	3582
583.0	3600
583.2	3609
583.4	3619
583.6	3629
583.8	3642
584.0	3667
584.2	3682
584.4	3683
584.6	3692
584.8	3701
585.0	3715
585.2	3737
585.4	3740
585.6	3743
585.8	3757
586.0	3759
586.2	3774
586.4	3781
586.6	3784
586.8	3792
587.0	3808
587.2	3820
587.4	3839
587.6	3856
587.8	3872
588.0	3881
588.2	3897
588.4	3902
588.6	3907
588.8	3917
589.0	3917
589.2	3924
589.4	3940
589.6	3951
589.8	3966
590.0	3977
590.2	3983
590.4	3995
590.6	4005
590.8	4024
591.0	4037
591.2	4045
591.4	4052
591.6	4054
591.8	4055
592.0	4067
592.2	4077
592.4	4090
592.6	4103
592.8	4114
593.0	4123
593.2	4139
593.4	4152
593.6	4154
593.8	4165
594.0	4174
594.2	4179
594.4	4190
594.6	4195
594.8	4194
595.0	4206
595.2	4224
595.4	4238
595.6	4253
595.8	4260
596.0	4266
596.2	4279
596.4	4299
596.6	4310
596.8	4319
597.0	4322
597.2	4328
597.4	4333
597.6	4337
597.8	4343
598.0	4351
598.2	4364
598.4	4376
598.6	4385
598.8	4394
599.0	4402
599.2	4414
599.4	4431
599.6	4442
599.8	4454
600.0	4469
600.2	4479
600.4	4484
600.6	4493
600.8	4497
601.0	4496
601.2	4500
601.4	4505
601.6	4518
601.8	4533
602.0	4544
602.2	4553
602.4	4562
602.6	4564
602.8	4573
603.0	4583
603.2	4595
603.4	4602
603.6	4608
603.8	4615
604.0	4620
604.2	4631
604.4	4654
604.6	4665
604.8	4669
605.0	4681
605.2	4686
605.4	4693
605.6	4707
605.8	4722
606.0	4728
606.2	4743
606.4	4755
606.6	4767
606.8	4776
607.0	4776
607.2	4773
607.4	4779
607.6	4784
607.8	4798
608.0	4816
608.2	4825
608.4	4842
608.6	4853
608.8	4864
609.0	4875
609.2	4884
609.4	4895
609.6	4915
609.8	4926
610.0	4934
610.2	4934
610.4	4929
610.6	4936
610.8	4944
611.0	4956
611.2	4972
611.4	4984
611.6	4992
611.8	5007
612.0	5017
612.2	5030
612.4	5042
612.6	5050
612.8	5054
613.0	5061
613.2	5072
613.4	5095
613.6	5109
613.8	5126
614.0	5132
614.2	5135
614.4	5134
614.6	5141
614.8	5144
615.0	5159
615.2	5166
615.4	5182
615.6	5197
615.8	5205
616.0	5217
616.2	5240
616.4	5241
616.6	5248
616.8	5258
617.0	5260
617.2	5273
617.4	5293
617.6	5297
617.8	5307
618.0	5323
618.2	5334
618.4	5336
618.6	5344
618.8	5342
619.0	5347
619.2	5364
619.4	5377
619.6	5391
619.8	5406
620.0	5409
620.2	5410
620.4	5416
620.6	5428
620.8	5444
621.0	5454
621.2	5460
621.4	5467
621.6	5476
621.8	5497
622.0	5506
622.2	5513
622.4	5512
622.6	5521
622.8	5539
623.0	5557
623.2	5561
623.4	5569
623.6	5576
623.8	5580
624.0	5595
624.2	5611
624.4	5606
624.6	5613
624.8	5627
625.0	5633
625.2	5652
625.4	5659
625.6	5665
625.8	5675
626.0	5676
626.2	5684
626.4	5693
626.6	5695
626.8	5712
627.0	5716
627.2	5722
627.4	5737
627.6	5749
627.8	5750
628.0	5760
628.2	5758
628.4	5763
628.6	5775
628.8	5778
629.0	5771
629.2	5782
629.4	5793
629.6	5802
629.8	5810
630.0	5807
630.2	5805
630.4	5815
630.6	5825
630.8	5833
631.0	5841
631.2	5845
631.4	5851
631.6	5852
631.8	5851
632.0	5858
632.2	5872
632.4	5884
632.6	5892
632.8	5885
633.0	5876
633.2	5869
633.4	5874
633.6	5888
633.8	5900
634.0	5898
634.2	5899
634.4	5885
634.6	5879
634.8	5887
635.0	5890
635.2	5895
635.4	5900
635.6	5895
635.8	5897
636.0	5905
636.2	5902
636.4	5903
636.6	5899
636.8	5894
637.0	5898
637.2	5894
637.4	5887
637.6	5885
637.8	5883
638.0	5880
638.2	5878
638.4	5872
638.6	5872
638.8	5870
639.0	5863
639.2	5858
639.4	5848
639.6	5847
639.8	5850
640.0	5847
640.2	5841
640.4	5839
640.6	5828
640.8	5818
641.0	5818
641.2	5831
641.4	5823
641.6	5819
641.8	5806
642.0	5793
642.2	5780
642.4	5784
642.6	5773
642.8	5770
643.0	5766
643.2	5760
643.4	5741
643.6	5737
643.8	5725
644.0	5722
644.2	5713
644.4	5699
644.6	5683
644.8	5682
645.0	5663
645.2	5654
645.4	5635
645.6	5621
645.8	5615
646.0	5620
646.2	5618
646.4	5614
646.6	5604
646.8	5580
647.0	5558
647.2	5546
647.4	5531
647.6	5524
647.8	5519
648.0	5503
648.2	5494
648.4	5480
648.6	5465
648.8	5455
649.0	5443
649.2	5431
649.4	5417
649.6	5391
649.8	5370
650.0	5355
650.2	5348
650.4	5335
650.6	5318
650.8	5304
651.0	5286
651.2	5271
651.4	5256
651.6	5241
651.8	5228
652.0	5220
652.2	5200
652.4	5181
652.6	5164
652.8	5146
653.0	5135
653.2	5121
653.4	5098
653.6	5082
653.8	5063
654.0	5043
654.2	5025
654.4	5009
654.6	4992
654.8	4979
655.0	4958
655.2	4935
655.4	4910
655.6	4895
655.8	4879
656.0	4867
656.2	4851
656.4	4831
656.6	4809
656.8	4787
657.0	4768
657.2	4756
657.4	4735
657.6	4717
657.8	4691
658.0	4663
658.2	4639
658.4	4619
658.6	4599
658.8	4584
659.0	4568
659.2	4557
659.4	4538
659.6	4512
659.8	4488
660.0	4467
660.2	4446
660.4	4430
660.6	4414
660.8	4393
661.0	4375
661.2	4359
661.4	4336
661.6	4308
661.8	4287
662.0	4271
662.2	4253
662.4	4231
662.6	4209
662.8	4176
663.0	4157
663.2	4142
663.4	4122
663.6	4098
663.8	4081
664.0	4057
664.2	4042
664.4	4027
664.6	4007
664.8	3984
665.0	3962
665.2	3936
665.4	3909
665.6	3891
665.8	3869
666.0	3848
666.2	3830
666.4	3813
666.6	3795
666.8	3779
667.0	3755
667.2	3726
667.4	3692
667.6	3666
667.8	3655
668.0	3648
668.2	3636
668.4	3623
668.6	3593
668.8	3565
669.0	3544
669.2	3521
669.4	3501
669.6	3484
669.8	3462
670.0	3441
670.2	3418
670.4	3392
670.6	3373
670.8	3353
671.0	3333
671.2	3313
671.4	3291
671.6	3270
671.8	3253
672.0	3241
672.2	3225
672.4	3204
672.6	3182
672.8	3156
673.0	3139
673.2	3128
673.4	3114
673.6	3095
673.8	3068
674.0	3045
674.2	3023
674.4	3003
674.6	2988
674.8	2974
675.0	2958
675.2	2949
675.4	2923
675.6	2896
675.8	2868
676.0	2842
676.2	2828
676.4	2821
676.6	2809
676.8	2792
677.0	2776
677.2	2758
677.4	2737
677.6	2717
677.8	2695
678.0	2678
678.2	2664
678.4	2650
678.6	2633
678.8	2615
679.0	2596
679.2	2577
679.4	2558
679.6	2542
679.8	2529
680.0	2516
680.2	2501
680.4	2479
680.6	2465
680.8	2451
681.0	2436
681.2	2420
681.4	2400
681.6	2378
681.8	2365
682.0	2352
682.2	2342
682.4	2335
682.6	2315
682.8	2293
683.0	2272
683.2	2254
683.4	2236
683.6	2224
683.8	2206
684.0	2192
684.2	2184
684.4	2173
684.6	2159
684.8	2141
685.0	2126
685.2	2111
685.4	2098
685.6	2081
685.8	2065
686.0	2050
686.2	2038
686.4	2025
686.6	2011
686.8	1993
687.0	1977
687.2	1964
687.4	1953
687.6	1946
687.8	1933
688.0	1921
688.2	1908
688.4	1895
688.6	1884
688.8	1871
689.0	1858
689.2	1847
689.4	1832
689.6	1820
689.8	1810
690.0	1801
690.2	1789
690.4	1777
690.6	1762
690.8	1752
691.0	1741
691.2	1730
691.4	1711
691.6	1694
691.8	1681
692.0	1674
692.2	1665
692.4	1658
692.6	1652
692.8	1644
693.0	1635
693.2	1628
693.4	1617
693.6	1607
693.8	1597
694.0	1581
694.2	1564
694.4	1552
694.6	1546
694.8	1542
695.0	1538
695.2	1524
695.4	1512
695.6	1502
695.8	1494
696.0	1487
696.2	1478
696.4	1466
696.6	1458
696.8	1450
697.0	1441
697.2	1431
697.4	1422
697.6	1415
697.8	1405
698.0	1398
698.2	1390
698.4	1380
698.6	1374
698.8	1368
699.0	1361
699.2	1359
699.4	1350
699.6	1339
699.8	1327
700.0	1317
700.2	1309
700.4	1305
700.6	1299
700.8	1295
701.0	1286
701.2	1278
701.4	1268
701.6	1256
701.8	1252
702.0	1246
702.2	1239
702.4	1234
702.6	1222
702.8	1213
703.0	1208
703.2	1202
703.4	1198
703.6	1192
703.8	1183
704.0	1176
704.2	1169
704.4	1159
704.6	1151
704.8	1141
705.0	1136
705.2	1130
705.4	1126
705.6	1124
705.8	1119
706.0	1110
706.2	1101
706.4	1094
706.6	1088
706.8	1084
707.0	1075
707.2	1066
707.4	1056
707.6	1048
707.8	1045
708.0	1043
708.2	1039
708.4	1032
708.6	1024
708.8	1015
709.0	1009
709.2	1003
709.4	997.6
709.6	991.2
709.8	986.7
710.0	980.5
710.2	970.7
710.4	961.4
710.6	957.6
710.8	953.5
711.0	950.4
711.2	943.9
711.4	933.8
711.6	924.9
711.8	919.5
712.0	915.0
712.2	912.9
712.4	908.2
712.6	902.0
712.8	894.4
713.0	888.1
713.2	883.4
713.4	880.5
713.6	875.2
713.8	869.4
714.0	861.2
714.2	856.0
714.4	849.5
714.6	846.1
714.8	841.6
715.0	835.9
715.2	827.7
715.4	820.9
715.6	814.2
715.8	809.3
716.0	806.2
716.2	801.8
716.4	796.7
716.6	791.1
716.8	785.6
717.0	777.9
717.2	772.0
717.4	765.0
717.6	762.6
717.8	758.9
718.0	753.9
718.2	746.3
718.4	739.5
718.6	733.5
718.8	729.9
719.0	724.4
719.2	718.5
719.4	714.2
719.6	710.4
719.8	706.2
720.0	697.7
720.2	688.5
720.4	680.5
720.6	676.9
720.8	675.0
721.0	673.3
721.2	668.8
721.4	663.6
721.6	660.0
721.8	655.1
722.0	650.9
722.2	646.7
722.4	643.1
722.6	638.2
722.8	634.0
723.0	626.5
723.2	620.6
723.4	614.7
723.6	611.9
723.8	608.0
724.0	604.5
724.2	597.9
724.4	591.4
724.6	587.5
724.8	582.8
725.0	576.7
725.2	573.8
725.4	570.5
725.6	567.1
725.8	564.6
726.0	558.5
726.2	550.4
726.4	542.6
726.6	538.6
726.8	535.4
727.0	532.6
727.2	531.9
727.4	529.5
727.6	524.3
727.8	521.6
728.0	516.7
728.2	513.2
728.4	510.7
728.6	506.3
728.8	501.2
729.0	496.1
729.2	492.9
729.4	489.2
729.6	487.5
729.8	482.8
730.0	478.2
730.2	471.5
730.4	468.3
730.6	463.4
730.8	461.0
731.0	457.9
731.2	455.2
731.4	452.3
731.6	449.2
731.8	444.7
732.0	441.7
732.2	438.4
732.4	433.7
732.6	430.6
732.8	426.7
733.0	422.0
733.2	419.0
733.4	415.9
733.6	411.6
733.8	407.0
734.0	404.3
734.2	400.5
734.4	399.4
734.6	397.8
734.8	394.0
735.0	389.3
735.2	385.2
735.4	380.9
735.6	378.1
735.8	374.1
736.0	371.4
736.2	369.5
736.4	369.4
736.6	367.3
736.8	363.1
737.0	359.6
737.2	356.7
737.4	354.1
737.6	354.2
737.8	350.2
738.0	346.8
738.2	343.2
738.4	338.8
738.6	335.8
738.8	334.6
739.0	331.3
739.2	329.8
739.4	327.6
739.6	325.6
739.8	324.3
740.0	321.6
740.2	316.7
740.4	311.6
740.6	308.1
740.8	306.6
741.0	306.9
741.2	306.0
741.4	304.8
741.6	302.0
741.8	300.4
742.0	297.2
742.2	294.0
742.4	291.8
742.6	289.1
742.8	286.4
743.0	284.4
743.2	280.9
743.4	278.5
743.6	278.2
743.8	277.3
744.0	276.1
744.2	273.7
744.4	269.3
744.6	266.5
744.8	262.9
745.0	260.3
745.2	257.9
745.4	257.6
745.6	256.5
745.8	256.9
746.0	254.1
746.2	252.9
746.4	250.4
746.6	247.9
746.8	245.1
747.0	242.9
747.2	239.1
747.4	237.8
747.6	236.4
747.8	233.0
748.0	230.9
748.2	230.1
748.4	229.0
748.6	227.4
748.8	225.5
749.0	222.5
749.2	220.6
749.4	219.6
749.6	218.9
749.8	217.5
750.0	216.3
750.2	213.9
750.4	211.0
750.6	209.2
750.8	207.7
751.0	207.5
751.2	207.3
751.4	205.0
751.6	201.7
751.8	199.7
752.0	197.7
752.2	196.3
752.4	194.3
752.6	192.4
752.8	190.8
753.0	191.0
753.2	190.1
753.4	188.5
753.6	186.7
753.8	185.8
754.0	185.8
754.2	185.2
754.4	182.1
754.6	179.3
754.8	176.7
755.0	174.9
755.2	174.4
755.4	172.5
755.6	171.1
755.8	169.9
756.0	168.3
756.2	165.7
756.4	164.1
756.6	162.8
756.8	163.3
757.0	163.0
757.2	162.3
757.4	161.1
757.6	158.4
757.8	157.0
758.0	155.4
758.2	154.0
758.4	152.9
758.6	153.5
758.8	150.9
759.0	150.6
759.2	149.5
759.4	148.2
759.6	147.5
759.8	146.5
760.0	144.2
760.2	143.1
760.4	142.1
760.6	140.8
760.8	140.2
761.0	139.3
761.2	137.8
761.4	135.2
761.6	134.3
761.8	131.9
762.0	131.6
762.2	131.4
762.4	129.7
762.6	128.0
762.8	128.1
763.0	126.8
763.2	125.4
763.4	124.3
763.6	122.7
763.8	121.4
764.0	120.9
764.2	120.7
764.4	119.8
764.6	119.3
764.8	118.7
765.0	117.9
765.2	116.9
765.4	115.6
765.6	114.3
765.8	113.1
766.0	112.3
766.2	113.1
766.4	112.6
766.6	111.1
766.8	108.5
767.0	107.2
767.2	106.2
767.4	106.0
767.6	105.2
767.8	104.7
768.0	103.9
768.2	103.9
768.4	103.3
768.6	101.7
768.8	100.2
769.0	99.00
769.2	98.99
769.4	98.58
769.6	98.11
769.8	97.68
770.0	97.05
770.2	95.06
770.4	93.96
770.6	93.92
770.8	93.60
771.0	93.45
771.2	93.78
771.4	92.98
771.6	91.89
771.8	91.49
772.0	89.65
772.2	88.37
772.4	88.66
772.6	88.21
772.8	87.93
773.0	86.69
773.2	84.77
773.4	83.80
773.6	82.83
773.8	82.02
774.0	82.53
774.2	81.80
774.4	81.18
774.6	81.19
774.8	80.63
775.0	79.52
775.2	79.27
775.4	78.01
775.6	77.45
775.8	77.54
776.0	78.03
776.2	76.81
776.4	76.25
776.6	74.91
776.8	74.40
777.0	73.65
777.2	73.47
777.4	73.12
777.6	73.03
777.8	72.66
778.0	71.99
778.2	70.92
778.4	69.07
778.6	68.26
778.8	68.09
779.0	69.15
779.2	69.25
779.4	69.46
779.6	68.32
779.8	67.13
780.0	65.31
780.2	65.41
780.4	64.20
780.6	63.67
780.8	64.00
781.0	64.34
781.2	63.64
781.4	64.50
781.6	63.37
781.8	62.70
782.0	61.93
782.2	60.85
782.4	60.24
782.6	60.61
782.8	60.30
783.0	60.54
783.2	60.20
783.4	59.10
783.6	59.22
783.8	59.21
784.0	58.87
784.2	58.18
784.4	58.21
784.6	58.03
784.8	58.06
785.0	57.86
785.2	57.51
785.4	56.14
785.6	56.20
785.8	56.28
786.0	56.38
786.2	55.60
786.4	55.14
786.6	54.98
786.8	55.29
787.0	54.93
787.2	54.26
787.4	53.28
787.6	53.05
787.8	53.55
788.0	53.51
788.2	52.74
788.4	51.71
788.6	51.10
788.8	50.13
789.0	50.11
789.2	50.30
789.4	50.77
789.6	51.06
789.8	50.15
790.0	49.31
790.2	48.44
790.4	47.69
790.6	48.61
790.8	49.13
791.0	49.13
791.2	49.41
791.4	48.53
791.6	47.77
791.8	47.84
792.0	47.45
792.2	47.69
792.4	47.79
792.6	47.21
792.8	46.74
793.0	46.37
793.2	45.47
793.4	45.51
793.6	45.82
793.8	45.10
794.0	45.08
794.2	45.49
794.4	44.75
794.6	44.33
794.8	44.25
795.0	43.28
795.2	43.17
795.4	43.60
795.6	42.98
795.8	42.61
796.0	42.86
796.2	42.73
796.4	42.36
796.6	42.80
796.8	42.10
797.0	41.94
797.2	41.81
797.4	41.60
797.6	41.14
797.8	41.63
798.0	41.39
798.2	41.55
798.4	41.17
798.6	40.72
798.8	40.49
799.0	39.82
799.2	39.43
799.4	39.98
799.6	40.73
799.8	40.68
800.0	40.19
800.2	39.09
800.4	38.18
800.6	37.64
800.8	37.56
801.0	37.08
801.2	37.42
801.4	38.01
801.6	38.44
801.8	38.09
802.0	38.02
802.2	37.28
802.4	37.18
802.6	37.26
802.8	37.24
803.0	37.03
803.2	36.89
803.4	36.47
803.6	35.52
803.8	35.40
804.0	35.68
804.2	35.96
804.4	35.59
804.6	35.82
804.8	35.41
805.0	35.22
805.2	35.18
805.4	35.02
805.6	33.92
805.8	33.65
806.0	33.67
806.2	33.98
806.4	34.51
806.6	34.62
806.8	34.01
807.0	33.53
807.2	33.27
807.4	33.34
807.6	33.24
807.8	32.58
808.0	32.26
808.2	32.58
808.4	32.62
808.6	32.00
808.8	31.26
809.0	30.61
809.2	30.34
809.4	30.93
809.6	31.07
809.8	30.58
810.0	30.63
810.2	30.42
810.4	30.06
810.6	30.05
810.8	29.94
811.0	30.27
811.2	30.40
811.4	30.24
811.6	29.87
811.8	29.27
812.0	28.69
812.2	29.65
812.4	29.53
812.6	29.21
812.8	29.42
813.0	28.83
813.2	28.46
813.4	28.60
813.6	28.06
813.8	27.95
814.0	28.39
814.2	28.01
814.4	27.85
814.6	27.40
814.8	26.95
815.0	26.92
815.2	26.72
815.4	26.51
815.6	27.04
815.8	27.38
816.0	27.00
816.2	26.86
816.4	26.29
816.6	25.95
816.8	25.76
817.0	25.52
817.2	24.64
817.4	24.60
817.6	24.47
817.8	24.38
818.0	24.44
818.2	24.89
818.4	25.12
818.6	24.79
818.8	24.47
819.0	23.65
819.2	23.15
819.4	22.99
819.6	23.27
819.8	23.24
820.0	23.61
820.2	23.56
820.4	23.21
820.6	22.62
820.8	22.04
821.0	21.81
821.2	21.94
821.4	21.77
821.6	21.60
821.8	21.81
822.0	21.62
822.2	22.14
822.4	22.27
822.6	21.90
822.8	21.93
823.0	21.96
823.2	21.29
823.4	21.53
823.6	21.12
823.8	20.59
824.0	20.68
824.2	19.97
824.4	19.59
824.6	19.43
824.8	19.02
825.0	19.14
825.2	19.57
825.4	19.58
825.6	19.82
825.8	19.92
826.0	19.36
826.2	19.30
826.4	19.02
826.6	18.68
826.8	18.09
827.0	18.35
827.2	17.95
827.4	18.22
827.6	18.11
827.8	17.91
828.0	17.38
828.2	17.43
828.4	17.05
828.6	17.53
828.8	17.07
829.0	16.74
829.2	16.19
829.4	15.86
829.6	15.58
829.8	16.26
830.0	16.11
830.2	16.41
830.4	16.17
830.6	15.96
830.8	15.69
831.0	15.89
831.2	15.56
831.4	15.32
831.6	15.09
831.8	15.29
832.0	15.48
832.2	15.35
832.4	14.86
832.6	14.40
832.8	14.37
833.0	14.48
833.2	14.59
833.4	14.32
833.6	14.12
833.8	13.76
834.0	13.62
834.2	13.18
834.4	13.12
834.6	12.72
834.8	12.57
835.0	12.40
835.2	12.59
835.4	12.76
835.6	12.85
835.8	12.41
836.0	12.20
836.2	11.91
836.4	11.68
836.6	11.97
836.8	11.75
837.0	11.68
837.2	11.36
837.4	11.08
837.6	11.15
837.8	11.56
838.0	11.46
838.2	11.54
838.4	10.79
838.6	10.33
838.8	10.14
839.0	9.876
839.2	9.660
839.4	9.668
839.6	9.643
839.8	9.851
840.0	9.996
840.2	9.819
840.4	9.478
840.6	9.096
840.8	8.990
841.0	9.136
841.2	9.286
841.4	9.503
841.6	9.232
841.8	9.013
842.0	8.777
842.2	8.797
842.4	8.817
842.6	8.879
842.8	8.751
843.0	8.552
843.2	8.498
843.4	8.402
843.6	8.598
843.8	8.624
844.0	8.732
844.2	8.598
844.4	8.352
844.6	7.848
844.8	7.647
845.0	7.426
