Sample:	'20211010A(EM)
File name:	r-c-dots-CHO 600S2-.FDS
Run date:	'16:28:11, 03/22/2023
Operator:	Administrator
Comment:	'

Instrument
Model:	F-4700 FL Spectrophotometer
Serial number:	2019-001
ROM Version:	5J24010 00

Instrument parameters
Measurement type:	Wavelength scan
Scan mode:	Emission
Data mode:	Fluorescence
EX WL:	530.0 nm
EM  Start WL:	550.0 nm
EM  End WL:	900.0 nm
Scan speed:	1200 nm/min
Delay:	0.0 s
EX Slit:	10.0 nm
EM Slit:	10.0 nm
PMT Voltage:	640 V
Response:	0.002 s
Corrected spectra:	Off
Shutter control:	On

Processing performed
Savitsky-Golay smoothed
Smoothing order:	3
Number of points:	7
Number of times:	1

Peak integration
Integration method:	Rectangular
Sensitivity:	1
Threshold:	1.000

Peaks
No.	Start(nm)	Apex(nm)	End(nm)	Height(Data)	Valley(nm)	Valley(Data)
1	550.0	624.2	625.2	4421	625.2	4406
2	625.2	625.8	626.8	4424	626.8	4410
3	626.8	628.8	630.0	4435	630.0	4408
4	630.0	631.0	632.2	4427	632.2	4368
5	632.2	632.8	793.0	4389	793.0	30.98
6	793.0	793.6	799.8	33.02	799.8	27.57
7	799.8	800.8	805.8	29.91	805.8	24.49
8	805.8	806.4	807.6	26.87	807.6	23.49
9	807.6	808.2	809.4	25.30	809.4	21.44
10	809.4	810.8	814.4	23.06	814.4	18.44
11	814.4	815.2	823.0	20.26	823.0	14.35
12	823.0	823.8	825.0	16.23	825.0	13.57
13	825.0	826.6	828.6	14.69	828.6	12.34
14	828.6	829.4	831.0	14.51	831.0	11.36
15	831.0	831.6	835.4	13.63	835.4	10.11
16	835.4	836.8	840.4	11.26	840.4	7.873
17	840.4	840.8	852.4	8.918	852.4	5.340
18	852.4	854.0	854.8	6.503	854.8	5.196
19	854.8	855.8	859.4	6.787	859.4	4.838
20	859.4	860.2	867.4	5.919	867.4	4.199
21	867.4	868.8	878.0	5.731	878.0	4.472
22	878.0	879.2	881.2	5.535	881.2	4.137
23	881.2	884.4	886.4	6.536	886.4	4.047
24	886.4	892.6	895.8	5.648	895.8	4.302
25	895.8	896.6	898.2	5.671	898.2	4.021

Data points
nm	Data
550.0	1116
550.2	1118
550.4	1123
550.6	1131
550.8	1142
551.0	1153
551.2	1164
551.4	1165
551.6	1167
551.8	1162
552.0	1170
552.2	1187
552.4	1200
552.6	1211
552.8	1216
553.0	1219
553.2	1224
553.4	1229
553.6	1233
553.8	1243
554.0	1248
554.2	1263
554.4	1274
554.6	1284
554.8	1292
555.0	1303
555.2	1307
555.4	1313
555.6	1320
555.8	1323
556.0	1333
556.2	1347
556.4	1354
556.6	1359
556.8	1374
557.0	1378
557.2	1387
557.4	1390
557.6	1391
557.8	1396
558.0	1414
558.2	1420
558.4	1436
558.6	1441
558.8	1449
559.0	1457
559.2	1476
559.4	1491
559.6	1505
559.8	1503
560.0	1501
560.2	1504
560.4	1519
560.6	1536
560.8	1550
561.0	1556
561.2	1560
561.4	1570
561.6	1577
561.8	1579
562.0	1587
562.2	1604
562.4	1614
562.6	1625
562.8	1629
563.0	1622
563.2	1625
563.4	1639
563.6	1649
563.8	1665
564.0	1680
564.2	1693
564.4	1714
564.6	1728
564.8	1738
565.0	1745
565.2	1747
565.4	1749
565.6	1765
565.8	1780
566.0	1791
566.2	1793
566.4	1794
566.6	1797
566.8	1812
567.0	1838
567.2	1857
567.4	1864
567.6	1863
567.8	1866
568.0	1873
568.2	1887
568.4	1909
568.6	1923
568.8	1941
569.0	1953
569.2	1962
569.4	1966
569.6	1972
569.8	1978
570.0	1989
570.2	1997
570.4	2011
570.6	2021
570.8	2028
571.0	2039
571.2	2048
571.4	2061
571.6	2071
571.8	2089
572.0	2104
572.2	2117
572.4	2126
572.6	2132
572.8	2136
573.0	2155
573.2	2171
573.4	2183
573.6	2197
573.8	2204
574.0	2212
574.2	2220
574.4	2225
574.6	2231
574.8	2244
575.0	2266
575.2	2282
575.4	2299
575.6	2311
575.8	2325
576.0	2338
576.2	2354
576.4	2363
576.6	2365
576.8	2369
577.0	2377
577.2	2395
577.4	2413
577.6	2434
577.8	2444
578.0	2452
578.2	2455
578.4	2464
578.6	2475
578.8	2491
579.0	2511
579.2	2529
579.4	2544
579.6	2560
579.8	2572
580.0	2583
580.2	2595
580.4	2598
580.6	2607
580.8	2620
581.0	2630
581.2	2645
581.4	2666
581.6	2673
581.8	2683
582.0	2688
582.2	2692
582.4	2708
582.6	2733
582.8	2749
583.0	2760
583.2	2764
583.4	2772
583.6	2787
583.8	2800
584.0	2817
584.2	2830
584.4	2857
584.6	2872
584.8	2879
585.0	2877
585.2	2884
585.4	2900
585.6	2920
585.8	2927
586.0	2930
586.2	2932
586.4	2955
586.6	2975
586.8	2981
587.0	2993
587.2	3008
587.4	3028
587.6	3048
587.8	3054
588.0	3063
588.2	3071
588.4	3073
588.6	3081
588.8	3093
589.0	3106
589.2	3132
589.4	3145
589.6	3145
589.8	3162
590.0	3185
590.2	3206
590.4	3225
590.6	3226
590.8	3228
591.0	3224
591.2	3229
591.4	3243
591.6	3262
591.8	3298
592.0	3330
592.2	3333
592.4	3341
592.6	3341
592.8	3335
593.0	3354
593.2	3362
593.4	3381
593.6	3397
593.8	3412
594.0	3407
594.2	3416
594.4	3422
594.6	3441
594.8	3453
595.0	3468
595.2	3468
595.4	3483
595.6	3499
595.8	3518
596.0	3535
596.2	3549
596.4	3550
596.6	3560
596.8	3572
597.0	3578
597.2	3591
597.4	3596
597.6	3598
597.8	3604
598.0	3613
598.2	3613
598.4	3629
598.6	3636
598.8	3658
599.0	3673
599.2	3688
599.4	3709
599.6	3722
599.8	3731
600.0	3738
600.2	3741
600.4	3743
600.6	3758
600.8	3769
601.0	3770
601.2	3770
601.4	3777
601.6	3784
601.8	3805
602.0	3818
602.2	3813
602.4	3820
602.6	3816
602.8	3830
603.0	3846
603.2	3861
603.4	3877
603.6	3893
603.8	3897
604.0	3908
604.2	3912
604.4	3927
604.6	3941
604.8	3950
605.0	3960
605.2	3954
605.4	3963
605.6	3967
605.8	3976
606.0	3985
606.2	3989
606.4	3989
606.6	4005
606.8	4014
607.0	4025
607.2	4043
607.4	4043
607.6	4047
607.8	4061
608.0	4074
608.2	4081
608.4	4092
608.6	4078
608.8	4065
609.0	4074
609.2	4093
609.4	4119
609.6	4133
609.8	4131
610.0	4119
610.2	4116
610.4	4111
610.6	4117
610.8	4125
611.0	4137
611.2	4150
611.4	4150
611.6	4146
611.8	4150
612.0	4165
612.2	4189
612.4	4206
612.6	4205
612.8	4205
613.0	4211
613.2	4227
613.4	4233
613.6	4236
613.8	4232
614.0	4233
614.2	4245
614.4	4263
614.6	4259
614.8	4264
615.0	4258
615.2	4252
615.4	4250
615.6	4254
615.8	4266
616.0	4286
616.2	4297
616.4	4298
616.6	4292
616.8	4293
617.0	4303
617.2	4312
617.4	4320
617.6	4320
617.8	4328
618.0	4337
618.2	4342
618.4	4344
618.6	4345
618.8	4339
619.0	4343
619.2	4355
619.4	4359
619.6	4371
619.8	4366
620.0	4354
620.2	4353
620.4	4364
620.6	4364
620.8	4384
621.0	4374
621.2	4359
621.4	4368
621.6	4364
621.8	4370
622.0	4392
622.2	4394
622.4	4394
622.6	4398
622.8	4386
623.0	4392
623.2	4393
623.4	4397
623.6	4407
623.8	4415
624.0	4415
624.2	4421
624.4	4418
624.6	4412
624.8	4414
625.0	4411
625.2	4406
625.4	4414
625.6	4416
625.8	4424
626.0	4419
626.2	4421
626.4	4416
626.6	4414
626.8	4410
627.0	4417
627.2	4423
627.4	4425
627.6	4428
627.8	4419
628.0	4418
628.2	4423
628.4	4434
628.6	4428
628.8	4435
629.0	4427
629.2	4426
629.4	4421
629.6	4412
629.8	4415
630.0	4408
630.2	4411
630.4	4427
630.6	4420
630.8	4418
631.0	4427
631.2	4418
631.4	4415
631.6	4416
631.8	4384
632.0	4376
632.2	4368
632.4	4372
632.6	4384
632.8	4389
633.0	4383
633.2	4383
633.4	4379
633.6	4381
633.8	4386
634.0	4375
634.2	4362
634.4	4343
634.6	4338
634.8	4339
635.0	4342
635.2	4345
635.4	4346
635.6	4339
635.8	4332
636.0	4322
636.2	4314
636.4	4317
636.6	4315
636.8	4310
637.0	4297
637.2	4285
637.4	4277
637.6	4280
637.8	4272
638.0	4271
638.2	4261
638.4	4254
638.6	4244
638.8	4238
639.0	4232
639.2	4230
639.4	4233
639.6	4229
639.8	4225
640.0	4223
640.2	4217
640.4	4202
640.6	4190
640.8	4171
641.0	4165
641.2	4162
641.4	4159
641.6	4155
641.8	4146
642.0	4130
642.2	4115
642.4	4097
642.6	4096
642.8	4093
643.0	4088
643.2	4072
643.4	4049
643.6	4034
643.8	4021
644.0	4010
644.2	4006
644.4	3996
644.6	3994
644.8	3992
645.0	3968
645.2	3964
645.4	3961
645.6	3939
645.8	3929
646.0	3917
646.2	3901
646.4	3911
646.6	3900
646.8	3875
647.0	3864
647.2	3866
647.4	3862
647.6	3853
647.8	3829
648.0	3800
648.2	3789
648.4	3785
648.6	3774
648.8	3754
649.0	3740
649.2	3721
649.4	3723
649.6	3713
649.8	3705
650.0	3683
650.2	3664
650.4	3643
650.6	3636
650.8	3623
651.0	3613
651.2	3604
651.4	3596
651.6	3578
651.8	3552
652.0	3530
652.2	3513
652.4	3507
652.6	3509
652.8	3506
653.0	3497
653.2	3473
653.4	3455
653.6	3437
653.8	3423
654.0	3415
654.2	3407
654.4	3390
654.6	3380
654.8	3360
655.0	3346
655.2	3331
655.4	3314
655.6	3306
655.8	3280
656.0	3254
656.2	3245
656.4	3230
656.6	3217
656.8	3199
657.0	3172
657.2	3156
657.4	3158
657.6	3162
657.8	3154
658.0	3129
658.2	3103
658.4	3077
658.6	3066
658.8	3062
659.0	3051
659.2	3038
659.4	3033
659.6	3013
659.8	2994
660.0	2976
660.2	2961
660.4	2949
660.6	2939
660.8	2921
661.0	2900
661.2	2887
661.4	2872
661.6	2861
661.8	2848
662.0	2830
662.2	2811
662.4	2796
662.6	2783
662.8	2769
663.0	2758
663.2	2742
663.4	2728
663.6	2708
663.8	2687
664.0	2670
664.2	2664
664.4	2649
664.6	2635
664.8	2614
665.0	2592
665.2	2577
665.4	2570
665.6	2562
665.8	2549
666.0	2539
666.2	2527
666.4	2508
666.6	2490
666.8	2480
667.0	2465
667.2	2457
667.4	2445
667.6	2432
667.8	2422
668.0	2406
668.2	2390
668.4	2376
668.6	2354
668.8	2334
669.0	2321
669.2	2302
669.4	2288
669.6	2273
669.8	2253
670.0	2238
670.2	2228
670.4	2215
670.6	2209
670.8	2190
671.0	2172
671.2	2158
671.4	2144
671.6	2142
671.8	2139
672.0	2126
672.2	2119
672.4	2101
672.6	2076
672.8	2062
673.0	2049
673.2	2041
673.4	2038
673.6	2028
673.8	2003
674.0	1981
674.2	1968
674.4	1964
674.6	1955
674.8	1943
675.0	1923
675.2	1898
675.4	1883
675.6	1877
675.8	1864
676.0	1854
676.2	1846
676.4	1837
676.6	1829
676.8	1824
677.0	1809
677.2	1801
677.4	1781
677.6	1770
677.8	1752
678.0	1743
678.2	1727
678.4	1720
678.6	1701
678.8	1691
679.0	1683
679.2	1674
679.4	1665
679.6	1653
679.8	1641
680.0	1634
680.2	1632
680.4	1620
680.6	1602
680.8	1575
681.0	1557
681.2	1543
681.4	1537
681.6	1536
681.8	1533
682.0	1527
682.2	1523
682.4	1507
682.6	1490
682.8	1477
683.0	1467
683.2	1460
683.4	1456
683.6	1447
683.8	1441
684.0	1428
684.2	1418
684.4	1402
684.6	1389
684.8	1375
685.0	1367
685.2	1357
685.4	1345
685.6	1340
685.8	1333
686.0	1328
686.2	1323
686.4	1315
686.6	1296
686.8	1295
687.0	1287
687.2	1288
687.4	1276
687.6	1264
687.8	1250
688.0	1245
688.2	1236
688.4	1231
688.6	1223
688.8	1218
689.0	1207
689.2	1196
689.4	1181
689.6	1166
689.8	1158
690.0	1154
690.2	1144
690.4	1138
690.6	1132
690.8	1130
691.0	1127
691.2	1122
691.4	1109
691.6	1097
691.8	1092
692.0	1090
692.2	1087
692.4	1075
692.6	1063
692.8	1052
693.0	1048
693.2	1047
693.4	1045
693.6	1040
693.8	1037
694.0	1031
694.2	1022
694.4	1011
694.6	1004
694.8	992.6
695.0	985.4
695.2	977.2
695.4	965.8
695.6	960.3
695.8	967.2
696.0	968.7
696.2	969.7
696.4	959.7
696.6	943.6
696.8	934.9
697.0	929.6
697.2	925.1
697.4	921.8
697.6	915.8
697.8	906.1
698.0	905.3
698.2	900.7
698.4	894.6
698.6	890.4
698.8	880.9
699.0	871.7
699.2	871.1
699.4	866.0
699.6	862.5
699.8	858.2
700.0	855.7
700.2	848.8
700.4	842.2
700.6	830.3
700.8	820.5
701.0	816.7
701.2	818.3
701.4	814.3
701.6	806.2
701.8	798.7
702.0	793.7
702.2	792.5
702.4	790.4
702.6	789.8
702.8	787.4
703.0	780.1
703.2	772.3
703.4	766.3
703.6	759.6
703.8	755.4
704.0	752.2
704.2	751.6
704.4	743.0
704.6	736.0
704.8	733.2
705.0	729.8
705.2	724.7
705.4	722.9
705.6	715.3
705.8	711.8
706.0	713.6
706.2	711.4
706.4	706.6
706.6	696.8
706.8	691.4
707.0	687.7
707.2	683.9
707.4	676.5
707.6	673.3
707.8	668.1
708.0	665.9
708.2	661.1
708.4	657.6
708.6	650.7
708.8	649.5
709.0	646.7
709.2	641.4
709.4	632.1
709.6	626.5
709.8	617.4
710.0	615.2
710.2	618.6
710.4	616.7
710.6	615.1
710.8	611.5
711.0	604.4
711.2	599.9
711.4	599.1
711.6	595.2
711.8	588.2
712.0	582.2
712.2	582.1
712.4	581.7
712.6	577.3
712.8	572.9
713.0	564.3
713.2	561.0
713.4	561.4
713.6	561.4
713.8	554.6
714.0	548.3
714.2	540.7
714.4	534.5
714.6	528.6
714.8	527.7
715.0	524.8
715.2	521.7
715.4	520.4
715.6	515.1
715.8	514.7
716.0	515.8
716.2	512.6
716.4	508.4
716.6	505.8
716.8	498.8
717.0	494.5
717.2	489.8
717.4	485.0
717.6	480.4
717.8	477.2
718.0	473.4
718.2	467.7
718.4	466.0
718.6	463.4
718.8	459.7
719.0	462.1
719.2	463.9
719.4	458.8
719.6	454.2
719.8	447.7
720.0	439.7
720.2	439.9
720.4	435.4
720.6	427.9
720.8	421.7
721.0	418.9
721.2	416.2
721.4	417.6
721.6	418.3
721.8	416.3
722.0	413.7
722.2	409.7
722.4	406.1
722.6	402.4
722.8	400.7
723.0	394.4
723.2	391.3
723.4	383.4
723.6	378.7
723.8	376.7
724.0	374.3
724.2	373.8
724.4	376.5
724.6	372.3
724.8	368.4
725.0	366.9
725.2	364.5
725.4	362.4
725.6	362.9
725.8	358.4
726.0	356.3
726.2	352.2
726.4	351.0
726.6	349.0
726.8	346.4
727.0	342.2
727.2	336.9
727.4	334.3
727.6	332.1
727.8	330.1
728.0	324.6
728.2	320.0
728.4	314.9
728.6	313.6
728.8	313.4
729.0	314.4
729.2	308.6
729.4	304.1
729.6	303.6
729.8	300.0
730.0	301.5
730.2	301.2
730.4	300.7
730.6	295.6
730.8	294.5
731.0	290.6
731.2	287.0
731.4	281.7
731.6	282.4
731.8	276.8
732.0	275.7
732.2	275.5
732.4	276.0
732.6	272.9
732.8	269.3
733.0	264.9
733.2	260.4
733.4	257.7
733.6	257.8
733.8	253.4
734.0	249.4
734.2	248.4
734.4	247.7
734.6	246.5
734.8	247.6
735.0	245.1
735.2	243.5
735.4	241.4
735.6	239.5
735.8	236.3
736.0	236.8
736.2	236.1
736.4	233.6
736.6	230.4
736.8	226.1
737.0	220.5
737.2	219.5
737.4	217.2
737.6	215.2
737.8	217.5
738.0	216.5
738.2	215.1
738.4	214.4
738.6	211.4
738.8	209.5
739.0	212.8
739.2	211.1
739.4	210.0
739.6	206.8
739.8	201.3
740.0	196.7
740.2	195.3
740.4	191.6
740.6	192.0
740.8	192.4
741.0	194.0
741.2	192.2
741.4	189.7
741.6	185.0
741.8	184.2
742.0	182.5
742.2	184.0
742.4	181.9
742.6	181.4
742.8	181.9
743.0	180.6
743.2	178.1
743.4	176.4
743.6	175.0
743.8	173.1
744.0	170.5
744.2	168.2
744.4	167.9
744.6	167.2
744.8	168.1
745.0	165.7
745.2	161.3
745.4	157.3
745.6	153.2
745.8	153.5
746.0	154.7
746.2	154.3
746.4	154.7
746.6	150.9
746.8	150.2
747.0	150.4
747.2	150.1
747.4	148.2
747.6	148.5
747.8	148.1
748.0	148.1
748.2	145.0
748.4	141.4
748.6	138.8
748.8	137.1
749.0	136.4
749.2	135.9
749.4	135.5
749.6	135.1
749.8	134.7
750.0	131.2
750.2	128.2
750.4	126.4
750.6	124.6
750.8	125.3
751.0	124.8
751.2	125.6
751.4	124.8
751.6	125.2
751.8	125.8
752.0	125.7
752.2	123.0
752.4	122.0
752.6	118.4
752.8	116.6
753.0	114.3
753.2	112.8
753.4	112.6
753.6	113.4
753.8	114.9
754.0	114.1
754.2	112.6
754.4	112.9
754.6	113.2
754.8	110.2
755.0	109.7
755.2	108.4
755.4	107.7
755.6	108.0
755.8	108.3
756.0	106.9
756.2	107.0
756.4	106.3
756.6	106.3
756.8	105.6
757.0	103.8
757.2	100.8
757.4	97.64
757.6	95.94
757.8	96.98
758.0	97.49
758.2	97.89
758.4	96.86
758.6	95.87
758.8	95.51
759.0	94.53
759.2	93.34
759.4	92.10
759.6	90.85
759.8	91.31
760.0	91.07
760.2	90.81
760.4	91.20
760.6	89.27
760.8	87.76
761.0	86.66
761.2	84.98
761.4	82.83
761.6	83.31
761.8	85.37
762.0	86.81
762.2	87.44
762.4	86.89
762.6	82.36
762.8	81.62
763.0	81.54
763.2	79.57
763.4	77.83
763.6	76.95
763.8	75.09
764.0	77.53
764.2	78.38
764.4	77.44
764.6	75.52
764.8	74.99
765.0	74.63
765.2	76.22
765.4	75.40
765.6	75.18
765.8	73.36
766.0	72.74
766.2	71.36
766.4	70.32
766.6	68.92
766.8	69.60
767.0	70.56
767.2	70.29
767.4	69.97
767.6	69.52
767.8	68.82
768.0	67.76
768.2	66.26
768.4	64.63
768.6	63.26
768.8	63.44
769.0	63.55
769.2	62.84
769.4	61.55
769.6	61.25
769.8	60.11
770.0	60.29
770.2	59.69
770.4	59.59
770.6	60.01
770.8	59.41
771.0	58.59
771.2	57.82
771.4	57.20
771.6	58.30
771.8	59.58
772.0	59.86
772.2	58.86
772.4	56.72
772.6	56.04
772.8	56.15
773.0	57.15
773.2	57.41
773.4	56.12
773.6	54.04
773.8	52.48
774.0	52.20
774.2	52.43
774.4	52.87
774.6	53.11
774.8	52.94
775.0	51.70
775.2	51.40
775.4	50.02
775.6	49.34
775.8	48.86
776.0	48.16
776.2	48.15
776.4	49.13
776.6	47.74
776.8	46.63
777.0	46.12
777.2	45.98
777.4	46.73
777.6	48.67
777.8	47.10
778.0	46.89
778.2	47.21
778.4	45.97
778.6	45.44
778.8	45.23
779.0	43.47
779.2	42.38
779.4	42.76
779.6	42.39
779.8	41.50
780.0	41.18
780.2	41.92
780.4	41.51
780.6	42.35
780.8	42.27
781.0	40.97
781.2	40.22
781.4	40.82
781.6	40.62
781.8	39.59
782.0	38.78
782.2	39.34
782.4	39.33
782.6	39.45
782.8	39.57
783.0	39.07
783.2	37.91
783.4	38.66
783.6	39.01
783.8	38.33
784.0	38.89
784.2	39.03
784.4	37.88
784.6	38.14
784.8	37.97
785.0	38.57
785.2	39.24
785.4	38.93
785.6	37.50
785.8	36.74
786.0	36.45
786.2	37.12
786.4	37.86
786.6	36.84
786.8	36.72
787.0	36.51
787.2	36.65
787.4	36.06
787.6	36.64
787.8	35.57
788.0	36.57
788.2	36.44
788.4	36.21
788.6	35.23
788.8	35.40
789.0	34.15
789.2	33.80
789.4	34.31
789.6	34.21
789.8	34.36
790.0	34.91
790.2	34.07
790.4	33.84
790.6	34.10
790.8	33.22
791.0	33.22
791.2	33.13
791.4	33.53
791.6	33.39
791.8	33.30
792.0	32.69
792.2	32.42
792.4	32.41
792.6	32.70
792.8	31.95
793.0	30.98
793.2	31.31
793.4	31.97
793.6	33.02
793.8	32.76
794.0	32.49
794.2	32.27
794.4	31.82
794.6	31.11
794.8	30.85
795.0	30.65
795.2	31.23
795.4	31.53
795.6	31.04
795.8	29.99
796.0	30.17
796.2	30.54
796.4	31.27
796.6	30.28
796.8	30.17
797.0	29.39
797.2	29.68
797.4	29.49
797.6	29.60
797.8	28.75
798.0	29.21
798.2	29.37
798.4	29.85
798.6	29.80
798.8	28.83
799.0	28.33
799.2	28.16
799.4	27.89
799.6	27.99
799.8	27.57
800.0	27.65
800.2	28.61
800.4	28.82
800.6	29.16
800.8	29.91
801.0	28.87
801.2	28.42
801.4	27.97
801.6	27.54
801.8	27.53
802.0	27.90
802.2	27.44
802.4	26.88
802.6	27.16
802.8	27.36
803.0	27.59
803.2	27.22
803.4	26.52
803.6	26.14
803.8	27.03
804.0	27.60
804.2	27.26
804.4	26.72
804.6	25.52
804.8	25.20
805.0	25.41
805.2	26.44
805.4	25.72
805.6	24.95
805.8	24.49
806.0	25.40
806.2	26.28
806.4	26.87
806.6	26.52
806.8	25.46
807.0	24.97
807.2	24.55
807.4	23.98
807.6	23.49
807.8	23.62
808.0	24.46
808.2	25.30
808.4	25.01
808.6	24.48
808.8	23.65
809.0	22.65
809.2	21.93
809.4	21.44
809.6	22.13
809.8	22.41
810.0	21.92
810.2	22.26
810.4	22.85
810.6	22.93
810.8	23.06
811.0	21.79
811.2	20.53
811.4	20.22
811.6	21.23
811.8	21.23
812.0	21.43
812.2	20.98
812.4	20.39
812.6	20.15
812.8	20.47
813.0	20.01
813.2	20.22
813.4	20.43
813.6	20.08
813.8	19.74
814.0	19.69
814.2	18.81
814.4	18.44
814.6	18.80
814.8	19.42
815.0	20.11
815.2	20.26
815.4	19.71
815.6	18.95
815.8	18.29
816.0	18.09
816.2	17.91
816.4	17.44
816.6	17.55
816.8	17.73
817.0	17.56
817.2	17.69
817.4	17.40
817.6	17.26
817.8	17.23
818.0	17.86
818.2	17.18
818.4	17.29
818.6	16.93
818.8	16.77
819.0	16.58
819.2	17.05
819.4	16.94
819.6	16.69
819.8	16.68
820.0	16.53
820.2	16.66
820.4	16.89
820.6	17.43
820.8	17.18
821.0	17.49
821.2	17.04
821.4	16.57
821.6	16.31
821.8	15.94
822.0	16.28
822.2	16.94
822.4	16.68
822.6	15.88
822.8	15.33
823.0	14.35
823.2	14.74
823.4	15.61
823.6	16.22
823.8	16.23
824.0	15.67
824.2	14.75
824.4	13.96
824.6	13.82
824.8	13.74
825.0	13.57
825.2	13.68
825.4	13.79
825.6	13.83
825.8	13.73
826.0	13.93
826.2	14.16
826.4	14.54
826.6	14.69
826.8	13.82
827.0	13.12
827.2	13.67
827.4	13.89
827.6	14.52
827.8	14.38
828.0	13.61
828.2	13.49
828.4	12.75
828.6	12.34
828.8	13.34
829.0	13.14
829.2	14.00
829.4	14.51
829.6	13.75
829.8	13.20
830.0	12.76
830.2	12.00
830.4	12.16
830.6	11.82
830.8	11.70
831.0	11.36
831.2	12.12
831.4	12.94
831.6	13.63
831.8	13.51
832.0	13.34
832.2	12.37
832.4	12.62
832.6	12.31
832.8	11.90
833.0	11.68
833.2	11.95
833.4	11.76
833.6	11.76
833.8	11.39
834.0	10.71
834.2	10.35
834.4	10.64
834.6	10.96
834.8	10.73
835.0	10.90
835.2	10.56
835.4	10.11
835.6	10.39
835.8	10.56
836.0	10.37
836.2	11.08
836.4	10.65
836.6	10.67
836.8	11.26
837.0	10.85
837.2	10.65
837.4	10.76
837.6	10.59
837.8	10.19
838.0	10.27
838.2	9.374
838.4	8.896
838.6	8.922
838.8	9.265
839.0	9.136
839.2	9.343
839.4	9.382
839.6	9.323
839.8	8.973
840.0	8.612
840.2	8.419
