Sample:	'20211010A(EM)
File name:	G-CDs 6 600.FDS
Run date:	'18:28:02, 06/10/2023
Operator:	Administrator
Comment:	'

Instrument
Model:	F-4700 FL Spectrophotometer
Serial number:	2019-001
ROM Version:	5J24010 00

Instrument parameters
Measurement type:	Wavelength scan
Scan mode:	Emission
Data mode:	Fluorescence
EX WL:	400.0 nm
EM  Start WL:	420.0 nm
EM  End WL:	800.0 nm
Scan speed:	1200 nm/min
Delay:	0.0 s
EX Slit:	10.0 nm
EM Slit:	10.0 nm
PMT Voltage:	400 V
Response:	0.002 s
Corrected spectra:	Off
Shutter control:	On

Processing performed
Savitsky-Golay smoothed
Smoothing order:	3
Number of points:	7
Number of times:	1

Peak integration
Integration method:	Rectangular
Sensitivity:	1
Threshold:	1.000

Peaks
No.	Start(nm)	Apex(nm)	End(nm)	Height(Data)	Valley(nm)	Valley(Data)
1	420.0	548.4	784.4	4560	784.4	3.807

Data points
nm	Data
420.0	9.573
420.2	9.049
420.4	8.884
420.6	8.927
420.8	8.963
421.0	8.901
421.2	8.884
421.4	8.918
421.6	9.039
421.8	9.140
422.0	9.134
422.2	9.150
422.4	9.138
422.6	9.159
422.8	9.145
423.0	9.121
423.2	9.186
423.4	9.203
423.6	9.103
423.8	8.984
424.0	8.926
424.2	8.863
424.4	9.028
424.6	9.026
424.8	9.020
425.0	9.135
425.2	9.342
425.4	9.333
425.6	9.385
425.8	9.300
426.0	9.370
426.2	9.397
426.4	9.375
426.6	9.347
426.8	9.234
427.0	9.219
427.2	9.262
427.4	9.233
427.6	9.367
427.8	9.484
428.0	9.428
428.2	9.430
428.4	9.401
428.6	9.585
428.8	9.672
429.0	9.671
429.2	9.534
429.4	9.421
429.6	9.514
429.8	9.762
430.0	9.941
430.2	10.11
430.4	10.01
430.6	10.01
430.8	10.05
431.0	10.16
431.2	10.26
431.4	10.27
431.6	10.15
431.8	10.13
432.0	10.15
432.2	10.22
432.4	10.25
432.6	10.41
432.8	10.47
433.0	10.48
433.2	10.48
433.4	10.49
433.6	10.66
433.8	10.86
434.0	11.01
434.2	11.14
434.4	11.18
434.6	11.18
434.8	11.29
435.0	11.19
435.2	11.28
435.4	11.48
435.6	11.67
435.8	11.92
436.0	12.16
436.2	11.97
436.4	11.91
436.6	12.03
436.8	12.28
437.0	12.62
437.2	13.03
437.4	13.14
437.6	13.18
437.8	13.29
438.0	13.38
438.2	13.55
438.4	13.70
438.6	13.90
438.8	14.16
439.0	14.33
439.2	14.53
439.4	14.56
439.6	14.53
439.8	14.84
440.0	15.08
440.2	15.44
440.4	15.91
440.6	16.01
440.8	16.14
441.0	16.47
441.2	16.64
441.4	17.06
441.6	17.53
441.8	17.62
442.0	17.64
442.2	17.90
442.4	18.21
442.6	18.72
442.8	19.30
443.0	19.56
443.2	19.72
443.4	19.99
443.6	20.05
443.8	20.48
444.0	20.93
444.2	21.16
444.4	21.30
444.6	21.73
444.8	22.20
445.0	22.81
445.2	23.26
445.4	23.51
445.6	23.55
445.8	23.89
446.0	24.22
446.2	24.60
446.4	24.75
446.6	25.30
446.8	25.63
447.0	25.96
447.2	26.21
447.4	26.61
447.6	26.85
447.8	27.43
448.0	27.81
448.2	28.26
448.4	28.48
448.6	28.83
448.8	29.27
449.0	29.34
449.2	29.73
449.4	30.27
449.6	30.54
449.8	31.14
450.0	31.41
450.2	31.43
450.4	31.68
450.6	31.85
450.8	32.26
451.0	32.66
451.2	32.75
451.4	32.99
451.6	33.09
451.8	33.20
452.0	33.48
452.2	33.76
452.4	33.88
452.6	34.23
452.8	34.58
453.0	34.83
453.2	35.43
453.4	35.74
453.6	35.67
453.8	35.86
454.0	35.77
454.2	35.81
454.4	36.50
454.6	36.77
454.8	36.96
455.0	37.27
455.2	36.84
455.4	37.01
455.6	37.38
455.8	37.51
456.0	37.59
456.2	37.58
456.4	37.28
456.6	37.52
456.8	37.81
457.0	38.08
457.2	38.28
457.4	38.34
457.6	38.34
457.8	38.24
458.0	38.03
458.2	38.36
458.4	38.35
458.6	38.53
458.8	38.29
459.0	38.11
459.2	38.17
459.4	38.62
459.6	39.10
459.8	39.56
460.0	39.52
460.2	39.64
460.4	39.75
460.6	39.90
460.8	40.11
461.0	40.00
461.2	40.19
461.4	40.43
461.6	40.28
461.8	40.51
462.0	40.65
462.2	40.53
462.4	40.92
462.6	41.15
462.8	41.31
463.0	41.55
463.2	41.93
463.4	41.66
463.6	41.52
463.8	41.46
464.0	41.78
464.2	42.24
464.4	43.10
464.6	43.39
464.8	43.47
465.0	43.48
465.2	43.76
465.4	44.25
465.6	44.78
465.8	45.19
466.0	45.61
466.2	45.82
466.4	46.60
466.6	47.49
466.8	48.12
467.0	48.31
467.2	48.51
467.4	48.71
467.6	49.33
467.8	50.28
468.0	51.28
468.2	51.82
468.4	52.41
468.6	53.27
468.8	53.80
469.0	54.51
469.2	55.15
469.4	55.61
469.6	56.50
469.8	57.71
470.0	58.86
470.2	59.92
470.4	60.59
470.6	61.11
470.8	62.04
471.0	63.37
471.2	65.03
471.4	66.40
471.6	67.28
471.8	68.18
472.0	69.32
472.2	70.81
472.4	72.83
472.6	74.56
472.8	75.56
473.0	76.43
473.2	77.30
473.4	78.38
473.6	80.62
473.8	82.48
474.0	84.20
474.2	85.94
474.4	87.29
474.6	88.50
474.8	90.63
475.0	92.35
475.2	94.49
475.4	96.57
475.6	98.31
475.8	100.2
476.0	102.5
476.2	104.8
476.4	107.0
476.6	109.0
476.8	110.9
477.0	113.2
477.2	115.3
477.4	117.6
477.6	119.3
477.8	121.3
478.0	123.8
478.2	126.2
478.4	128.0
478.6	131.0
478.8	133.6
479.0	136.2
479.2	139.3
479.4	142.0
479.6	145.0
479.8	148.8
480.0	151.4
480.2	154.3
480.4	156.7
480.6	158.8
480.8	161.8
481.0	165.5
481.2	168.7
481.4	172.7
481.6	175.6
481.8	178.6
482.0	181.1
482.2	184.5
482.4	188.3
482.6	192.3
482.8	195.6
483.0	198.8
483.2	200.9
483.4	204.6
483.6	208.9
483.8	213.4
484.0	217.2
484.2	221.2
484.4	224.4
484.6	227.8
484.8	231.8
485.0	235.4
485.2	239.1
485.4	243.5
485.6	248.3
485.8	252.6
486.0	257.8
486.2	262.0
486.4	265.7
486.6	269.3
486.8	273.5
487.0	278.6
487.2	284.6
487.4	290.0
487.6	294.8
487.8	299.4
488.0	303.6
488.2	309.4
488.4	314.7
488.6	319.9
488.8	325.4
489.0	331.2
489.2	336.2
489.4	342.1
489.6	346.2
489.8	351.9
490.0	357.8
490.2	364.4
490.4	371.1
490.6	378.3
490.8	383.9
491.0	390.7
491.2	397.2
491.4	403.9
491.6	411.1
491.8	418.1
492.0	424.9
492.2	432.5
492.4	439.7
492.6	446.5
492.8	453.4
493.0	460.6
493.2	467.6
493.4	476.2
493.6	483.6
493.8	491.7
494.0	501.1
494.2	510.5
494.4	518.7
494.6	527.3
494.8	533.8
495.0	542.3
495.2	551.6
495.4	560.5
495.6	571.1
495.8	580.8
496.0	590.0
496.2	600.6
496.4	611.6
496.6	622.3
496.8	633.7
497.0	643.1
497.2	651.9
497.4	660.5
497.6	670.3
497.8	681.3
498.0	692.8
498.2	704.8
498.4	717.0
498.6	727.7
498.8	738.5
499.0	750.2
499.2	761.8
499.4	775.2
499.6	789.0
499.8	802.4
500.0	814.7
500.2	829.4
500.4	842.4
500.6	855.9
500.8	869.2
501.0	883.7
501.2	897.2
501.4	913.1
501.6	927.2
501.8	941.9
502.0	954.9
502.2	969.3
502.4	984.5
502.6	999.4
502.8	1015
503.0	1031
503.2	1045
503.4	1061
503.6	1078
503.8	1093
504.0	1109
504.2	1126
504.4	1142
504.6	1160
504.8	1177
505.0	1194
505.2	1213
505.4	1234
505.6	1253
505.8	1271
506.0	1286
506.2	1303
506.4	1320
506.6	1339
506.8	1356
507.0	1376
507.2	1393
507.4	1414
507.6	1432
507.8	1452
508.0	1470
508.2	1491
508.4	1507
508.6	1529
508.8	1548
509.0	1570
509.2	1591
509.4	1612
509.6	1632
509.8	1651
510.0	1672
510.2	1693
510.4	1713
510.6	1736
510.8	1759
511.0	1781
511.2	1802
511.4	1821
511.6	1840
511.8	1858
512.0	1877
512.2	1899
512.4	1922
512.6	1943
512.8	1966
513.0	1988
513.2	2011
513.4	2036
513.6	2060
513.8	2081
514.0	2100
514.2	2119
514.4	2141
514.6	2161
514.8	2184
515.0	2208
515.2	2229
515.4	2253
515.6	2276
515.8	2298
516.0	2325
516.2	2349
516.4	2368
516.6	2392
516.8	2412
517.0	2434
517.2	2457
517.4	2479
517.6	2502
517.8	2526
518.0	2549
518.2	2575
518.4	2595
518.6	2617
518.8	2639
519.0	2656
519.2	2677
519.4	2698
519.6	2715
519.8	2739
520.0	2760
520.2	2783
520.4	2807
520.6	2830
520.8	2851
521.0	2873
521.2	2894
521.4	2918
521.6	2942
521.8	2966
522.0	2989
522.2	3010
522.4	3027
522.6	3044
522.8	3064
523.0	3088
523.2	3111
523.4	3135
523.6	3154
523.8	3174
524.0	3195
524.2	3218
524.4	3236
524.6	3254
524.8	3271
525.0	3287
525.2	3306
525.4	3327
525.6	3349
525.8	3370
526.0	3389
526.2	3406
526.4	3428
526.6	3449
526.8	3473
527.0	3495
527.2	3513
527.4	3526
527.6	3544
527.8	3562
528.0	3580
528.2	3596
528.4	3611
528.6	3628
528.8	3648
529.0	3665
529.2	3681
529.4	3693
529.6	3709
529.8	3730
530.0	3748
530.2	3769
530.4	3791
530.6	3807
530.8	3828
531.0	3844
531.2	3861
531.4	3877
531.6	3890
531.8	3899
532.0	3911
532.2	3923
532.4	3941
532.6	3961
532.8	3976
533.0	3992
533.2	4005
533.4	4017
533.6	4028
533.8	4042
534.0	4050
534.2	4068
534.4	4081
534.6	4093
534.8	4103
535.0	4117
535.2	4130
535.4	4147
535.6	4161
535.8	4175
536.0	4185
536.2	4196
536.4	4208
536.6	4217
536.8	4230
537.0	4243
537.2	4251
537.4	4258
537.6	4268
537.8	4274
538.0	4284
538.2	4296
538.4	4302
538.6	4314
538.8	4328
539.0	4339
539.2	4355
539.4	4363
539.6	4365
539.8	4368
540.0	4370
540.2	4376
540.4	4390
540.6	4396
540.8	4407
541.0	4415
541.2	4422
541.4	4427
541.6	4435
541.8	4437
542.0	4443
542.2	4450
542.4	4459
542.6	4465
542.8	4474
543.0	4481
543.2	4488
543.4	4493
543.6	4497
543.8	4502
544.0	4505
544.2	4510
544.4	4517
544.6	4520
544.8	4524
545.0	4528
545.2	4525
545.4	4523
545.6	4525
545.8	4525
546.0	4529
546.2	4534
546.4	4537
546.6	4539
546.8	4541
547.0	4544
547.2	4547
547.4	4544
547.6	4546
547.8	4550
548.0	4553
548.2	4556
548.4	4560
548.6	4557
548.8	4558
549.0	4556
549.2	4553
549.4	4548
549.6	4542
549.8	4543
550.0	4544
550.2	4546
550.4	4551
550.6	4547
550.8	4542
551.0	4542
551.2	4539
551.4	4541
551.6	4539
551.8	4530
552.0	4523
552.2	4526
552.4	4527
552.6	4526
552.8	4517
553.0	4512
553.2	4503
553.4	4504
553.6	4507
553.8	4506
554.0	4501
554.2	4500
554.4	4489
554.6	4481
554.8	4480
555.0	4481
555.2	4480
555.4	4476
555.6	4465
555.8	4455
556.0	4453
556.2	4448
556.4	4442
556.6	4428
556.8	4420
557.0	4414
557.2	4411
557.4	4406
557.6	4399
557.8	4397
558.0	4398
558.2	4399
558.4	4391
558.6	4376
558.8	4359
559.0	4353
559.2	4345
559.4	4342
559.6	4335
559.8	4328
560.0	4317
560.2	4309
560.4	4298
560.6	4288
560.8	4279
561.0	4279
561.2	4271
561.4	4265
561.6	4256
561.8	4246
562.0	4237
562.2	4232
562.4	4222
562.6	4216
562.8	4205
563.0	4196
563.2	4189
563.4	4180
563.6	4169
563.8	4159
564.0	4144
564.2	4133
564.4	4127
564.6	4121
564.8	4112
565.0	4103
565.2	4092
565.4	4082
565.6	4073
565.8	4063
566.0	4050
566.2	4038
566.4	4026
566.6	4014
566.8	4006
567.0	4000
567.2	3990
567.4	3984
567.6	3974
567.8	3963
568.0	3955
568.2	3944
568.4	3930
568.6	3923
568.8	3915
569.0	3907
569.2	3896
569.4	3884
569.6	3873
569.8	3859
570.0	3849
570.2	3837
570.4	3825
570.6	3814
570.8	3803
571.0	3790
571.2	3778
571.4	3767
571.6	3757
571.8	3742
572.0	3729
572.2	3719
572.4	3707
572.6	3699
572.8	3689
573.0	3679
573.2	3665
573.4	3649
573.6	3639
573.8	3628
574.0	3618
574.2	3606
574.4	3591
574.6	3575
574.8	3562
575.0	3553
575.2	3542
575.4	3531
575.6	3522
575.8	3510
576.0	3498
576.2	3487
576.4	3473
576.6	3463
576.8	3452
577.0	3441
577.2	3427
577.4	3412
577.6	3399
577.8	3385
578.0	3373
578.2	3365
578.4	3353
578.6	3341
578.8	3332
579.0	3318
579.2	3308
579.4	3298
579.6	3285
579.8	3268
580.0	3253
580.2	3239
580.4	3229
580.6	3224
580.8	3216
581.0	3207
581.2	3198
581.4	3185
581.6	3170
581.8	3154
582.0	3138
582.2	3124
582.4	3112
582.6	3101
582.8	3090
583.0	3079
583.2	3069
583.4	3060
583.6	3050
583.8	3038
584.0	3024
584.2	3013
584.4	3000
584.6	2994
584.8	2983
585.0	2969
585.2	2955
585.4	2939
585.6	2926
585.8	2917
586.0	2903
586.2	2891
586.4	2878
586.6	2862
586.8	2850
587.0	2842
587.2	2836
587.4	2829
587.6	2819
587.8	2806
588.0	2789
588.2	2777
588.4	2767
588.6	2755
588.8	2746
589.0	2732
589.2	2724
589.4	2712
589.6	2701
589.8	2691
590.0	2681
590.2	2666
590.4	2658
590.6	2643
590.8	2630
591.0	2619
591.2	2609
591.4	2599
591.6	2590
591.8	2578
592.0	2568
592.2	2558
592.4	2544
592.6	2531
592.8	2518
593.0	2505
593.2	2496
593.4	2488
593.6	2476
593.8	2466
594.0	2457
594.2	2446
594.4	2435
594.6	2423
594.8	2412
595.0	2402
595.2	2393
595.4	2384
595.6	2375
595.8	2363
596.0	2352
596.2	2340
596.4	2330
596.6	2318
596.8	2306
597.0	2293
597.2	2285
597.4	2273
597.6	2268
597.8	2257
598.0	2248
598.2	2238
598.4	2227
598.6	2215
598.8	2205
599.0	2193
599.2	2186
599.4	2174
599.6	2163
599.8	2155
600.0	2146
600.2	2136
600.4	2126
600.6	2114
600.8	2102
601.0	2093
601.2	2086
601.4	2078
601.6	2071
601.8	2062
602.0	2050
602.2	2040
602.4	2028
602.6	2017
602.8	2012
603.0	1999
603.2	1990
603.4	1981
603.6	1971
603.8	1961
604.0	1951
604.2	1938
604.4	1928
604.6	1917
604.8	1909
605.0	1898
605.2	1888
605.4	1881
605.6	1875
605.8	1868
606.0	1859
606.2	1849
606.4	1838
606.6	1828
606.8	1819
607.0	1810
607.2	1801
607.4	1791
607.6	1780
607.8	1769
608.0	1762
608.2	1755
608.4	1745
608.6	1737
608.8	1727
609.0	1719
609.2	1710
609.4	1700
609.6	1690
609.8	1683
610.0	1676
610.2	1669
610.4	1664
610.6	1654
610.8	1646
611.0	1637
611.2	1626
611.4	1616
611.6	1607
611.8	1595
612.0	1583
612.2	1572
612.4	1562
612.6	1554
612.8	1547
613.0	1539
613.2	1532
613.4	1524
613.6	1515
613.8	1506
614.0	1498
614.2	1489
614.4	1482
614.6	1473
614.8	1466
615.0	1460
615.2	1453
615.4	1445
615.6	1436
615.8	1426
616.0	1419
616.2	1411
616.4	1402
616.6	1393
616.8	1384
617.0	1377
617.2	1372
617.4	1366
617.6	1358
617.8	1349
618.0	1340
618.2	1330
618.4	1322
618.6	1315
618.8	1308
619.0	1301
619.2	1294
619.4	1286
619.6	1278
619.8	1269
620.0	1263
620.2	1257
620.4	1253
620.6	1248
620.8	1241
621.0	1232
621.2	1221
621.4	1213
621.6	1208
621.8	1202
622.0	1195
622.2	1187
622.4	1179
622.6	1172
622.8	1165
623.0	1158
623.2	1151
623.4	1144
623.6	1138
623.8	1131
624.0	1123
624.2	1115
624.4	1107
624.6	1100
624.8	1094
625.0	1089
625.2	1082
625.4	1076
625.6	1071
625.8	1066
626.0	1059
626.2	1052
626.4	1042
626.6	1033
626.8	1027
627.0	1022
627.2	1017
627.4	1011
627.6	1005
627.8	997.8
628.0	990.3
628.2	983.4
628.4	978.5
628.6	973.7
628.8	968.7
629.0	963.8
629.2	955.3
629.4	947.8
629.6	940.9
629.8	934.0
630.0	927.9
630.2	922.5
630.4	917.3
630.6	912.5
630.8	906.0
631.0	900.2
631.2	894.3
631.4	888.3
631.6	882.6
631.8	876.4
632.0	870.5
632.2	865.1
632.4	860.5
632.6	854.9
632.8	848.7
633.0	843.2
633.2	839.8
633.4	834.9
633.6	829.9
633.8	823.5
634.0	817.7
634.2	810.0
634.4	805.2
634.6	800.0
634.8	795.5
635.0	794.0
635.2	791.1
635.4	784.7
635.6	779.8
635.8	772.1
636.0	765.5
636.2	762.3
636.4	757.7
636.6	752.1
636.8	747.3
637.0	742.1
637.2	738.1
637.4	734.8
637.6	731.0
637.8	724.9
638.0	719.8
638.2	715.2
638.4	710.0
638.6	705.2
638.8	699.6
639.0	694.7
639.2	691.2
639.4	687.9
639.6	683.6
639.8	679.4
640.0	674.3
640.2	669.9
640.4	665.6
640.6	662.3
640.8	657.1
641.0	653.0
641.2	648.1
641.4	644.5
641.6	639.7
641.8	635.3
642.0	631.5
642.2	628.4
642.4	623.9
642.6	620.8
642.8	615.0
643.0	610.4
643.2	607.2
643.4	603.0
643.6	598.8
643.8	594.6
644.0	590.2
644.2	586.7
644.4	583.0
644.6	579.3
644.8	575.8
645.0	570.3
645.2	565.8
645.4	560.8
645.6	557.1
645.8	553.8
646.0	550.6
646.2	547.1
646.4	543.8
646.6	539.7
646.8	537.0
647.0	532.9
647.2	528.2
647.4	524.4
647.6	521.1
647.8	517.4
648.0	514.5
648.2	511.7
648.4	507.5
648.6	504.2
648.8	500.7
649.0	496.7
649.2	492.3
649.4	489.8
649.6	486.1
649.8	483.1
650.0	480.1
650.2	476.5
650.4	474.2
650.6	471.4
650.8	469.1
651.0	465.5
651.2	462.6
651.4	458.9
651.6	456.1
651.8	452.1
652.0	450.4
652.2	447.3
652.4	444.2
652.6	441.3
652.8	438.7
653.0	435.6
653.2	432.7
653.4	428.0
653.6	424.4
653.8	421.4
654.0	418.5
654.2	416.0
654.4	413.6
654.6	409.6
654.8	407.0
655.0	404.1
655.2	401.2
655.4	399.8
655.6	399.5
655.8	397.0
656.0	393.6
656.2	389.4
656.4	385.2
656.6	382.6
656.8	380.4
657.0	378.1
657.2	376.1
657.4	373.5
657.6	370.9
657.8	368.2
658.0	364.5
658.2	360.6
658.4	357.8
658.6	355.6
658.8	354.0
659.0	352.2
659.2	350.1
659.4	347.1
659.6	344.6
659.8	342.1
660.0	339.4
660.2	336.6
660.4	333.9
660.6	331.4
660.8	329.2
661.0	326.9
661.2	325.0
661.4	323.5
661.6	320.8
661.8	318.5
662.0	315.8
662.2	312.7
662.4	311.2
662.6	309.5
662.8	307.9
663.0	305.7
663.2	302.6
663.4	299.9
663.6	298.3
663.8	295.3
664.0	294.3
664.2	292.9
664.4	290.8
664.6	289.2
664.8	287.0
665.0	283.8
665.2	281.6
665.4	280.1
665.6	278.5
665.8	276.7
666.0	274.6
666.2	273.1
666.4	270.5
666.6	268.1
666.8	265.7
667.0	262.9
667.2	261.5
667.4	260.3
667.6	258.3
667.8	257.1
668.0	255.2
668.2	253.8
668.4	252.6
668.6	250.0
668.8	247.5
669.0	245.6
669.2	243.4
669.4	241.8
669.6	240.2
669.8	238.3
670.0	236.9
670.2	235.2
670.4	233.4
670.6	230.8
670.8	229.3
671.0	228.1
671.2	226.7
671.4	224.7
671.6	223.2
671.8	221.2
672.0	220.1
672.2	219.3
672.4	217.7
672.6	216.0
672.8	215.0
673.0	213.3
673.2	211.7
673.4	210.2
673.6	208.3
673.8	206.3
674.0	204.2
674.2	202.1
674.4	200.7
674.6	199.6
674.8	198.8
675.0	197.5
675.2	195.9
675.4	194.6
675.6	193.3
675.8	192.3
676.0	190.8
676.2	189.2
676.4	187.6
676.6	185.9
676.8	184.3
677.0	183.3
677.2	181.8
677.4	180.5
677.6	178.8
677.8	177.1
678.0	176.2
678.2	174.9
678.4	174.3
678.6	173.1
678.8	171.4
679.0	169.6
679.2	168.3
679.4	166.9
679.6	166.7
679.8	165.9
680.0	164.0
680.2	162.2
680.4	160.2
680.6	159.3
680.8	159.0
681.0	158.1
681.2	156.7
681.4	155.7
681.6	154.6
681.8	153.5
682.0	152.2
682.2	151.0
682.4	150.0
682.6	149.1
682.8	148.2
683.0	146.2
683.2	144.1
683.4	142.4
683.6	141.6
683.8	141.0
684.0	140.5
684.2	139.4
684.4	138.3
684.6	137.6
684.8	136.8
685.0	136.0
685.2	135.2
685.4	134.3
685.6	133.4
685.8	132.5
686.0	130.6
686.2	128.9
686.4	127.5
686.6	126.4
686.8	126.0
687.0	125.9
687.2	125.3
687.4	123.9
687.6	122.9
687.8	122.0
688.0	121.6
688.2	121.1
688.4	120.2
688.6	118.3
688.8	117.0
689.0	115.9
689.2	114.9
689.4	114.1
689.6	114.0
689.8	113.3
690.0	113.0
690.2	111.7
690.4	110.3
690.6	109.2
690.8	108.9
691.0	108.4
691.2	107.7
691.4	107.1
691.6	106.0
691.8	105.0
692.0	104.5
692.2	103.9
692.4	103.0
692.6	102.4
692.8	101.4
693.0	100.6
693.2	100.1
693.4	99.73
693.6	99.00
693.8	98.33
694.0	97.42
694.2	96.74
694.4	95.99
694.6	95.22
694.8	94.14
695.0	93.73
695.2	93.15
695.4	92.52
695.6	91.51
695.8	90.05
696.0	89.21
696.2	89.17
696.4	89.18
696.6	89.22
696.8	88.78
697.0	87.92
697.2	87.46
697.4	86.27
697.6	85.56
697.8	85.13
698.0	84.41
698.2	84.02
698.4	83.75
698.6	82.72
698.8	82.22
699.0	81.68
699.2	81.10
699.4	80.67
699.6	80.65
699.8	80.16
700.0	79.77
700.2	79.18
700.4	78.67
700.6	77.65
700.8	76.87
701.0	76.15
701.2	75.67
701.4	75.07
701.6	74.56
701.8	73.91
702.0	73.54
702.2	73.44
702.4	73.21
702.6	72.84
702.8	72.09
703.0	71.51
703.2	70.69
703.4	69.92
703.6	69.20
703.8	68.83
704.0	68.63
704.2	68.97
704.4	68.64
704.6	68.10
704.8	67.46
705.0	67.08
705.2	66.74
705.4	66.55
705.6	65.81
705.8	65.15
706.0	64.77
706.2	64.68
706.4	64.31
706.6	63.70
706.8	62.89
707.0	62.34
707.2	61.93
707.4	61.41
707.6	60.87
707.8	60.62
708.0	60.16
708.2	59.43
708.4	59.15
708.6	58.70
708.8	58.07
709.0	58.16
709.2	58.13
709.4	57.45
709.6	57.29
709.8	56.65
710.0	55.96
710.2	55.67
710.4	55.35
710.6	54.80
710.8	54.67
711.0	54.29
711.2	53.92
711.4	53.68
711.6	53.09
711.8	52.76
712.0	52.68
712.2	52.38
712.4	52.05
712.6	51.76
712.8	51.37
713.0	50.94
713.2	50.54
713.4	50.05
713.6	49.57
713.8	48.74
714.0	48.28
714.2	47.97
714.4	48.20
714.6	48.13
714.8	48.13
715.0	47.54
715.2	47.09
715.4	46.30
715.6	45.76
715.8	45.39
716.0	45.40
716.2	44.93
716.4	44.61
716.6	44.18
716.8	43.99
717.0	44.13
717.2	44.08
717.4	43.46
717.6	42.90
717.8	42.60
718.0	42.17
718.2	41.62
718.4	41.30
718.6	40.98
718.8	40.64
719.0	40.41
719.2	40.07
719.4	39.68
719.6	39.51
719.8	39.32
720.0	39.12
720.2	39.02
720.4	38.59
720.6	38.14
720.8	38.05
721.0	37.60
721.2	37.44
721.4	37.35
721.6	36.74
721.8	36.35
722.0	36.34
722.2	35.90
722.4	35.61
722.6	35.53
722.8	35.28
723.0	35.22
723.2	35.20
723.4	34.82
