Sample:	'20211010A(EM)
File name:	G-CDs 3 300.FDS
Run date:	'18:18:41, 06/10/2023
Operator:	Administrator
Comment:	'

Instrument
Model:	F-4700 FL Spectrophotometer
Serial number:	2019-001
ROM Version:	5J24010 00

Instrument parameters
Measurement type:	Wavelength scan
Scan mode:	Emission
Data mode:	Fluorescence
EX WL:	400.0 nm
EM  Start WL:	420.0 nm
EM  End WL:	800.0 nm
Scan speed:	1200 nm/min
Delay:	0.0 s
EX Slit:	10.0 nm
EM Slit:	10.0 nm
PMT Voltage:	380 V
Response:	0.002 s
Corrected spectra:	Off
Shutter control:	On

Processing performed
Savitsky-Golay smoothed
Smoothing order:	3
Number of points:	7
Number of times:	1

Peak integration
Integration method:	Rectangular
Sensitivity:	1
Threshold:	1.000

Peaks
No.	Start(nm)	Apex(nm)	End(nm)	Height(Data)	Valley(nm)	Valley(Data)
1	420.0	547.8	549.2	2266	549.2	2259
2	549.2	549.8	785.8	2265	785.8	2.009

Data points
nm	Data
420.0	4.651
420.2	4.453
420.4	4.433
420.6	4.513
420.8	4.591
421.0	4.626
421.2	4.579
421.4	4.629
421.6	4.614
421.8	4.616
422.0	4.576
422.2	4.480
422.4	4.434
422.6	4.467
422.8	4.544
423.0	4.648
423.2	4.632
423.4	4.598
423.6	4.575
423.8	4.627
424.0	4.658
424.2	4.666
424.4	4.672
424.6	4.694
424.8	4.730
425.0	4.752
425.2	4.579
425.4	4.536
425.6	4.550
425.8	4.652
426.0	4.719
426.2	4.809
426.4	4.776
426.6	4.775
426.8	4.715
427.0	4.793
427.2	4.789
427.4	4.843
427.6	4.836
427.8	4.830
428.0	4.739
428.2	4.885
428.4	4.955
428.6	4.985
428.8	4.957
429.0	4.875
429.2	4.745
429.4	4.736
429.6	4.743
429.8	4.768
430.0	4.848
430.2	4.931
430.4	5.047
430.6	5.097
430.8	5.104
431.0	5.096
431.2	5.055
431.4	5.039
431.6	5.028
431.8	5.062
432.0	5.065
432.2	5.159
432.4	5.096
432.6	5.180
432.8	5.234
433.0	5.282
433.2	5.311
433.4	5.318
433.6	5.174
433.8	5.253
434.0	5.374
434.2	5.400
434.4	5.501
434.6	5.589
434.8	5.652
435.0	5.706
435.2	5.792
435.4	5.833
435.6	5.897
435.8	5.996
436.0	5.999
436.2	5.987
436.4	6.036
436.6	6.162
436.8	6.268
437.0	6.450
437.2	6.523
437.4	6.523
437.6	6.593
437.8	6.760
438.0	6.812
438.2	6.967
438.4	6.992
438.6	6.986
438.8	7.028
439.0	7.148
439.2	7.169
439.4	7.309
439.6	7.367
439.8	7.490
440.0	7.565
440.2	7.646
440.4	7.801
440.6	7.986
440.8	8.218
441.0	8.319
441.2	8.346
441.4	8.359
441.6	8.453
441.8	8.599
442.0	8.851
442.2	9.030
442.4	9.067
442.6	9.243
442.8	9.317
443.0	9.519
443.2	9.629
443.4	9.858
443.6	10.00
443.8	10.24
444.0	10.35
444.2	10.49
444.4	10.61
444.6	10.79
444.8	10.94
445.0	11.18
445.2	11.33
445.4	11.43
445.6	11.52
445.8	11.61
446.0	11.87
446.2	12.17
446.4	12.38
446.6	12.53
446.8	12.68
447.0	12.87
447.2	13.09
447.4	13.36
447.6	13.55
447.8	13.67
448.0	13.93
448.2	14.04
448.4	14.04
448.6	14.33
448.8	14.57
449.0	14.67
449.2	14.65
449.4	14.60
449.6	14.64
449.8	14.96
450.0	15.30
450.2	15.50
450.4	15.46
450.6	15.67
450.8	15.88
451.0	16.03
451.2	16.11
451.4	16.11
451.6	16.09
451.8	16.34
452.0	16.57
452.2	16.75
452.4	16.77
452.6	16.82
452.8	16.88
453.0	16.97
453.2	17.10
453.4	17.27
453.6	17.27
453.8	17.48
454.0	17.55
454.2	17.75
454.4	17.89
454.6	17.88
454.8	17.92
455.0	18.01
455.2	17.94
455.4	17.94
455.6	17.91
455.8	17.79
456.0	17.87
456.2	17.91
456.4	18.02
456.6	17.99
456.8	18.14
457.0	18.34
457.2	18.46
457.4	18.62
457.6	18.84
457.8	18.75
458.0	18.72
458.2	18.64
458.4	18.41
458.6	18.43
458.8	18.71
459.0	18.75
459.2	18.78
459.4	18.73
459.6	18.73
459.8	18.82
460.0	19.13
460.2	19.23
460.4	19.37
460.6	19.50
460.8	19.60
461.0	19.73
461.2	19.75
461.4	19.65
461.6	19.62
461.8	19.73
462.0	19.69
462.2	19.60
462.4	19.60
462.6	19.55
462.8	19.68
463.0	20.05
463.2	20.17
463.4	20.25
463.6	20.29
463.8	20.30
464.0	20.50
464.2	20.75
464.4	20.97
464.6	21.27
464.8	21.41
465.0	21.52
465.2	21.58
465.4	21.61
465.6	21.78
465.8	22.11
466.0	22.50
466.2	22.81
466.4	23.05
466.6	23.05
466.8	23.04
467.0	23.29
467.2	23.56
467.4	24.15
467.6	24.61
467.8	24.87
468.0	25.23
468.2	25.72
468.4	26.05
468.6	26.31
468.8	26.41
469.0	26.64
469.2	27.25
469.4	27.89
469.6	28.37
469.8	28.62
470.0	28.81
470.2	29.33
470.4	30.02
470.6	30.60
470.8	31.09
471.0	31.57
471.2	31.86
471.4	32.43
471.6	32.85
471.8	33.41
472.0	34.08
472.2	34.80
472.4	35.60
472.6	36.48
472.8	37.13
473.0	37.90
473.2	38.61
473.4	39.13
473.6	39.78
473.8	40.61
474.0	41.56
474.2	42.50
474.4	43.39
474.6	44.09
474.8	44.74
475.0	45.74
475.2	46.95
475.4	47.94
475.6	48.90
475.8	49.78
476.0	50.65
476.2	51.74
476.4	52.82
476.6	53.94
476.8	54.80
477.0	55.98
477.2	57.48
477.4	59.01
477.6	59.92
477.8	60.87
478.0	61.61
478.2	62.58
478.4	64.00
478.6	65.42
478.8	66.83
479.0	68.62
479.2	70.28
479.4	71.68
479.6	73.06
479.8	73.94
480.0	75.17
480.2	76.47
480.4	77.92
480.6	79.63
480.8	81.08
481.0	82.71
481.2	84.12
481.4	85.36
481.6	86.86
481.8	88.76
482.0	90.41
482.2	92.51
482.4	94.51
482.6	96.51
482.8	98.04
483.0	100.1
483.2	101.2
483.4	102.7
483.6	104.5
483.8	106.6
484.0	108.3
484.2	110.5
484.4	112.1
484.6	114.1
484.8	115.6
485.0	117.4
485.2	119.3
485.4	121.6
485.6	124.5
485.8	127.1
486.0	129.5
486.2	131.8
486.4	133.7
486.6	135.6
486.8	137.7
487.0	139.7
487.2	142.3
487.4	145.0
487.6	147.6
487.8	150.2
488.0	152.6
488.2	155.0
488.4	157.3
488.6	160.2
488.8	163.3
489.0	166.2
489.2	169.0
489.4	172.0
489.6	174.5
489.8	177.5
490.0	180.4
490.2	183.0
490.4	185.8
490.6	188.9
490.8	192.2
491.0	196.4
491.2	200.2
491.4	203.8
491.6	206.7
491.8	210.2
492.0	213.9
492.2	217.4
492.4	220.7
492.6	223.9
492.8	226.8
493.0	231.1
493.2	235.1
493.4	239.1
493.6	242.9
493.8	247.3
494.0	251.1
494.2	255.8
494.4	260.2
494.6	265.1
494.8	269.7
495.0	274.8
495.2	279.2
495.4	283.8
495.6	287.8
495.8	292.8
496.0	296.8
496.2	301.8
496.4	307.1
496.6	311.8
496.8	316.4
497.0	321.6
497.2	326.3
497.4	332.1
497.6	338.3
497.8	344.1
498.0	349.6
498.2	354.9
498.4	360.1
498.6	365.8
498.8	371.1
499.0	377.3
499.2	384.0
499.4	391.0
499.6	397.8
499.8	405.2
500.0	410.8
500.2	417.0
500.4	423.9
500.6	431.1
500.8	439.2
501.0	447.2
501.2	454.2
501.4	460.5
501.6	466.6
501.8	473.8
502.0	481.7
502.2	489.2
502.4	497.2
502.6	504.3
502.8	510.5
503.0	518.3
503.2	526.0
503.4	534.4
503.6	543.5
503.8	552.4
504.0	561.3
504.2	569.9
504.4	578.0
504.6	586.2
504.8	593.8
505.0	602.9
505.2	612.2
505.4	621.4
505.6	631.2
505.8	640.7
506.0	647.8
506.2	657.3
506.4	666.9
506.6	675.7
506.8	685.1
507.0	694.1
507.2	701.9
507.4	712.0
507.6	722.8
507.8	733.1
508.0	743.1
508.2	752.4
508.4	761.6
508.6	771.8
508.8	780.0
509.0	790.0
509.2	800.8
509.4	811.2
509.6	822.3
509.8	832.9
510.0	841.4
510.2	851.8
510.4	862.0
510.6	872.8
510.8	884.7
511.0	895.9
511.2	906.7
511.4	917.0
511.6	928.2
511.8	939.3
512.0	949.0
512.2	958.5
512.4	968.5
512.6	977.6
512.8	989.7
513.0	1001
513.2	1011
513.4	1023
513.6	1036
513.8	1048
514.0	1058
514.2	1067
514.4	1077
514.6	1088
514.8	1100
515.0	1111
515.2	1121
515.4	1132
515.6	1144
515.8	1156
516.0	1168
516.2	1178
516.4	1188
516.6	1200
516.8	1213
517.0	1224
517.2	1235
517.4	1244
517.6	1255
517.8	1267
518.0	1280
518.2	1291
518.4	1301
518.6	1309
518.8	1318
519.0	1330
519.2	1343
519.4	1354
519.6	1366
519.8	1377
520.0	1385
520.2	1396
520.4	1408
520.6	1420
520.8	1432
521.0	1443
521.2	1453
521.4	1465
521.6	1476
521.8	1488
522.0	1499
522.2	1510
522.4	1520
522.6	1529
522.8	1537
523.0	1547
523.2	1558
523.4	1570
523.6	1580
523.8	1590
524.0	1599
524.2	1609
524.4	1621
524.6	1634
524.8	1645
525.0	1654
525.2	1664
525.4	1674
525.6	1684
525.8	1694
526.0	1702
526.2	1711
526.4	1719
526.6	1727
526.8	1737
527.0	1747
527.2	1756
527.4	1766
527.6	1773
527.8	1780
528.0	1788
528.2	1797
528.4	1807
528.6	1817
528.8	1828
529.0	1836
529.2	1846
529.4	1854
529.6	1863
529.8	1875
530.0	1884
530.2	1892
530.4	1899
530.6	1905
530.8	1913
531.0	1922
531.2	1930
531.4	1937
531.6	1943
531.8	1952
532.0	1957
532.2	1963
532.4	1969
532.6	1976
532.8	1986
533.0	1996
533.2	2002
533.4	2009
533.6	2014
533.8	2021
534.0	2028
534.2	2034
534.4	2040
534.6	2046
534.8	2052
535.0	2057
535.2	2063
535.4	2069
535.6	2075
535.8	2083
536.0	2088
536.2	2093
536.4	2100
536.6	2106
536.8	2111
537.0	2117
537.2	2122
537.4	2127
537.6	2132
537.8	2137
538.0	2140
538.2	2146
538.4	2151
538.6	2153
538.8	2155
539.0	2160
539.2	2168
539.4	2176
539.6	2180
539.8	2184
540.0	2187
540.2	2189
540.4	2194
540.6	2196
540.8	2199
541.0	2204
541.2	2208
541.4	2211
541.6	2216
541.8	2219
542.0	2222
542.2	2227
542.4	2230
542.6	2230
542.8	2232
543.0	2233
543.2	2235
543.4	2240
543.6	2243
543.8	2244
544.0	2244
544.2	2242
544.4	2242
544.6	2246
544.8	2248
545.0	2253
545.2	2255
545.4	2255
545.6	2253
545.8	2253
546.0	2252
546.2	2253
546.4	2256
546.6	2257
546.8	2257
547.0	2258
547.2	2260
547.4	2263
547.6	2265
547.8	2266
548.0	2264
548.2	2263
548.4	2264
548.6	2264
548.8	2263
549.0	2262
549.2	2259
549.4	2260
549.6	2262
549.8	2265
550.0	2264
550.2	2263
550.4	2261
550.6	2259
550.8	2258
551.0	2256
551.2	2253
551.4	2253
551.6	2252
551.8	2251
552.0	2251
552.2	2249
552.4	2248
552.6	2247
552.8	2245
553.0	2242
553.2	2239
553.4	2236
553.6	2234
553.8	2231
554.0	2230
554.2	2228
554.4	2228
554.6	2227
554.8	2227
555.0	2225
555.2	2223
555.4	2218
555.6	2217
555.8	2212
556.0	2212
556.2	2210
556.4	2204
556.6	2199
556.8	2194
557.0	2190
557.2	2190
557.4	2188
557.6	2184
557.8	2182
558.0	2176
558.2	2173
558.4	2171
558.6	2170
558.8	2165
559.0	2159
559.2	2153
559.4	2148
559.6	2145
559.8	2141
560.0	2138
560.2	2135
560.4	2133
560.6	2129
560.8	2124
561.0	2118
561.2	2112
561.4	2110
561.6	2106
561.8	2102
562.0	2099
562.2	2097
562.4	2094
562.6	2094
562.8	2087
563.0	2081
563.2	2074
563.4	2066
563.6	2062
563.8	2056
564.0	2051
564.2	2047
564.4	2043
564.6	2039
564.8	2035
565.0	2029
565.2	2024
565.4	2019
565.6	2014
565.8	2009
566.0	2003
566.2	1999
566.4	1996
566.6	1991
566.8	1985
567.0	1979
567.2	1974
567.4	1968
567.6	1965
567.8	1961
568.0	1956
568.2	1951
568.4	1948
568.6	1940
568.8	1932
569.0	1926
569.2	1921
569.4	1915
569.6	1914
569.8	1906
570.0	1899
570.2	1891
570.4	1885
570.6	1881
570.8	1879
571.0	1872
571.2	1865
571.4	1857
571.6	1850
571.8	1842
572.0	1838
572.2	1832
572.4	1830
572.6	1828
572.8	1826
573.0	1821
573.2	1815
573.4	1806
573.6	1800
573.8	1792
574.0	1785
574.2	1779
574.4	1772
574.6	1765
574.8	1762
575.0	1757
575.2	1752
575.4	1746
575.6	1738
575.8	1731
576.0	1725
576.2	1720
576.4	1715
576.6	1710
576.8	1703
577.0	1697
577.2	1689
577.4	1683
577.6	1678
577.8	1674
578.0	1670
578.2	1666
578.4	1661
578.6	1655
578.8	1647
579.0	1642
579.2	1638
579.4	1632
579.6	1626
579.8	1621
580.0	1615
580.2	1609
580.4	1602
580.6	1594
580.8	1585
581.0	1580
581.2	1575
581.4	1569
581.6	1563
581.8	1557
582.0	1550
582.2	1543
582.4	1538
582.6	1530
582.8	1525
583.0	1518
583.2	1513
583.4	1508
583.6	1503
583.8	1497
584.0	1491
584.2	1485
584.4	1480
584.6	1475
584.8	1469
585.0	1462
585.2	1456
585.4	1449
585.6	1443
585.8	1437
586.0	1431
586.2	1424
586.4	1420
586.6	1415
586.8	1411
587.0	1406
587.2	1401
587.4	1394
587.6	1386
587.8	1380
588.0	1374
588.2	1370
588.4	1365
588.6	1360
588.8	1354
589.0	1347
589.2	1342
589.4	1338
589.6	1333
589.8	1328
590.0	1321
590.2	1314
590.4	1306
590.6	1300
590.8	1295
591.0	1290
591.2	1285
591.4	1280
591.6	1272
591.8	1265
592.0	1259
592.2	1255
592.4	1251
592.6	1247
592.8	1242
593.0	1237
593.2	1232
593.4	1227
593.6	1221
593.8	1217
594.0	1211
594.2	1204
594.4	1198
594.6	1193
594.8	1188
595.0	1182
595.2	1177
595.4	1171
595.6	1165
595.8	1162
596.0	1158
596.2	1152
596.4	1146
596.6	1141
596.8	1136
597.0	1131
597.2	1125
597.4	1121
597.6	1115
597.8	1112
598.0	1106
598.2	1100
598.4	1094
598.6	1088
598.8	1083
599.0	1079
599.2	1074
599.4	1071
599.6	1066
599.8	1062
600.0	1057
600.2	1052
600.4	1046
600.6	1040
600.8	1035
601.0	1030
601.2	1026
601.4	1021
601.6	1018
601.8	1013
602.0	1008
602.2	1002
602.4	995.2
602.6	990.3
602.8	986.0
603.0	981.6
603.2	977.1
603.4	971.7
603.6	966.2
603.8	962.3
604.0	957.3
604.2	954.3
604.4	949.5
604.6	944.6
604.8	941.0
605.0	935.9
605.2	931.0
605.4	927.1
605.6	921.1
605.8	916.0
606.0	912.2
606.2	906.9
606.4	902.4
606.6	898.0
606.8	893.2
607.0	887.5
607.2	882.7
607.4	877.9
607.6	873.6
607.8	870.5
608.0	867.0
608.2	862.3
608.4	857.5
608.6	851.4
608.8	845.8
609.0	841.4
609.2	836.8
609.4	834.1
609.6	829.7
609.8	825.9
610.0	822.9
610.2	819.5
610.4	814.7
610.6	810.1
610.8	803.9
611.0	799.6
611.2	796.2
611.4	792.3
611.6	786.5
611.8	782.2
612.0	777.2
612.2	772.5
612.4	768.2
612.6	764.8
612.8	760.7
613.0	757.0
613.2	753.3
613.4	748.4
613.6	744.1
613.8	741.1
614.0	736.3
614.2	731.4
614.4	726.8
614.6	722.8
614.8	719.3
615.0	716.1
615.2	711.2
615.4	708.2
615.6	704.1
615.8	699.9
616.0	695.4
616.2	690.7
616.4	686.5
616.6	683.3
616.8	680.0
617.0	675.4
617.2	672.7
617.4	670.0
617.6	667.0
617.8	662.6
618.0	658.8
618.2	654.1
618.4	650.8
618.6	647.7
618.8	643.3
619.0	639.2
619.2	635.1
619.4	632.1
619.6	627.8
619.8	624.4
620.0	619.3
620.2	616.1
620.4	611.9
620.6	609.3
620.8	605.7
621.0	602.3
621.2	598.1
621.4	594.6
621.6	590.6
621.8	586.7
622.0	582.7
622.2	579.7
622.4	577.1
622.6	574.7
622.8	570.8
623.0	567.2
623.2	563.3
623.4	560.2
623.6	557.1
623.8	554.5
624.0	551.5
624.2	548.6
624.4	544.7
624.6	539.4
624.8	535.3
625.0	531.9
625.2	529.8
625.4	526.9
625.6	523.9
625.8	519.4
626.0	516.4
626.2	513.0
626.4	511.1
626.6	508.5
626.8	505.3
627.0	501.8
627.2	498.0
627.4	493.8
627.6	491.4
627.8	487.8
628.0	484.4
628.2	481.6
628.4	478.0
628.6	474.7
628.8	472.5
629.0	469.8
629.2	466.5
629.4	463.5
629.6	460.3
629.8	457.9
630.0	456.1
630.2	453.5
630.4	449.8
630.6	446.9
630.8	444.5
631.0	442.0
631.2	439.4
631.4	436.6
631.6	434.3
631.8	431.9
632.0	429.3
632.2	425.7
632.4	421.7
632.6	418.6
632.8	416.2
633.0	413.5
633.2	410.7
633.4	408.7
633.6	406.5
633.8	404.3
634.0	401.6
634.2	397.9
634.4	394.4
634.6	392.8
634.8	390.8
635.0	388.1
635.2	384.6
635.4	382.1
635.6	379.9
635.8	377.7
636.0	374.8
636.2	372.1
636.4	369.5
636.6	368.3
636.8	366.3
637.0	364.2
637.2	361.8
637.4	359.3
637.6	356.7
637.8	353.4
638.0	351.4
638.2	350.0
638.4	348.3
638.6	346.3
638.8	343.6
639.0	340.2
639.2	337.9
639.4	336.3
639.6	334.1
639.8	331.7
640.0	330.1
640.2	327.8
640.4	325.3
640.6	323.7
640.8	321.8
641.0	319.1
641.2	317.1
641.4	315.8
641.6	313.6
641.8	311.2
642.0	309.0
642.2	306.2
642.4	304.1
642.6	302.2
642.8	300.4
643.0	298.6
643.2	297.0
643.4	295.4
643.6	294.2
643.8	291.8
644.0	289.2
644.2	286.9
644.4	284.5
644.6	282.4
644.8	280.4
645.0	279.3
645.2	277.0
645.4	274.9
645.6	272.7
645.8	270.8
646.0	269.4
646.2	267.9
646.4	265.5
646.6	263.7
646.8	262.2
647.0	260.8
647.2	259.2
647.4	257.0
647.6	254.5
647.8	252.8
648.0	252.0
648.2	250.3
648.4	247.6
648.6	246.3
648.8	244.0
649.0	242.4
649.2	241.6
649.4	240.2
649.6	238.3
649.8	237.2
650.0	235.5
650.2	233.8
650.4	231.9
650.6	230.1
650.8	228.8
651.0	227.3
651.2	226.5
651.4	225.2
651.6	223.2
651.8	221.7
652.0	219.8
652.2	218.0
652.4	216.8
652.6	215.5
652.8	213.9
653.0	213.0
653.2	210.9
653.4	209.3
653.6	207.5
653.8	206.2
654.0	205.0
654.2	203.8
654.4	202.4
654.6	201.3
654.8	199.3
655.0	197.9
655.2	196.2
655.4	194.5
655.6	193.1
655.8	192.2
656.0	190.8
656.2	189.9
656.4	188.8
656.6	187.5
656.8	186.2
657.0	184.8
657.2	183.4
657.4	182.2
657.6	181.1
657.8	179.4
658.0	178.3
658.2	176.5
658.4	175.4
658.6	174.5
658.8	173.7
659.0	172.3
659.2	171.5
659.4	170.0
659.6	169.1
659.8	167.6
660.0	166.0
660.2	164.4
660.4	163.2
660.6	162.1
660.8	161.2
661.0	159.7
661.2	158.5
661.4	157.5
661.6	156.6
661.8	155.8
662.0	155.1
662.2	153.8
662.4	152.8
662.6	151.5
662.8	150.3
663.0	149.0
663.2	148.1
663.4	146.9
663.6	145.8
663.8	144.9
664.0	143.8
664.2	142.3
664.4	141.5
664.6	140.2
664.8	139.5
665.0	138.9
665.2	138.4
665.4	137.3
665.6	136.5
665.8	135.2
666.0	134.2
666.2	133.4
666.4	132.7
666.6	131.1
666.8	130.0
667.0	128.8
667.2	127.8
667.4	127.3
667.6	126.6
667.8	125.3
668.0	124.1
668.2	123.2
668.4	122.1
668.6	121.4
668.8	120.9
669.0	120.0
669.2	118.7
669.4	117.7
669.6	116.6
669.8	116.1
670.0	115.9
670.2	115.4
670.4	114.3
670.6	113.2
670.8	112.4
671.0	111.7
671.2	111.0
671.4	110.2
671.6	109.0
671.8	107.7
672.0	107.4
672.2	106.6
672.4	105.8
672.6	104.9
672.8	104.0
673.0	103.3
673.2	103.2
673.4	102.1
673.6	101.4
673.8	100.4
674.0	99.51
674.2	98.69
674.4	98.34
674.6	97.43
674.8	96.71
675.0	96.31
675.2	95.47
675.4	93.95
675.6	93.67
675.8	92.95
676.0	92.11
676.2	91.90
676.4	91.25
676.6	90.18
676.8	89.82
677.0	88.91
677.2	87.97
677.4	87.30
677.6	86.61
677.8	86.15
678.0	85.63
678.2	84.98
678.4	84.31
678.6	83.77
678.8	83.31
679.0	82.83
679.2	82.25
679.4	81.65
679.6	80.96
679.8	80.33
680.0	80.04
680.2	79.62
680.4	79.20
680.6	78.38
680.8	77.44
681.0	76.47
681.2	76.13
681.4	75.81
681.6	75.39
681.8	74.90
682.0	74.40
682.2	73.65
682.4	73.19
682.6	72.58
682.8	71.78
683.0	71.35
683.2	70.95
683.4	70.42
683.6	69.97
683.8	69.39
684.0	68.78
684.2	68.54
684.4	68.06
684.6	67.27
684.8	66.81
685.0	66.31
685.2	65.73
685.4	65.20
685.6	64.36
685.8	63.59
686.0	63.39
686.2	62.99
686.4	62.58
686.6	62.13
686.8	61.55
687.0	61.05
687.2	60.61
687.4	60.15
687.6	59.87
687.8	59.67
688.0	59.80
688.2	59.21
688.4	58.39
688.6	57.65
688.8	57.23
689.0	56.60
689.2	56.67
689.4	56.23
689.6	55.72
689.8	54.97
690.0	54.66
690.2	54.16
690.4	53.80
690.6	53.57
690.8	53.14
691.0	52.72
691.2	52.52
691.4	51.97
691.6	51.38
691.8	50.75
692.0	50.31
692.2	49.96
692.4	50.02
692.6	49.73
692.8	49.54
693.0	49.27
693.2	48.83
693.4	48.22
693.6	47.86
693.8	47.40
694.0	46.78
694.2	46.43
694.4	46.01
694.6	46.16
694.8	46.06
695.0	45.96
695.2	45.46
695.4	44.81
695.6	44.56
695.8	44.35
696.0	44.14
696.2	43.99
696.4	43.82
696.6	43.46
696.8	43.16
697.0	42.50
697.2	42.02
697.4	41.63
697.6	41.40
697.8	41.11
698.0	40.95
698.2	40.77
698.4	40.46
698.6	40.25
698.8	39.95
699.0	39.75
699.2	39.70
699.4	39.55
699.6	39.18
699.8	38.74
700.0	38.40
700.2	38.21
700.4	38.05
700.6	38.07
700.8	37.99
701.0	37.69
701.2	37.53
701.4	36.89
701.6	36.42
701.8	36.07
702.0	35.87
702.2	35.81
702.4	35.93
702.6	35.53
702.8	35.18
703.0	34.88
703.2	34.80
703.4	34.75
703.6	34.54
703.8	33.89
704.0	33.30
704.2	33.16
704.4	33.11
704.6	33.09
704.8	32.98
705.0	32.66
705.2	32.23
705.4	31.96
705.6	31.79
705.8	31.57
706.0	31.53
706.2	31.46
706.4	31.16
706.6	30.92
706.8	30.80
707.0	30.65
707.2	30.44
707.4	30.20
707.6	30.04
707.8	29.79
708.0	29.41
708.2	29.10
708.4	28.98
708.6	28.71
708.8	28.59
709.0	28.49
709.2	28.34
709.4	27.91
709.6	27.81
709.8	27.59
710.0	27.44
710.2	27.38
710.4	27.54
710.6	27.28
710.8	27.25
711.0	27.05
711.2	26.73
711.4	26.32
711.6	26.09
711.8	25.99
712.0	25.99
712.2	25.71
712.4	25.39
712.6	25.12
712.8	24.72
713.0	24.62
713.2	24.61
713.4	24.34
713.6	24.11
713.8	24.04
714.0	23.69
714.2	23.42
714.4	23.36
714.6	23.03
714.8	22.95
715.0	23.06
715.2	22.99
715.4	22.90
715.6	22.62
715.8	22.31
716.0	22.15
716.2	22.01
716.4	21.85
716.6	21.52
716.8	21.25
717.0	21.32
717.2	21.32
717.4	21.18
717.6	20.86
717.8	20.30
718.0	20.13
718.2	20.12
718.4	20.03
718.6	19.92
718.8	19.69
719.0	19.65
719.2	19.75
719.4	19.81
719.6	19.68
719.8	19.40
720.0	19.02
