Sample:	'20211010A(EM)
File name:	G-CDs 5 500.FDS
Run date:	'18:24:50, 06/10/2023
Operator:	Administrator
Comment:	'

Instrument
Model:	F-4700 FL Spectrophotometer
Serial number:	2019-001
ROM Version:	5J24010 00

Instrument parameters
Measurement type:	Wavelength scan
Scan mode:	Emission
Data mode:	Fluorescence
EX WL:	400.0 nm
EM  Start WL:	420.0 nm
EM  End WL:	800.0 nm
Scan speed:	1200 nm/min
Delay:	0.0 s
EX Slit:	10.0 nm
EM Slit:	10.0 nm
PMT Voltage:	380 V
Response:	0.002 s
Corrected spectra:	Off
Shutter control:	On

Processing performed
Savitsky-Golay smoothed
Smoothing order:	3
Number of points:	7
Number of times:	1

Peak integration
Integration method:	Rectangular
Sensitivity:	1
Threshold:	1.000

Peaks
No.	Start(nm)	Apex(nm)	End(nm)	Height(Data)	Valley(nm)	Valley(Data)
1	420.0	549.0	783.6	2200	783.6	1.914

Data points
nm	Data
420.0	4.565
420.2	4.662
420.4	4.620
420.6	4.522
420.8	4.501
421.0	4.575
421.2	4.547
421.4	4.520
421.6	4.542
421.8	4.490
422.0	4.543
422.2	4.572
422.4	4.558
422.6	4.541
422.8	4.501
423.0	4.558
423.2	4.609
423.4	4.607
423.6	4.640
423.8	4.551
424.0	4.514
424.2	4.541
424.4	4.547
424.6	4.517
424.8	4.544
425.0	4.501
425.2	4.513
425.4	4.449
425.6	4.477
425.8	4.475
426.0	4.607
426.2	4.625
426.4	4.711
426.6	4.719
426.8	4.742
427.0	4.667
427.2	4.585
427.4	4.477
427.6	4.548
427.8	4.613
428.0	4.704
428.2	4.830
428.4	4.884
428.6	4.906
428.8	4.848
429.0	4.771
429.2	4.645
429.4	4.704
429.6	4.893
429.8	4.994
430.0	5.034
430.2	5.069
430.4	5.008
430.6	5.021
430.8	5.077
431.0	5.133
431.2	5.106
431.4	5.092
431.6	5.084
431.8	5.099
432.0	5.125
432.2	5.194
432.4	5.162
432.6	5.193
432.8	5.329
433.0	5.360
433.2	5.348
433.4	5.280
433.6	5.188
433.8	5.272
434.0	5.408
434.2	5.464
434.4	5.574
434.6	5.636
434.8	5.692
435.0	5.843
435.2	5.822
435.4	5.812
435.6	5.773
435.8	5.812
436.0	5.881
436.2	6.024
436.4	6.114
436.6	6.171
436.8	6.137
437.0	6.197
437.2	6.248
437.4	6.390
437.6	6.406
437.8	6.480
438.0	6.551
438.2	6.683
438.4	6.818
438.6	7.009
438.8	7.064
439.0	7.219
439.2	7.279
439.4	7.324
439.6	7.391
439.8	7.530
440.0	7.732
440.2	7.937
440.4	7.996
440.6	8.020
440.8	8.086
441.0	8.193
441.2	8.323
441.4	8.497
441.6	8.636
441.8	8.829
442.0	8.931
442.2	9.124
442.4	9.365
442.6	9.550
442.8	9.644
443.0	9.804
443.2	9.856
443.4	9.995
443.6	10.16
443.8	10.21
444.0	10.32
444.2	10.50
444.4	10.68
444.6	10.93
444.8	11.11
445.0	11.26
445.2	11.44
445.4	11.54
445.6	11.67
445.8	11.97
446.0	12.16
446.2	12.28
446.4	12.35
446.6	12.40
446.8	12.65
447.0	13.04
447.2	13.36
447.4	13.47
447.6	13.61
447.8	13.64
448.0	13.69
448.2	13.80
448.4	13.88
448.6	13.98
448.8	14.27
449.0	14.55
449.2	14.79
449.4	15.11
449.6	15.23
449.8	15.26
450.0	15.15
450.2	15.22
450.4	15.46
450.6	15.76
450.8	15.98
451.0	16.13
451.2	16.21
451.4	16.37
451.6	16.61
451.8	16.72
452.0	16.67
452.2	16.75
452.4	16.77
452.6	16.75
452.8	16.99
453.0	17.10
453.2	17.15
453.4	17.29
453.6	17.33
453.8	17.31
454.0	17.64
454.2	17.77
454.4	17.95
454.6	18.01
454.8	18.13
455.0	18.20
455.2	18.42
455.4	18.37
455.6	18.30
455.8	18.33
456.0	18.39
456.2	18.58
456.4	18.70
456.6	18.65
456.8	18.54
457.0	18.47
457.2	18.36
457.4	18.45
457.6	18.57
457.8	18.55
458.0	18.53
458.2	18.52
458.4	18.60
458.6	18.77
458.8	18.90
459.0	18.91
459.2	18.88
459.4	18.95
459.6	19.11
459.8	19.24
460.0	19.24
460.2	19.22
460.4	19.18
460.6	19.30
460.8	19.39
461.0	19.42
461.2	19.49
461.4	19.43
461.6	19.44
461.8	19.63
462.0	19.81
462.2	19.85
462.4	19.89
462.6	19.92
462.8	19.86
463.0	19.91
463.2	20.19
463.4	20.33
463.6	20.42
463.8	20.71
464.0	20.81
464.2	20.90
464.4	21.17
464.6	21.34
464.8	21.47
465.0	21.74
465.2	21.82
465.4	21.80
465.6	21.86
465.8	21.99
466.0	22.19
466.2	22.43
466.4	22.76
466.6	22.91
466.8	23.11
467.0	23.33
467.2	23.75
467.4	24.02
467.6	24.45
467.8	24.67
468.0	24.88
468.2	25.03
468.4	25.38
468.6	25.75
468.8	26.15
469.0	26.66
469.2	27.12
469.4	27.56
469.6	28.15
469.8	28.55
470.0	28.93
470.2	29.41
470.4	29.85
470.6	30.44
470.8	31.10
471.0	31.48
471.2	31.82
471.4	32.26
471.6	32.69
471.8	33.44
472.0	34.22
472.2	35.00
472.4	35.99
472.6	36.76
472.8	37.16
473.0	37.73
473.2	38.26
473.4	38.85
473.6	39.81
473.8	40.61
474.0	41.31
474.2	42.42
474.4	43.43
474.6	44.21
474.8	45.04
475.0	45.87
475.2	46.80
475.4	48.00
475.6	49.14
475.8	50.07
476.0	51.09
476.2	52.09
476.4	53.13
476.6	53.96
476.8	54.79
477.0	55.57
477.2	56.59
477.4	57.91
477.6	59.44
477.8	60.77
478.0	61.75
478.2	62.95
478.4	64.42
478.6	65.90
478.8	67.51
479.0	68.65
479.2	69.41
479.4	70.47
479.6	71.75
479.8	73.22
480.0	74.90
480.2	76.23
480.4	77.64
480.6	79.13
480.8	80.78
481.0	82.44
481.2	83.98
481.4	85.30
481.6	86.67
481.8	88.40
482.0	90.40
482.2	92.44
482.4	93.99
482.6	95.63
482.8	97.12
483.0	98.50
483.2	100.2
483.4	101.9
483.6	103.4
483.8	105.1
484.0	107.4
484.2	109.6
484.4	112.1
484.6	113.7
484.8	115.5
485.0	117.4
485.2	119.8
485.4	122.2
485.6	124.1
485.8	125.2
486.0	127.1
486.2	129.7
486.4	132.3
486.6	135.0
486.8	137.5
487.0	139.3
487.2	141.3
487.4	143.6
487.6	146.2
487.8	149.1
488.0	151.6
488.2	154.0
488.4	156.3
488.6	158.7
488.8	161.7
489.0	164.6
489.2	167.3
489.4	169.9
489.6	172.5
489.8	175.4
490.0	178.6
490.2	181.8
490.4	185.0
490.6	187.8
490.8	190.7
491.0	193.8
491.2	197.4
491.4	201.2
491.6	205.1
491.8	208.9
492.0	212.2
492.2	215.3
492.4	218.1
492.6	221.3
492.8	224.6
493.0	228.4
493.2	232.4
493.4	236.8
493.6	240.4
493.8	245.0
494.0	248.9
494.2	252.9
494.4	257.1
494.6	261.7
494.8	265.6
495.0	270.1
495.2	274.9
495.4	279.6
495.6	284.4
495.8	288.9
496.0	293.7
496.2	298.1
496.4	303.4
496.6	309.0
496.8	314.1
497.0	319.1
497.2	324.1
497.4	328.5
497.6	332.7
497.8	338.3
498.0	344.3
498.2	350.9
498.4	357.1
498.6	362.6
498.8	367.5
499.0	372.6
499.2	378.7
499.4	385.3
499.6	391.8
499.8	399.2
500.0	406.4
500.2	412.7
500.4	419.4
500.6	426.5
500.8	432.4
501.0	439.6
501.2	445.5
501.4	452.1
501.6	459.3
501.8	467.3
502.0	474.4
502.2	481.8
502.4	488.1
502.6	496.1
502.8	503.7
503.0	512.1
503.2	520.2
503.4	527.9
503.6	535.1
503.8	543.0
504.0	550.7
504.2	559.6
504.4	567.9
504.6	576.0
504.8	584.7
505.0	593.7
505.2	602.0
505.4	610.6
505.6	617.9
505.8	626.6
506.0	635.9
506.2	646.4
506.4	655.9
506.6	664.7
506.8	672.4
507.0	680.6
507.2	688.1
507.4	697.4
507.6	708.1
507.8	717.7
508.0	727.1
508.2	735.4
508.4	743.3
508.6	754.2
508.8	765.7
509.0	776.5
509.2	786.7
509.4	796.9
509.6	806.6
509.8	817.7
510.0	827.2
510.2	836.9
510.4	846.4
510.6	857.6
510.8	867.1
511.0	878.5
511.2	889.6
511.4	899.2
511.6	908.5
511.8	918.0
512.0	926.0
512.2	936.2
512.4	946.7
512.6	957.9
512.8	969.4
513.0	980.9
513.2	991.2
513.4	1001
513.6	1010
513.8	1022
514.0	1033
514.2	1044
514.4	1055
514.6	1064
514.8	1074
515.0	1087
515.2	1099
515.4	1111
515.6	1122
515.8	1130
516.0	1141
516.2	1152
516.4	1164
516.6	1176
516.8	1185
517.0	1195
517.2	1205
517.4	1217
517.6	1228
517.8	1240
518.0	1249
518.2	1259
518.4	1270
518.6	1281
518.8	1291
519.0	1303
519.2	1315
519.4	1326
519.6	1336
519.8	1347
520.0	1356
520.2	1368
520.4	1379
520.6	1390
520.8	1401
521.0	1413
521.2	1422
521.4	1433
521.6	1442
521.8	1450
522.0	1458
522.2	1470
522.4	1481
522.6	1493
522.8	1504
523.0	1513
523.2	1523
523.4	1536
523.6	1545
523.8	1553
524.0	1561
524.2	1570
524.4	1580
524.6	1590
524.8	1601
525.0	1610
525.2	1622
525.4	1635
525.6	1647
525.8	1656
526.0	1665
526.2	1669
526.4	1677
526.6	1684
526.8	1692
527.0	1700
527.2	1710
527.4	1719
527.6	1728
527.8	1735
528.0	1744
528.2	1754
528.4	1764
528.6	1773
528.8	1780
529.0	1788
529.2	1796
529.4	1804
529.6	1813
529.8	1821
530.0	1829
530.2	1838
530.4	1845
530.6	1851
530.8	1859
531.0	1866
531.2	1873
531.4	1880
531.6	1887
531.8	1893
532.0	1900
532.2	1908
532.4	1917
532.6	1926
532.8	1934
533.0	1940
533.2	1945
533.4	1952
533.6	1959
533.8	1970
534.0	1976
534.2	1982
534.4	1988
534.6	1993
534.8	1997
535.0	2004
535.2	2010
535.4	2016
535.6	2020
535.8	2025
536.0	2031
536.2	2038
536.4	2045
536.6	2050
536.8	2055
537.0	2059
537.2	2064
537.4	2069
537.6	2070
537.8	2073
538.0	2079
538.2	2085
538.4	2093
538.6	2099
538.8	2102
539.0	2107
539.2	2110
539.4	2114
539.6	2116
539.8	2118
540.0	2123
540.2	2127
540.4	2132
540.6	2136
540.8	2138
541.0	2140
541.2	2143
541.4	2147
541.6	2150
541.8	2151
542.0	2154
542.2	2157
542.4	2160
542.6	2163
542.8	2166
543.0	2167
543.2	2169
543.4	2171
543.6	2172
543.8	2172
544.0	2175
544.2	2176
544.4	2176
544.6	2178
544.8	2179
545.0	2182
545.2	2183
545.4	2182
545.6	2185
545.8	2187
546.0	2191
546.2	2192
546.4	2192
546.6	2193
546.8	2196
547.0	2197
547.2	2198
547.4	2198
547.6	2197
547.8	2199
548.0	2198
548.2	2197
548.4	2197
548.6	2199
548.8	2199
549.0	2200
549.2	2199
549.4	2198
549.6	2195
549.8	2192
550.0	2191
550.2	2187
550.4	2188
550.6	2189
550.8	2189
551.0	2188
551.2	2187
551.4	2184
551.6	2185
551.8	2184
552.0	2185
552.2	2184
552.4	2182
552.6	2179
552.8	2177
553.0	2173
553.2	2172
553.4	2172
553.6	2168
553.8	2168
554.0	2167
554.2	2163
554.4	2162
554.6	2162
554.8	2158
555.0	2158
555.2	2154
555.4	2150
555.6	2146
555.8	2143
556.0	2140
556.2	2137
556.4	2132
556.6	2131
556.8	2129
557.0	2127
557.2	2124
557.4	2122
557.6	2118
557.8	2114
558.0	2110
558.2	2106
558.4	2101
558.6	2098
558.8	2094
559.0	2089
559.2	2086
559.4	2083
559.6	2081
559.8	2078
560.0	2074
560.2	2072
560.4	2071
560.6	2069
560.8	2066
561.0	2060
561.2	2054
561.4	2049
561.6	2046
561.8	2043
562.0	2040
562.2	2034
562.4	2029
562.6	2022
562.8	2016
563.0	2012
563.2	2009
563.4	2005
563.6	2001
563.8	1992
564.0	1987
564.2	1984
564.4	1982
564.6	1980
564.8	1973
565.0	1965
565.2	1962
565.4	1958
565.6	1955
565.8	1949
566.0	1942
566.2	1938
566.4	1933
566.6	1928
566.8	1924
567.0	1917
567.2	1912
567.4	1909
567.6	1904
567.8	1899
568.0	1895
568.2	1890
568.4	1886
568.6	1882
568.8	1876
569.0	1869
569.2	1864
569.4	1857
569.6	1851
569.8	1845
570.0	1841
570.2	1835
570.4	1830
570.6	1824
570.8	1817
571.0	1810
571.2	1807
571.4	1801
571.6	1796
571.8	1790
572.0	1782
572.2	1775
572.4	1772
572.6	1767
572.8	1764
573.0	1758
573.2	1753
573.4	1746
573.6	1739
573.8	1732
574.0	1729
574.2	1724
574.4	1720
574.6	1714
574.8	1705
575.0	1699
575.2	1696
575.4	1690
575.6	1686
575.8	1682
576.0	1675
576.2	1669
576.4	1664
576.6	1657
576.8	1651
577.0	1645
577.2	1640
577.4	1634
577.6	1630
577.8	1625
578.0	1619
578.2	1614
578.4	1607
578.6	1598
578.8	1593
579.0	1587
579.2	1578
579.4	1574
579.6	1568
579.8	1561
580.0	1556
580.2	1552
580.4	1548
580.6	1543
580.8	1537
581.0	1531
581.2	1526
581.4	1518
581.6	1514
581.8	1508
582.0	1503
582.2	1499
582.4	1492
582.6	1483
582.8	1478
583.0	1473
583.2	1469
583.4	1464
583.6	1456
583.8	1452
584.0	1447
584.2	1441
584.4	1432
584.6	1425
584.8	1419
585.0	1414
585.2	1410
585.4	1406
585.6	1399
585.8	1393
586.0	1386
586.2	1380
586.4	1377
586.6	1373
586.8	1367
587.0	1359
587.2	1353
587.4	1348
587.6	1343
587.8	1337
588.0	1331
588.2	1326
588.4	1323
588.6	1318
588.8	1314
589.0	1308
589.2	1301
589.4	1296
589.6	1290
589.8	1283
590.0	1278
590.2	1271
590.4	1267
590.6	1263
590.8	1258
591.0	1251
591.2	1245
591.4	1239
591.6	1234
591.8	1230
592.0	1225
592.2	1220
592.4	1214
592.6	1208
592.8	1202
593.0	1198
593.2	1193
593.4	1190
593.6	1183
593.8	1178
594.0	1171
594.2	1166
594.4	1162
594.6	1158
594.8	1153
595.0	1147
595.2	1139
595.4	1134
595.6	1128
595.8	1123
596.0	1119
596.2	1116
596.4	1111
596.6	1105
596.8	1100
597.0	1093
597.2	1087
597.4	1083
597.6	1080
597.8	1076
598.0	1072
598.2	1064
598.4	1059
598.6	1054
598.8	1051
599.0	1047
599.2	1042
599.4	1037
599.6	1031
599.8	1027
600.0	1023
600.2	1018
600.4	1014
600.6	1008
600.8	1003
601.0	998.7
601.2	995.3
601.4	991.0
601.6	986.9
601.8	980.7
602.0	974.2
602.2	966.5
602.4	962.5
602.6	958.0
602.8	956.2
603.0	953.4
603.2	949.1
603.4	944.4
603.6	939.6
603.8	933.8
604.0	929.5
604.2	925.5
604.4	921.5
604.6	917.5
604.8	912.6
605.0	907.6
605.2	900.7
605.4	893.7
605.6	888.4
605.8	883.7
606.0	881.1
606.2	877.6
606.4	873.3
606.6	867.7
606.8	864.6
607.0	860.1
607.2	856.2
607.4	851.6
607.6	846.5
607.8	841.9
608.0	838.5
608.2	834.4
608.4	830.5
608.6	826.6
608.8	820.8
609.0	816.5
609.2	811.8
609.4	808.0
609.6	804.5
609.8	801.3
610.0	796.0
610.2	792.4
610.4	788.8
610.6	784.5
610.8	779.8
611.0	775.8
611.2	771.0
611.4	766.5
611.6	762.8
611.8	758.4
612.0	754.0
612.2	749.4
612.4	745.4
612.6	741.6
612.8	737.3
613.0	733.0
613.2	728.9
613.4	724.4
613.6	720.4
613.8	718.5
614.0	714.7
614.2	710.4
614.4	706.7
614.6	702.7
614.8	697.9
615.0	694.5
615.2	690.6
615.4	686.1
615.6	682.7
615.8	679.5
616.0	676.7
616.2	672.9
616.4	669.4
616.6	664.7
616.8	659.9
617.0	656.0
617.2	651.7
617.4	647.1
617.6	643.8
617.8	640.9
618.0	637.7
618.2	634.9
618.4	631.1
618.6	626.2
618.8	621.0
619.0	617.2
619.2	613.2
619.4	610.0
619.6	607.3
619.8	604.2
620.0	600.6
620.2	597.4
620.4	594.5
620.6	590.7
620.8	585.8
621.0	582.8
621.2	579.2
621.4	575.7
621.6	572.5
621.8	568.0
622.0	563.7
622.2	561.8
622.4	559.0
622.6	555.9
622.8	552.3
623.0	548.0
623.2	544.4
623.4	541.7
623.6	538.6
623.8	535.8
624.0	533.5
624.2	530.9
624.4	528.0
624.6	524.9
624.8	520.4
625.0	517.2
625.2	513.9
625.4	510.9
625.6	508.4
625.8	505.0
626.0	501.1
626.2	498.2
626.4	494.9
626.6	491.8
626.8	489.0
627.0	485.6
627.2	482.6
627.4	479.8
627.6	477.5
627.8	474.7
628.0	471.6
628.2	467.8
628.4	464.6
628.6	461.0
628.8	458.0
629.0	455.5
629.2	453.2
629.4	450.5
629.6	448.3
629.8	445.7
630.0	443.2
630.2	440.3
630.4	436.7
630.6	434.1
630.8	430.2
631.0	426.9
631.2	424.5
631.4	421.1
631.6	417.9
631.8	415.7
632.0	412.5
632.2	409.9
632.4	407.7
632.6	405.2
632.8	402.5
633.0	399.8
633.2	398.0
633.4	395.8
633.6	393.6
633.8	391.2
634.0	388.4
634.2	385.9
634.4	383.5
634.6	380.8
634.8	379.1
635.0	376.1
635.2	373.1
635.4	369.7
635.6	366.8
635.8	364.0
636.0	362.9
636.2	360.8
636.4	359.4
636.6	357.4
636.8	355.5
637.0	352.6
637.2	349.5
637.4	346.0
637.6	343.7
637.8	341.4
638.0	339.8
638.2	339.0
638.4	336.4
638.6	333.8
638.8	331.2
639.0	329.1
639.2	327.7
639.4	325.8
639.6	323.0
639.8	320.6
640.0	318.5
640.2	316.9
640.4	315.3
640.6	312.9
640.8	310.8
641.0	308.8
641.2	306.9
641.4	304.1
641.6	301.5
641.8	298.9
642.0	297.9
642.2	296.5
642.4	295.6
642.6	293.3
642.8	291.6
643.0	288.6
643.2	286.7
643.4	284.6
643.6	283.4
643.8	281.6
644.0	280.5
644.2	277.9
644.4	275.4
644.6	273.5
644.8	272.3
645.0	270.8
645.2	269.6
645.4	267.4
645.6	265.3
645.8	263.1
646.0	261.2
646.2	259.2
646.4	257.8
646.6	255.6
646.8	254.3
647.0	252.5
647.2	250.9
647.4	249.4
647.6	248.2
647.8	246.7
648.0	244.8
648.2	242.8
648.4	241.0
648.6	238.7
648.8	237.0
649.0	235.8
649.2	234.1
649.4	232.9
649.6	231.7
649.8	229.4
650.0	227.9
650.2	226.7
650.4	224.9
650.6	223.3
650.8	221.8
651.0	219.6
651.2	218.5
651.4	217.2
651.6	215.4
651.8	213.8
652.0	212.7
652.2	211.4
652.4	210.9
652.6	209.1
652.8	207.5
653.0	205.6
653.2	204.1
653.4	202.7
653.6	201.9
653.8	200.2
654.0	199.1
654.2	197.1
654.4	196.0
654.6	194.7
654.8	193.7
655.0	192.6
655.2	191.2
655.4	189.5
655.6	188.3
655.8	186.7
656.0	185.4
656.2	184.2
656.4	182.8
656.6	181.7
656.8	180.3
657.0	179.1
657.2	177.5
657.4	176.0
657.6	174.3
657.8	173.0
658.0	171.9
658.2	171.6
658.4	170.1
658.6	168.5
658.8	167.0
659.0	165.7
659.2	164.9
659.4	164.0
659.6	162.0
659.8	161.0
660.0	159.6
660.2	158.9
660.4	158.4
660.6	157.1
660.8	155.3
661.0	154.6
661.2	153.3
661.4	152.1
661.6	151.4
661.8	150.2
662.0	149.4
662.2	148.8
662.4	147.8
662.6	146.4
662.8	145.6
663.0	144.5
663.2	143.3
663.4	142.0
663.6	140.8
663.8	139.7
664.0	138.6
664.2	137.4
664.4	136.4
664.6	135.9
664.8	135.3
665.0	134.5
665.2	133.4
665.4	132.2
665.6	131.6
665.8	130.8
666.0	130.0
666.2	129.4
666.4	128.4
666.6	127.6
666.8	126.9
667.0	125.8
667.2	125.0
667.4	124.6
667.6	123.9
667.8	122.6
668.0	120.6
668.2	119.1
668.4	118.1
668.6	117.8
668.8	117.9
669.0	117.0
669.2	115.4
669.4	114.7
669.6	113.8
669.8	113.1
670.0	112.4
670.2	111.7
670.4	110.6
670.6	109.6
670.8	108.4
671.0	107.1
671.2	106.7
671.4	106.7
671.6	106.5
671.8	105.9
672.0	104.6
672.2	102.9
672.4	101.7
672.6	101.2
672.8	100.8
673.0	100.5
673.2	99.78
673.4	99.17
673.6	98.35
673.8	98.23
674.0	97.26
674.2	96.48
674.4	95.35
674.6	94.64
674.8	93.54
675.0	92.92
675.2	91.90
675.4	91.26
675.6	90.73
675.8	90.28
676.0	89.71
676.2	89.28
676.4	88.63
676.6	88.20
676.8	87.48
677.0	86.45
677.2	85.77
677.4	85.20
677.6	84.61
677.8	84.16
678.0	83.38
678.2	82.42
678.4	81.80
678.6	81.34
678.8	80.92
679.0	80.46
679.2	79.70
679.4	79.32
679.6	78.70
679.8	78.01
680.0	77.23
680.2	76.42
680.4	75.61
680.6	75.37
680.8	74.81
681.0	74.38
681.2	73.92
681.4	73.45
681.6	73.31
681.8	72.64
682.0	71.98
682.2	71.01
682.4	70.28
682.6	69.90
682.8	69.66
683.0	68.88
683.2	68.30
683.4	67.40
683.6	66.70
683.8	66.34
684.0	65.89
684.2	65.55
684.4	65.45
684.6	65.24
684.8	64.74
685.0	64.11
685.2	63.22
685.4	62.81
685.6	62.60
685.8	62.11
686.0	61.68
686.2	61.13
686.4	60.42
686.6	59.91
686.8	59.67
687.0	59.30
687.2	59.07
687.4	58.99
687.6	58.53
687.8	57.97
688.0	57.74
688.2	57.17
688.4	56.45
688.6	55.92
688.8	55.11
689.0	54.93
689.2	54.77
689.4	54.56
689.6	54.14
689.8	53.43
690.0	52.71
690.2	52.25
690.4	51.76
690.6	51.43
690.8	51.21
691.0	50.82
691.2	50.60
691.4	50.35
691.6	49.99
691.8	49.43
692.0	49.12
692.2	48.69
692.4	48.66
692.6	48.59
692.8	48.06
693.0	47.72
693.2	47.58
693.4	47.36
693.6	47.10
693.8	46.64
694.0	46.05
694.2	45.59
694.4	45.30
694.6	45.14
694.8	44.60
695.0	44.05
695.2	43.72
695.4	43.16
695.6	43.04
695.8	42.86
696.0	42.71
696.2	42.30
696.4	41.98
696.6	41.75
696.8	41.55
697.0	41.01
697.2	40.88
697.4	40.40
697.6	40.24
697.8	40.35
698.0	40.21
698.2	39.79
698.4	39.51
698.6	39.33
698.8	39.25
699.0	38.97
699.2	38.56
699.4	38.20
699.6	37.81
699.8	37.75
700.0	37.66
700.2	37.29
700.4	36.86
700.6	36.50
700.8	36.04
701.0	35.73
701.2	35.78
701.4	35.69
701.6	35.59
701.8	35.39
702.0	35.04
702.2	34.75
702.4	34.68
702.6	34.40
702.8	34.13
703.0	33.86
703.2	33.43
703.4	33.16
703.6	33.09
703.8	33.01
704.0	33.01
704.2	32.81
704.4	32.63
704.6	32.36
704.8	32.13
705.0	31.97
705.2	31.77
705.4	31.28
705.6	30.92
705.8	30.64
706.0	30.50
706.2	30.47
706.4	30.47
706.6	30.17
706.8	29.80
707.0	29.57
707.2	29.37
707.4	28.98
707.6	28.81
707.8	28.51
708.0	28.25
708.2	28.14
708.4	28.10
708.6	28.00
708.8	27.83
709.0	27.67
709.2	27.57
709.4	27.37
709.6	27.17
709.8	26.89
710.0	26.47
710.2	26.36
710.4	26.28
710.6	26.07
710.8	26.01
711.0	25.68
711.2	25.42
711.4	25.41
711.6	25.23
711.8	24.90
712.0	24.71
712.2	24.56
712.4	24.33
712.6	24.16
712.8	23.99
713.0	23.73
713.2	23.64
713.4	23.86
713.6	23.78
713.8	23.61
714.0	23.49
714.2	23.23
714.4	22.96
714.6	22.82
714.8	22.55
715.0	22.24
715.2	22.02
715.4	21.83
715.6	21.67
715.8	21.58
716.0	21.60
716.2	21.61
716.4	21.39
716.6	21.24
716.8	20.91
717.0	20.59
717.2	20.50
717.4	20.37
717.6	20.32
717.8	20.29
718.0	20.10
718.2	20.04
718.4	20.05
718.6	19.85
718.8	19.59
719.0	19.24
719.2	18.96
719.4	18.93
719.6	18.97
719.8	18.92
720.0	18.68
720.2	18.46
720.4	18.27
