Sample:	'20211010A(EM)
File name:	G-NI 2.FDS
Run date:	'19:13:53, 06/19/2023
Operator:	Administrator
Comment:	'

Instrument
Model:	F-4700 FL Spectrophotometer
Serial number:	2019-001
ROM Version:	5J24010 00

Instrument parameters
Measurement type:	Wavelength scan
Scan mode:	Emission
Data mode:	Fluorescence
EX WL:	400.0 nm
EM  Start WL:	420.0 nm
EM  End WL:	800.0 nm
Scan speed:	1200 nm/min
Delay:	0.0 s
EX Slit:	10.0 nm
EM Slit:	10.0 nm
PMT Voltage:	500 V
Response:	0.002 s
Corrected spectra:	Off
Shutter control:	On

Processing performed
Savitsky-Golay smoothed
Smoothing order:	3
Number of points:	7
Number of times:	1

Peak integration
Integration method:	Rectangular
Sensitivity:	1
Threshold:	1.000

Peaks
No.	Start(nm)	Apex(nm)	End(nm)	Height(Data)	Valley(nm)	Valley(Data)
1	420.0	538.0	539.4	2660	539.4	2641
2	539.4	541.0	740.2	2657	740.2	15.58
3	740.2	741.0	753.8	16.77	753.8	9.151
4	753.8	754.8	761.4	10.40	761.4	7.404
5	761.4	762.8	800.0	8.485	800.0	4.106

Data points
nm	Data
420.0	1.552
420.2	1.552
420.4	1.563
420.6	1.566
420.8	1.490
421.0	1.476
421.2	1.644
421.4	1.513
421.6	1.612
421.8	1.524
422.0	1.457
422.2	1.475
422.4	1.603
422.6	1.439
422.8	1.447
423.0	1.528
423.2	1.573
423.4	1.656
423.6	1.615
423.8	1.509
424.0	1.352
424.2	1.458
424.4	1.446
424.6	1.752
424.8	1.983
425.0	1.977
425.2	2.010
425.4	1.843
425.6	1.618
425.8	1.479
426.0	1.447
426.2	1.499
426.4	1.656
426.6	1.607
426.8	1.646
427.0	1.571
427.2	1.476
427.4	1.567
427.6	1.653
427.8	1.663
428.0	1.744
428.2	1.748
428.4	1.668
428.6	1.577
428.8	1.707
429.0	1.799
429.2	1.736
429.4	1.697
429.6	1.735
429.8	1.700
430.0	1.748
430.2	1.656
430.4	1.423
430.6	1.391
430.8	1.464
431.0	1.592
431.2	1.664
431.4	1.715
431.6	1.576
431.8	1.646
432.0	1.571
432.2	1.680
432.4	1.713
432.6	1.914
432.8	1.761
433.0	1.817
433.2	1.719
433.4	1.615
433.6	1.525
433.8	1.620
434.0	1.674
434.2	1.722
434.4	1.854
434.6	1.827
434.8	1.881
435.0	1.878
435.2	1.851
435.4	1.635
435.6	1.450
435.8	1.375
436.0	1.300
436.2	1.408
436.4	1.558
436.6	1.661
436.8	1.650
437.0	1.655
437.2	1.480
437.4	1.630
437.6	1.846
437.8	2.030
438.0	1.946
438.2	1.918
438.4	1.621
438.6	1.527
438.8	1.640
439.0	1.823
439.2	1.642
439.4	1.796
439.6	1.755
439.8	1.721
440.0	1.839
440.2	1.811
440.4	1.589
440.6	1.630
440.8	1.773
441.0	1.929
441.2	2.141
441.4	2.000
441.6	1.835
441.8	1.743
442.0	1.756
442.2	1.788
442.4	1.935
442.6	1.868
442.8	1.963
443.0	2.006
443.2	1.995
443.4	2.090
443.6	2.006
443.8	1.921
444.0	1.801
444.2	1.776
444.4	1.813
444.6	1.944
444.8	1.798
445.0	1.775
445.2	1.714
445.4	1.867
445.6	1.897
445.8	1.837
446.0	1.726
446.2	1.627
446.4	1.689
446.6	1.921
446.8	2.086
447.0	2.072
447.2	2.029
447.4	1.900
447.6	1.873
447.8	1.857
448.0	1.833
448.2	1.788
448.4	1.743
448.6	1.740
448.8	1.846
449.0	1.868
449.2	1.721
449.4	1.725
449.6	1.677
449.8	1.739
450.0	1.882
450.2	1.990
450.4	1.938
450.6	1.997
450.8	1.979
451.0	1.906
451.2	1.831
451.4	1.844
451.6	1.776
451.8	1.879
452.0	2.048
452.2	2.008
452.4	1.993
452.6	1.958
452.8	1.902
453.0	1.918
453.2	1.853
453.4	1.908
453.6	1.920
453.8	1.956
454.0	2.171
454.2	2.307
454.4	2.265
454.6	2.345
454.8	2.182
455.0	2.134
455.2	2.009
455.4	1.863
455.6	1.882
455.8	2.014
456.0	2.109
456.2	2.152
456.4	2.132
456.6	2.096
456.8	2.117
457.0	2.096
457.2	2.048
457.4	1.878
457.6	1.881
457.8	2.107
458.0	2.239
458.2	2.220
458.4	2.229
458.6	2.226
458.8	2.267
459.0	2.351
459.2	2.339
459.4	2.244
459.6	2.269
459.8	2.224
460.0	2.283
460.2	2.442
460.4	2.563
460.6	2.561
460.8	2.443
461.0	2.341
461.2	2.373
461.4	2.439
461.6	2.472
461.8	2.549
462.0	2.583
462.2	2.653
462.4	2.758
462.6	2.902
462.8	3.008
463.0	3.115
463.2	3.192
463.4	3.064
463.6	3.029
463.8	2.963
464.0	2.870
464.2	2.790
464.4	2.894
464.6	3.165
464.8	3.525
465.0	3.649
465.2	3.534
465.4	3.611
465.6	3.658
465.8	3.677
466.0	3.737
466.2	3.718
466.4	3.664
466.6	4.007
466.8	4.368
467.0	4.632
467.2	4.781
467.4	4.533
467.6	4.267
467.8	4.142
468.0	4.345
468.2	4.802
468.4	5.170
468.6	5.446
468.8	5.495
469.0	5.517
469.2	5.609
469.4	5.728
469.6	5.819
469.8	6.319
470.0	6.718
470.2	7.177
470.4	7.216
470.6	7.230
470.8	7.376
471.0	7.646
471.2	8.050
471.4	8.378
471.6	8.203
471.8	8.547
472.0	8.741
472.2	9.352
472.4	9.881
472.6	10.16
472.8	10.39
473.0	10.53
473.2	10.63
473.4	11.10
473.6	11.88
473.8	12.57
474.0	13.08
474.2	13.23
474.4	13.93
474.6	14.07
474.8	14.66
475.0	15.14
475.2	15.25
475.4	15.62
475.6	16.62
475.8	17.05
476.0	17.65
476.2	18.64
476.4	19.27
476.6	20.05
476.8	20.78
477.0	21.06
477.2	21.07
477.4	21.63
477.6	22.25
477.8	23.24
478.0	24.65
478.2	26.11
478.4	26.91
478.6	27.76
478.8	28.27
479.0	28.95
479.2	30.23
479.4	31.59
479.6	33.16
479.8	34.60
480.0	35.24
480.2	36.36
480.4	37.76
480.6	39.07
480.8	39.68
481.0	41.01
481.2	42.01
481.4	43.54
481.6	45.78
481.8	47.86
482.0	49.18
482.2	51.49
482.4	53.03
482.6	55.10
482.8	57.44
483.0	59.13
483.2	61.36
483.4	63.93
483.6	65.73
483.8	68.09
484.0	70.35
484.2	72.87
484.4	75.78
484.6	79.16
484.8	81.44
485.0	82.40
485.2	83.73
485.4	87.05
485.6	90.63
485.8	94.15
486.0	97.81
486.2	101.0
486.4	103.6
486.6	107.4
486.8	110.3
487.0	114.1
487.2	117.9
487.4	122.3
487.6	126.0
487.8	129.2
488.0	131.8
488.2	136.5
488.4	142.3
488.6	148.9
488.8	153.8
489.0	156.9
489.2	159.9
489.4	163.7
489.6	168.2
489.8	172.9
490.0	177.3
490.2	183.0
490.4	189.9
490.6	197.0
490.8	201.2
491.0	206.2
491.2	211.7
491.4	219.2
491.6	227.2
491.8	234.1
492.0	238.8
492.2	244.2
492.4	252.4
492.6	260.4
492.8	267.9
493.0	275.3
493.2	279.9
493.4	285.6
493.6	295.1
493.8	303.0
494.0	310.9
494.2	319.3
494.4	326.1
494.6	334.5
494.8	342.1
495.0	350.3
495.2	358.2
495.4	367.0
495.6	377.2
495.8	389.3
496.0	399.3
496.2	407.5
496.4	415.4
496.6	425.9
496.8	434.3
497.0	444.4
497.2	455.9
497.4	466.1
497.6	477.4
497.8	488.2
498.0	498.1
498.2	508.6
498.4	522.1
498.6	535.4
498.8	547.8
499.0	558.7
499.2	570.2
499.4	581.3
499.6	594.2
499.8	607.5
500.0	621.3
500.2	633.1
500.4	645.4
500.6	656.4
500.8	667.4
501.0	680.1
501.2	693.6
501.4	703.6
501.6	716.9
501.8	729.6
502.0	741.7
502.2	757.7
502.4	772.1
502.6	785.9
502.8	801.7
503.0	816.0
503.2	830.8
503.4	844.9
503.6	860.1
503.8	876.6
504.0	892.7
504.2	909.9
504.4	926.0
504.6	939.7
504.8	955.5
505.0	967.1
505.2	981.3
505.4	999.2
505.6	1014
505.8	1034
506.0	1048
506.2	1062
506.4	1078
506.6	1094
506.8	1108
507.0	1123
507.2	1134
507.4	1149
507.6	1168
507.8	1190
508.0	1207
508.2	1224
508.4	1238
508.6	1252
508.8	1269
509.0	1292
509.2	1310
509.4	1331
509.6	1347
509.8	1361
510.0	1370
510.2	1384
510.4	1397
510.6	1415
510.8	1430
511.0	1452
511.2	1468
511.4	1482
511.6	1498
511.8	1515
512.0	1533
512.2	1556
512.4	1574
512.6	1583
512.8	1594
513.0	1606
513.2	1622
513.4	1640
513.6	1652
513.8	1665
514.0	1684
514.2	1705
514.4	1723
514.6	1738
514.8	1744
515.0	1758
515.2	1776
515.4	1795
515.6	1815
515.8	1835
516.0	1849
516.2	1867
516.4	1879
516.6	1896
516.8	1912
517.0	1925
517.2	1943
517.4	1958
517.6	1968
517.8	1980
518.0	1991
518.2	1999
518.4	2013
518.6	2023
518.8	2040
519.0	2055
519.2	2074
519.4	2089
519.6	2098
519.8	2105
520.0	2117
520.2	2130
520.4	2143
520.6	2152
520.8	2164
521.0	2177
521.2	2192
521.4	2202
521.6	2206
521.8	2213
522.0	2227
522.2	2241
522.4	2261
522.6	2268
522.8	2271
523.0	2284
523.2	2294
523.4	2302
523.6	2315
523.8	2322
524.0	2328
524.2	2341
524.4	2350
524.6	2358
524.8	2370
525.0	2379
525.2	2387
525.4	2394
525.6	2404
525.8	2415
526.0	2428
526.2	2435
526.4	2436
526.6	2438
526.8	2441
527.0	2454
527.2	2467
527.4	2474
527.6	2480
527.8	2488
528.0	2488
528.2	2497
528.4	2499
528.6	2505
528.8	2516
529.0	2529
529.2	2531
529.4	2535
529.6	2537
529.8	2542
530.0	2551
530.2	2557
530.4	2558
530.6	2562
530.8	2568
531.0	2577
531.2	2586
531.4	2589
531.6	2591
531.8	2592
532.0	2595
532.2	2600
532.4	2603
532.6	2600
532.8	2597
533.0	2597
533.2	2609
533.4	2619
533.6	2625
533.8	2629
534.0	2629
534.2	2625
534.4	2628
534.6	2630
534.8	2632
535.0	2632
535.2	2633
535.4	2632
535.6	2641
535.8	2648
536.0	2654
536.2	2651
536.4	2649
536.6	2647
536.8	2651
537.0	2650
537.2	2650
537.4	2654
537.6	2658
537.8	2659
538.0	2660
538.2	2653
538.4	2644
538.6	2647
538.8	2650
539.0	2646
539.2	2647
539.4	2641
539.6	2646
539.8	2653
540.0	2656
540.2	2654
540.4	2651
540.6	2644
540.8	2651
541.0	2657
541.2	2657
541.4	2650
541.6	2645
541.8	2637
542.0	2632
542.2	2634
542.4	2635
542.6	2635
542.8	2634
543.0	2626
543.2	2625
543.4	2626
543.6	2631
543.8	2630
544.0	2625
544.2	2621
544.4	2619
544.6	2612
544.8	2614
545.0	2611
545.2	2605
545.4	2606
545.6	2599
545.8	2591
546.0	2594
546.2	2589
546.4	2585
546.6	2588
546.8	2583
547.0	2577
547.2	2583
547.4	2575
547.6	2576
547.8	2578
548.0	2569
548.2	2558
548.4	2557
548.6	2554
548.8	2556
549.0	2558
549.2	2553
549.4	2545
549.6	2540
549.8	2531
550.0	2528
550.2	2521
550.4	2518
550.6	2517
550.8	2514
551.0	2509
551.2	2503
551.4	2493
551.6	2488
551.8	2483
552.0	2481
552.2	2481
552.4	2472
552.6	2468
552.8	2467
553.0	2466
553.2	2469
553.4	2467
553.6	2457
553.8	2451
554.0	2448
554.2	2438
554.4	2431
554.6	2425
554.8	2420
555.0	2416
555.2	2415
555.4	2406
555.6	2400
555.8	2395
556.0	2390
556.2	2380
556.4	2373
556.6	2368
556.8	2367
557.0	2362
557.2	2351
557.4	2340
557.6	2334
557.8	2337
558.0	2338
558.2	2332
558.4	2320
558.6	2310
558.8	2303
559.0	2300
559.2	2297
559.4	2294
559.6	2284
559.8	2275
560.0	2268
560.2	2258
560.4	2253
560.6	2254
560.8	2247
561.0	2243
561.2	2242
561.4	2239
561.6	2234
561.8	2227
562.0	2217
562.2	2211
562.4	2209
562.6	2207
562.8	2206
563.0	2197
563.2	2187
563.4	2180
563.6	2175
563.8	2167
564.0	2161
564.2	2149
564.4	2137
564.6	2136
564.8	2135
565.0	2138
565.2	2136
565.4	2130
565.6	2126
565.8	2122
566.0	2113
566.2	2102
566.4	2087
566.6	2081
566.8	2080
567.0	2076
567.2	2068
567.4	2058
567.6	2052
567.8	2050
568.0	2048
568.2	2034
568.4	2022
568.6	2017
568.8	2014
569.0	2012
569.2	2006
569.4	1993
569.6	1984
569.8	1977
570.0	1971
570.2	1964
570.4	1957
570.6	1954
570.8	1950
571.0	1947
571.2	1943
571.4	1932
571.6	1926
571.8	1923
572.0	1921
572.2	1912
572.4	1903
572.6	1893
572.8	1890
573.0	1881
573.2	1874
573.4	1862
573.6	1850
573.8	1847
574.0	1839
574.2	1832
574.4	1830
574.6	1824
574.8	1820
575.0	1818
575.2	1808
575.4	1799
575.6	1795
575.8	1792
576.0	1782
576.2	1772
576.4	1760
576.6	1751
576.8	1746
577.0	1746
577.2	1743
577.4	1736
577.6	1732
577.8	1725
578.0	1717
578.2	1711
578.4	1709
578.6	1700
578.8	1694
579.0	1686
579.2	1675
579.4	1667
579.6	1663
579.8	1656
580.0	1650
580.2	1648
580.4	1642
580.6	1636
580.8	1632
581.0	1622
581.2	1608
581.4	1597
581.6	1590
581.8	1585
582.0	1586
582.2	1583
582.4	1575
582.6	1568
582.8	1559
583.0	1548
583.2	1542
583.4	1536
583.6	1534
583.8	1534
584.0	1527
584.2	1518
584.4	1511
584.6	1505
584.8	1501
585.0	1498
585.2	1492
585.4	1485
585.6	1478
585.8	1471
586.0	1463
586.2	1458
586.4	1454
586.6	1444
586.8	1440
587.0	1434
587.2	1429
587.4	1424
587.6	1418
587.8	1410
588.0	1403
588.2	1401
588.4	1399
588.6	1393
588.8	1390
589.0	1384
589.2	1377
589.4	1372
589.6	1367
589.8	1357
590.0	1354
590.2	1347
590.4	1343
590.6	1334
590.8	1329
591.0	1317
591.2	1309
591.4	1308
591.6	1308
591.8	1300
592.0	1294
592.2	1284
592.4	1277
592.6	1274
592.8	1274
593.0	1272
593.2	1267
593.4	1262
593.6	1257
593.8	1247
594.0	1243
594.2	1237
594.4	1229
594.6	1225
594.8	1220
595.0	1215
595.2	1212
595.4	1204
595.6	1198
595.8	1186
596.0	1181
596.2	1179
596.4	1176
596.6	1175
596.8	1168
597.0	1155
597.2	1150
597.4	1144
597.6	1141
597.8	1141
598.0	1134
598.2	1125
598.4	1122
598.6	1117
598.8	1114
599.0	1110
599.2	1104
599.4	1097
599.6	1094
599.8	1091
600.0	1087
600.2	1080
600.4	1075
600.6	1071
600.8	1066
601.0	1063
601.2	1065
601.4	1059
601.6	1053
601.8	1045
602.0	1038
602.2	1030
602.4	1032
602.6	1028
602.8	1025
603.0	1020
603.2	1013
603.4	1002
603.6	997.6
603.8	994.5
604.0	992.3
604.2	986.3
604.4	981.7
604.6	975.2
604.8	971.7
605.0	970.1
605.2	963.2
605.4	956.3
605.6	951.3
605.8	944.5
606.0	943.9
606.2	940.1
606.4	934.6
606.6	929.8
606.8	925.2
607.0	923.6
607.2	923.3
607.4	921.0
607.6	916.8
607.8	911.4
608.0	904.8
608.2	898.2
608.4	894.5
608.6	889.4
608.8	883.3
609.0	881.6
609.2	876.6
609.4	869.1
609.6	865.1
609.8	857.3
610.0	854.6
610.2	853.4
610.4	853.4
610.6	849.3
610.8	844.1
611.0	840.0
611.2	835.3
611.4	827.9
611.6	825.4
611.8	820.4
612.0	816.4
612.2	816.2
612.4	813.2
612.6	804.3
612.8	798.9
613.0	794.4
613.2	791.5
613.4	789.6
613.6	788.3
613.8	785.2
614.0	783.2
614.2	777.8
614.4	770.2
614.6	764.2
614.8	761.0
615.0	759.8
615.2	758.1
615.4	751.5
615.6	746.2
615.8	744.5
616.0	740.0
616.2	737.6
616.4	735.1
616.6	732.0
616.8	731.2
617.0	727.1
617.2	719.9
617.4	714.8
617.6	710.8
617.8	708.2
618.0	706.3
618.2	700.2
618.4	694.3
618.6	687.1
618.8	685.8
619.0	682.5
619.2	681.5
619.4	675.6
619.6	669.8
619.8	664.3
620.0	663.2
620.2	661.4
620.4	662.1
620.6	659.8
620.8	655.5
621.0	650.1
621.2	645.1
621.4	640.5
621.6	636.6
621.8	633.0
622.0	628.0
622.2	627.1
622.4	626.9
622.6	622.3
622.8	616.5
623.0	612.3
623.2	608.6
623.4	609.3
623.6	608.7
623.8	605.4
624.0	602.2
624.2	600.9
624.4	598.0
624.6	593.3
624.8	587.3
625.0	582.5
625.2	580.1
625.4	579.6
625.6	577.6
625.8	575.3
626.0	570.0
626.2	564.1
626.4	559.3
626.6	556.4
626.8	557.3
627.0	557.5
627.2	556.8
627.4	554.7
627.6	545.4
627.8	540.0
628.0	536.7
628.2	532.3
628.4	532.8
628.6	530.6
628.8	521.2
629.0	515.9
629.2	513.0
629.4	511.5
629.6	512.7
629.8	510.5
630.0	507.3
630.2	504.5
630.4	504.4
630.6	501.1
630.8	498.3
631.0	491.5
631.2	488.6
631.4	486.8
631.6	486.4
631.8	484.4
632.0	482.2
632.2	478.5
632.4	475.2
632.6	473.2
632.8	470.1
633.0	467.7
633.2	464.0
633.4	461.1
633.6	456.3
633.8	452.6
634.0	449.4
634.2	446.0
634.4	443.6
634.6	442.8
634.8	441.2
635.0	438.8
635.2	436.8
635.4	431.7
635.6	429.5
635.8	428.2
636.0	425.9
636.2	424.4
636.4	422.2
636.6	420.2
636.8	416.1
637.0	412.0
637.2	407.2
637.4	403.2
637.6	400.4
637.8	402.2
638.0	402.3
638.2	402.5
638.4	400.9
638.6	397.9
638.8	394.5
639.0	390.4
639.2	388.0
639.4	383.9
639.6	382.5
639.8	379.5
640.0	376.2
640.2	372.9
640.4	370.7
640.6	369.6
640.8	371.7
641.0	369.2
641.2	368.1
641.4	365.8
641.6	361.8
641.8	360.2
642.0	359.1
642.2	356.3
642.4	354.6
642.6	350.6
642.8	348.1
643.0	345.0
643.2	343.0
643.4	340.8
643.6	340.0
643.8	337.7
644.0	334.7
644.2	332.2
644.4	331.5
644.6	328.8
644.8	328.8
645.0	327.3
645.2	325.1
645.4	323.1
645.6	321.4
645.8	318.1
646.0	317.4
646.2	317.4
646.4	316.1
646.6	312.7
646.8	309.3
647.0	306.7
647.2	303.9
647.4	303.3
647.6	299.7
647.8	295.4
648.0	293.4
648.2	291.7
648.4	291.1
648.6	291.7
648.8	291.2
649.0	289.9
649.2	287.5
649.4	285.3
649.6	284.2
649.8	282.4
650.0	281.1
650.2	278.0
650.4	275.2
650.6	274.3
650.8	274.1
651.0	273.4
651.2	272.4
651.4	269.9
651.6	269.0
651.8	267.6
652.0	266.2
652.2	262.8
652.4	260.2
652.6	257.7
652.8	255.4
653.0	254.4
653.2	253.0
653.4	252.3
653.6	252.3
653.8	252.8
654.0	251.4
654.2	249.7
654.4	247.2
654.6	245.9
654.8	243.8
655.0	242.6
655.2	240.0
655.4	238.0
655.6	235.9
655.8	234.6
656.0	233.8
656.2	234.3
656.4	232.0
656.6	229.5
656.8	225.8
657.0	222.8
657.2	220.6
657.4	220.6
657.6	221.2
657.8	220.2
658.0	218.8
658.2	218.1
658.4	217.3
658.6	216.1
658.8	216.6
659.0	214.2
659.2	212.1
659.4	209.9
659.6	206.4
659.8	203.5
660.0	203.4
660.2	202.7
660.4	202.3
660.6	200.8
660.8	198.5
661.0	198.1
661.2	198.3
661.4	198.8
661.6	198.1
661.8	195.7
662.0	194.5
662.2	191.4
662.4	188.9
662.6	188.6
662.8	187.4
663.0	186.0
663.2	185.5
663.4	183.6
663.6	181.6
663.8	180.2
664.0	179.4
664.2	179.5
664.4	180.5
664.6	179.6
664.8	176.6
665.0	173.6
665.2	172.2
665.4	171.2
665.6	171.8
665.8	169.7
666.0	167.4
666.2	165.6
666.4	163.3
666.6	161.7
666.8	162.2
667.0	162.0
667.2	162.8
667.4	162.8
667.6	160.7
667.8	159.1
668.0	157.5
668.2	156.5
668.4	157.0
668.6	155.9
668.8	155.1
669.0	154.4
669.2	151.9
669.4	150.5
669.6	149.4
669.8	146.9
670.0	146.5
670.2	147.0
670.4	145.8
670.6	145.5
670.8	144.8
671.0	142.2
671.2	140.9
671.4	140.6
671.6	140.5
671.8	142.4
672.0	144.2
672.2	143.0
672.4	140.6
672.6	138.0
672.8	135.8
673.0	133.5
673.2	132.3
673.4	131.1
673.6	130.1
673.8	130.1
674.0	130.3
674.2	129.3
674.4	129.1
674.6	128.3
674.8	127.2
675.0	126.4
675.2	125.5
675.4	125.0
675.6	124.7
675.8	124.5
676.0	124.5
676.2	123.5
676.4	121.0
676.6	120.1
676.8	119.3
677.0	118.1
677.2	117.0
677.4	115.6
677.6	113.7
677.8	113.6
678.0	114.1
678.2	113.8
678.4	114.5
678.6	114.1
678.8	113.1
679.0	111.3
679.2	108.8
679.4	107.8
679.6	107.5
679.8	106.7
680.0	107.6
680.2	107.1
680.4	106.2
680.6	105.5
680.8	103.9
681.0	102.9
681.2	101.9
681.4	101.5
681.6	101.0
681.8	99.69
682.0	99.02
682.2	98.80
682.4	97.70
682.6	97.49
682.8	97.52
683.0	98.01
683.2	97.42
683.4	97.12
683.6	95.33
683.8	93.83
684.0	93.65
684.2	94.12
684.4	92.60
684.6	91.55
684.8	90.25
685.0	90.25
685.2	90.29
685.4	90.03
685.6	89.71
685.8	87.79
686.0	86.39
686.2	85.49
686.4	84.51
686.6	85.32
686.8	86.04
687.0	85.00
687.2	84.27
687.4	82.98
687.6	82.44
687.8	83.58
688.0	82.13
688.2	81.18
688.4	80.08
688.6	79.06
688.8	79.57
689.0	81.28
689.2	80.41
689.4	80.02
689.6	78.37
689.8	77.50
690.0	77.27
690.2	76.46
690.4	75.00
690.6	74.28
690.8	74.34
691.0	76.09
691.2	76.09
691.4	75.07
691.6	74.25
691.8	73.39
692.0	73.19
692.2	72.87
692.4	70.94
692.6	69.55
692.8	69.05
693.0	69.43
693.2	69.46
693.4	69.60
693.6	68.47
693.8	68.85
694.0	68.42
694.2	68.36
694.4	67.21
694.6	66.53
694.8	64.52
695.0	64.39
695.2	63.58
695.4	63.01
695.6	63.32
695.8	64.15
696.0	64.20
696.2	64.01
696.4	63.59
696.6	62.89
696.8	62.48
697.0	61.94
697.2	61.38
697.4	60.62
697.6	60.53
697.8	60.88
698.0	60.85
698.2	60.63
698.4	60.39
698.6	59.81
698.8	60.30
699.0	61.07
699.2	60.41
699.4	59.27
699.6	58.22
699.8	56.60
700.0	55.80
700.2	56.19
700.4	55.62
700.6	55.48
700.8	55.29
701.0	54.80
701.2	54.66
701.4	54.67
701.6	53.94
701.8	54.01
702.0	54.15
702.2	55.07
702.4	55.13
702.6	54.26
702.8	52.79
703.0	52.40
703.2	52.32
703.4	52.53
703.6	51.80
703.8	51.18
704.0	50.74
704.2	51.20
704.4	51.71
704.6	51.48
704.8	51.25
705.0	50.75
705.2	49.79
705.4	49.69
705.6	49.26
705.8	48.10
706.0	48.06
706.2	47.71
706.4	46.99
706.6	46.85
706.8	46.81
707.0	46.47
707.2	47.84
707.4	47.40
707.6	47.13
707.8	46.59
708.0	45.86
708.2	45.61
708.4	45.71
708.6	45.52
708.8	45.66
709.0	45.92
709.2	45.26
709.4	45.04
709.6	44.41
709.8	44.99
710.0	45.19
710.2	45.02
710.4	43.70
710.6	42.35
710.8	41.09
711.0	40.70
711.2	41.27
711.4	41.56
711.6	41.42
711.8	40.82
712.0	40.10
712.2	39.62
712.4	40.42
712.6	40.75
712.8	40.91
713.0	40.51
713.2	39.55
713.4	38.66
713.6	38.48
713.8	37.95
714.0	38.50
714.2	38.93
714.4	38.25
714.6	38.18
714.8	37.56
715.0	36.67
715.2	36.25
715.4	36.36
715.6	36.34
715.8	36.60
716.0	36.54
716.2	35.98
716.4	35.39
716.6	34.65
716.8	34.95
717.0	34.54
717.2	33.85
717.4	33.30
717.6	32.73
717.8	32.86
718.0	33.58
718.2	33.90
718.4	33.51
718.6	33.15
718.8	32.84
719.0	33.41
