Sample:	'20211010A(EM)
File name:	G-NI 10 1000.FDS
Run date:	'19:59:17, 06/19/2023
Operator:	Administrator
Comment:	'

Instrument
Model:	F-4700 FL Spectrophotometer
Serial number:	2019-001
ROM Version:	5J24010 00

Instrument parameters
Measurement type:	Wavelength scan
Scan mode:	Emission
Data mode:	Fluorescence
EX WL:	400.0 nm
EM  Start WL:	420.0 nm
EM  End WL:	800.0 nm
Scan speed:	1200 nm/min
Delay:	0.0 s
EX Slit:	10.0 nm
EM Slit:	10.0 nm
PMT Voltage:	500 V
Response:	0.002 s
Corrected spectra:	Off
Shutter control:	On

Processing performed
Savitsky-Golay smoothed
Smoothing order:	3
Number of points:	7
Number of times:	1

Peak integration
Integration method:	Rectangular
Sensitivity:	1
Threshold:	1.000

Peaks
No.	Start(nm)	Apex(nm)	End(nm)	Height(Data)	Valley(nm)	Valley(Data)
1	420.0	546.4	547.2	6361	547.2	6340
2	547.2	549.8	551.4	6380	551.4	6328
3	551.4	552.2	553.0	6336	553.0	6314
4	553.0	553.8	762.0	6339	762.0	19.00
5	762.0	763.0	782.6	20.19	782.6	10.31
6	782.6	784.4	785.8	11.81	785.8	10.36
7	785.8	787.2	788.6	11.68	788.6	10.32
8	788.6	790.4	791.2	11.43	791.2	10.05
9	791.2	797.0	800.0	11.85	800.0	11.05

Data points
nm	Data
420.0	3.096
420.2	2.710
420.4	2.553
420.6	2.542
420.8	2.640
421.0	2.496
421.2	2.514
421.4	2.489
421.6	2.605
421.8	2.668
422.0	2.723
422.2	2.510
422.4	2.499
422.6	2.544
422.8	2.661
423.0	2.583
423.2	2.680
423.4	2.595
423.6	2.784
423.8	2.857
424.0	2.753
424.2	2.719
424.4	2.680
424.6	2.551
424.8	2.762
425.0	2.710
425.2	2.780
425.4	2.788
425.6	2.602
425.8	2.535
426.0	2.611
426.2	2.693
426.4	3.006
426.6	3.015
426.8	2.947
427.0	2.729
427.2	2.389
427.4	2.315
427.6	2.471
427.8	2.664
428.0	2.722
428.2	2.660
428.4	2.630
428.6	2.621
428.8	2.790
429.0	2.822
429.2	2.769
429.4	2.859
429.6	2.824
429.8	2.655
430.0	2.597
430.2	2.532
430.4	2.613
430.6	2.978
430.8	3.092
431.0	2.988
431.2	2.713
431.4	2.516
431.6	2.463
431.8	2.578
432.0	2.682
432.2	2.726
432.4	2.719
432.6	2.788
432.8	2.868
433.0	2.850
433.2	2.767
433.4	2.749
433.6	2.638
433.8	2.629
434.0	2.609
434.2	2.606
434.4	2.492
434.6	2.560
434.8	2.608
435.0	2.764
435.2	2.879
435.4	2.928
435.6	2.824
435.8	2.849
436.0	2.795
436.2	2.790
436.4	2.656
436.6	2.725
436.8	2.731
437.0	2.829
437.2	2.804
437.4	2.956
437.6	3.038
437.8	3.198
438.0	3.250
438.2	2.998
438.4	2.916
438.6	2.878
438.8	2.923
439.0	2.902
439.2	3.125
439.4	2.981
439.6	3.059
439.8	3.080
440.0	3.016
440.2	2.944
440.4	2.965
440.6	2.950
440.8	3.154
441.0	3.188
441.2	3.243
441.4	3.199
441.6	3.028
441.8	3.075
442.0	3.264
442.2	3.083
442.4	3.025
442.6	2.906
442.8	2.821
443.0	3.073
443.2	3.376
443.4	3.461
443.6	3.608
443.8	3.488
444.0	3.292
444.2	3.267
444.4	3.218
444.6	3.000
444.8	3.017
445.0	2.942
445.2	2.885
445.4	3.033
445.6	3.209
445.8	3.255
446.0	3.199
446.2	3.447
446.4	3.533
446.6	3.559
446.8	3.365
447.0	3.268
447.2	3.009
447.4	3.212
447.6	3.272
447.8	3.478
448.0	3.559
448.2	3.541
448.4	3.563
448.6	3.657
448.8	3.635
449.0	3.696
449.2	3.565
449.4	3.222
449.6	3.252
449.8	3.298
450.0	3.633
450.2	3.827
450.4	3.948
450.6	4.005
450.8	4.250
451.0	4.188
451.2	4.215
451.4	4.161
451.6	4.114
451.8	4.244
452.0	4.480
452.2	4.369
452.4	4.411
452.6	4.360
452.8	4.434
453.0	4.559
453.2	4.700
453.4	4.523
453.6	4.553
453.8	4.540
454.0	4.615
454.2	4.709
454.4	4.788
454.6	4.656
454.8	4.599
455.0	4.724
455.2	4.837
455.4	4.874
455.6	4.895
455.8	4.961
456.0	4.819
456.2	4.729
456.4	4.956
456.6	4.935
456.8	5.048
457.0	5.347
457.2	5.292
457.4	5.210
457.6	5.394
457.8	5.442
458.0	5.713
458.2	5.898
458.4	6.167
458.6	6.106
458.8	5.842
459.0	5.743
459.2	5.752
459.4	5.643
459.6	6.090
459.8	6.107
460.0	6.139
460.2	6.658
460.4	6.992
460.6	7.188
460.8	7.423
461.0	7.306
461.2	7.003
461.4	7.104
461.6	7.060
461.8	7.031
462.0	7.376
462.2	7.632
462.4	7.731
462.6	7.856
462.8	7.550
463.0	7.442
463.2	7.644
463.4	8.333
463.6	8.688
463.8	8.732
464.0	8.873
464.2	8.841
464.4	9.091
464.6	9.652
464.8	9.940
465.0	9.822
465.2	10.12
465.4	10.34
465.6	10.63
465.8	11.03
466.0	11.43
466.2	11.34
466.4	11.64
466.6	12.21
466.8	12.28
467.0	12.85
467.2	12.88
467.4	13.38
467.6	14.15
467.8	14.81
468.0	14.86
468.2	14.56
468.4	14.12
468.6	14.55
468.8	14.99
469.0	15.94
469.2	16.70
469.4	17.15
469.6	17.23
469.8	18.07
470.0	18.38
470.2	18.84
470.4	19.77
470.6	20.78
470.8	21.08
471.0	22.33
471.2	23.07
471.4	23.04
471.6	23.56
471.8	24.20
472.0	25.29
472.2	26.06
472.4	26.87
472.6	27.42
472.8	28.04
473.0	28.55
473.2	29.51
473.4	29.49
473.6	30.04
473.8	31.57
474.0	33.27
474.2	34.49
474.4	35.86
474.6	36.60
474.8	37.36
475.0	38.99
475.2	40.14
475.4	40.99
475.6	42.18
475.8	42.92
476.0	43.82
476.2	45.80
476.4	47.57
476.6	49.08
476.8	50.16
477.0	51.96
477.2	53.44
477.4	55.51
477.6	57.54
477.8	59.16
478.0	60.10
478.2	62.16
478.4	64.31
478.6	65.86
478.8	68.40
479.0	70.32
479.2	71.78
479.4	74.41
479.6	77.61
479.8	79.86
480.0	83.52
480.2	85.85
480.4	87.58
480.6	89.23
480.8	91.57
481.0	94.71
481.2	98.07
481.4	101.1
481.6	103.9
481.8	106.8
482.0	110.7
482.2	114.7
482.4	117.4
482.6	119.3
482.8	122.3
483.0	124.8
483.2	128.8
483.4	133.5
483.6	139.0
483.8	144.2
484.0	149.5
484.2	153.4
484.4	157.7
484.6	161.9
484.8	165.4
485.0	169.3
485.2	172.8
485.4	177.3
485.6	183.2
485.8	189.4
486.0	195.7
486.2	202.2
486.4	207.8
486.6	213.4
486.8	217.7
487.0	221.8
487.2	226.4
487.4	233.1
487.6	240.6
487.8	249.5
488.0	255.9
488.2	262.7
488.4	267.8
488.6	275.5
488.8	283.3
489.0	292.7
489.2	300.8
489.4	309.1
489.6	316.5
489.8	324.9
490.0	334.8
490.2	342.4
490.4	350.3
490.6	358.0
490.8	367.9
491.0	376.0
491.2	385.7
491.4	395.3
491.6	406.3
491.8	415.5
492.0	428.5
492.2	435.5
492.4	444.2
492.6	456.2
492.8	466.7
493.0	475.9
493.2	487.1
493.4	496.8
493.6	511.3
493.8	524.3
494.0	534.9
494.2	545.2
494.4	558.0
494.6	575.2
494.8	593.2
495.0	605.1
495.2	615.3
495.4	625.1
495.6	637.9
495.8	656.9
496.0	677.4
496.2	690.7
496.4	705.1
496.6	717.3
496.8	730.6
497.0	748.7
497.2	767.2
497.4	781.7
497.6	798.3
497.8	814.4
498.0	832.6
498.2	849.0
498.4	865.0
498.6	880.1
498.8	897.2
499.0	916.6
499.2	937.3
499.4	955.1
499.6	975.7
499.8	994.3
500.0	1013
500.2	1031
500.4	1054
500.6	1075
500.8	1096
501.0	1119
501.2	1140
501.4	1155
501.6	1177
501.8	1195
502.0	1215
502.2	1240
502.4	1264
502.6	1283
502.8	1309
503.0	1329
503.2	1350
503.4	1375
503.6	1396
503.8	1417
504.0	1445
504.2	1467
504.4	1493
504.6	1521
504.8	1547
505.0	1578
505.2	1604
505.4	1626
505.6	1648
505.8	1673
506.0	1697
506.2	1728
506.4	1753
506.6	1778
506.8	1799
507.0	1826
507.2	1854
507.4	1887
507.6	1919
507.8	1945
508.0	1970
508.2	1997
508.4	2025
508.6	2053
508.8	2079
509.0	2109
509.2	2138
509.4	2170
509.6	2199
509.8	2225
510.0	2248
510.2	2279
510.4	2311
510.6	2346
510.8	2381
511.0	2413
511.2	2436
511.4	2464
511.6	2494
511.8	2525
512.0	2558
512.2	2587
512.4	2615
512.6	2646
512.8	2678
513.0	2709
513.2	2738
513.4	2763
513.6	2793
513.8	2825
514.0	2868
514.2	2910
514.4	2938
514.6	2965
514.8	2990
515.0	3017
515.2	3049
515.4	3089
515.6	3122
515.8	3156
516.0	3188
516.2	3222
516.4	3245
516.6	3278
516.8	3306
517.0	3334
517.2	3364
517.4	3401
517.6	3443
517.8	3476
518.0	3503
518.2	3528
518.4	3548
518.6	3580
518.8	3622
519.0	3655
519.2	3689
519.4	3719
519.6	3748
519.8	3785
520.0	3816
520.2	3849
520.4	3885
520.6	3915
520.8	3951
521.0	3982
521.2	4006
521.4	4031
521.6	4064
521.8	4094
522.0	4128
522.2	4161
522.4	4189
522.6	4214
522.8	4245
523.0	4267
523.2	4289
523.4	4323
523.6	4360
523.8	4391
524.0	4422
524.2	4448
524.4	4483
524.6	4514
524.8	4547
525.0	4578
525.2	4603
525.4	4632
525.6	4665
525.8	4685
526.0	4712
526.2	4746
526.4	4778
526.6	4808
526.8	4834
527.0	4859
527.2	4877
527.4	4902
527.6	4926
527.8	4948
528.0	4975
528.2	5001
528.4	5017
528.6	5051
528.8	5073
529.0	5094
529.2	5126
529.4	5154
529.6	5179
529.8	5206
530.0	5223
530.2	5247
530.4	5277
530.6	5305
530.8	5329
531.0	5347
531.2	5360
531.4	5376
531.6	5393
531.8	5426
532.0	5457
532.2	5491
532.4	5507
532.6	5523
532.8	5523
533.0	5545
533.2	5576
533.4	5604
533.6	5631
533.8	5652
534.0	5654
534.2	5667
534.4	5689
534.6	5712
534.8	5734
535.0	5753
535.2	5768
535.4	5787
535.6	5809
535.8	5824
536.0	5839
536.2	5852
536.4	5862
536.6	5877
536.8	5895
537.0	5909
537.2	5926
537.4	5946
537.6	5966
537.8	5984
538.0	6001
538.2	6003
538.4	6009
538.6	6022
538.8	6043
539.0	6068
539.2	6081
539.4	6086
539.6	6092
539.8	6093
540.0	6101
540.2	6124
540.4	6144
540.6	6161
540.8	6172
541.0	6182
541.2	6181
541.4	6194
541.6	6205
541.8	6209
542.0	6211
542.2	6222
542.4	6218
542.6	6228
542.8	6244
543.0	6252
543.2	6259
543.4	6264
543.6	6271
543.8	6279
544.0	6283
544.2	6281
544.4	6284
544.6	6283
544.8	6293
545.0	6295
545.2	6303
545.4	6311
545.6	6325
545.8	6343
546.0	6351
546.2	6355
546.4	6361
546.6	6349
546.8	6341
547.0	6344
547.2	6340
547.4	6342
547.6	6357
547.8	6362
548.0	6367
548.2	6368
548.4	6357
548.6	6360
548.8	6371
549.0	6370
549.2	6371
549.4	6372
549.6	6371
549.8	6380
550.0	6378
550.2	6361
550.4	6354
550.6	6354
550.8	6344
551.0	6333
551.2	6330
551.4	6328
551.6	6333
551.8	6336
552.0	6333
552.2	6336
552.4	6335
552.6	6329
552.8	6323
553.0	6314
553.2	6320
553.4	6334
553.6	6338
553.8	6339
554.0	6334
554.2	6315
554.4	6289
554.6	6279
554.8	6275
555.0	6280
555.2	6286
555.4	6278
555.6	6259
555.8	6254
556.0	6252
556.2	6250
556.4	6252
556.6	6235
556.8	6224
557.0	6216
557.2	6213
557.4	6204
557.6	6197
557.8	6180
558.0	6167
558.2	6164
558.4	6161
558.6	6154
558.8	6149
559.0	6146
559.2	6137
559.4	6120
559.6	6105
559.8	6088
560.0	6077
560.2	6077
560.4	6077
560.6	6064
560.8	6056
561.0	6053
561.2	6043
561.4	6039
561.6	6036
561.8	6024
562.0	6008
562.2	5997
562.4	5972
562.6	5961
562.8	5944
563.0	5931
563.2	5921
563.4	5914
563.6	5902
563.8	5893
564.0	5876
564.2	5868
564.4	5854
564.6	5837
564.8	5820
565.0	5811
565.2	5803
565.4	5799
565.6	5790
565.8	5780
566.0	5772
566.2	5759
566.4	5741
566.6	5720
566.8	5695
567.0	5676
567.2	5672
567.4	5669
567.6	5672
567.8	5677
568.0	5656
568.2	5630
568.4	5610
568.6	5591
568.8	5571
569.0	5561
569.2	5547
569.4	5536
569.6	5522
569.8	5500
570.0	5486
570.2	5470
570.4	5468
570.6	5459
570.8	5445
571.0	5426
571.2	5421
571.4	5403
571.6	5395
571.8	5378
572.0	5361
572.2	5339
572.4	5322
572.6	5305
572.8	5289
573.0	5280
573.2	5269
573.4	5255
573.6	5239
573.8	5221
574.0	5211
574.2	5196
574.4	5185
574.6	5169
574.8	5147
575.0	5129
575.2	5118
575.4	5099
575.6	5086
575.8	5062
576.0	5043
576.2	5032
576.4	5021
576.6	5014
576.8	5002
577.0	4986
577.2	4963
577.4	4946
577.6	4937
577.8	4917
578.0	4905
578.2	4895
578.4	4871
578.6	4866
578.8	4856
579.0	4829
579.2	4815
579.4	4795
579.6	4773
579.8	4758
580.0	4741
580.2	4724
580.4	4711
580.6	4698
580.8	4688
581.0	4680
581.2	4669
581.4	4659
581.6	4642
581.8	4617
582.0	4602
582.2	4592
582.4	4575
582.6	4556
582.8	4541
583.0	4517
583.2	4508
583.4	4493
583.6	4478
583.8	4456
584.0	4444
584.2	4428
584.4	4422
584.6	4413
584.8	4402
585.0	4378
585.2	4360
585.4	4336
585.6	4320
585.8	4302
586.0	4289
586.2	4269
586.4	4254
586.6	4238
586.8	4228
587.0	4206
587.2	4187
587.4	4163
587.6	4150
587.8	4149
588.0	4150
588.2	4142
588.4	4128
588.6	4102
588.8	4082
589.0	4066
589.2	4040
589.4	4028
589.6	4019
589.8	3997
590.0	3979
590.2	3966
590.4	3950
590.6	3939
590.8	3926
591.0	3913
591.2	3904
591.4	3894
591.6	3881
591.8	3855
592.0	3827
592.2	3812
592.4	3803
592.6	3799
592.8	3786
593.0	3769
593.2	3753
593.4	3739
593.6	3716
593.8	3705
594.0	3681
594.2	3674
594.4	3663
594.6	3654
594.8	3635
595.0	3621
595.2	3598
595.4	3591
595.6	3574
595.8	3566
596.0	3551
596.2	3531
596.4	3508
596.6	3501
596.8	3491
597.0	3478
597.2	3465
597.4	3446
597.6	3433
597.8	3424
598.0	3412
598.2	3391
598.4	3376
598.6	3358
598.8	3349
599.0	3337
599.2	3322
599.4	3305
599.6	3295
599.8	3285
600.0	3272
600.2	3265
600.4	3246
600.6	3219
600.8	3201
601.0	3182
601.2	3173
601.4	3172
601.6	3158
601.8	3135
602.0	3116
602.2	3092
602.4	3084
602.6	3078
602.8	3067
603.0	3061
603.2	3049
603.4	3031
603.6	3019
603.8	3007
604.0	2988
604.2	2977
604.4	2956
604.6	2941
604.8	2928
605.0	2921
605.2	2911
605.4	2896
605.6	2876
605.8	2867
606.0	2853
606.2	2849
606.4	2842
606.6	2822
606.8	2806
607.0	2794
607.2	2778
607.4	2770
607.6	2761
607.8	2745
608.0	2729
608.2	2718
608.4	2704
608.6	2692
608.8	2684
609.0	2673
609.2	2654
609.4	2643
609.6	2625
609.8	2611
610.0	2598
610.2	2588
610.4	2577
610.6	2564
610.8	2553
611.0	2544
611.2	2535
611.4	2524
611.6	2511
611.8	2495
612.0	2476
612.2	2460
612.4	2443
612.6	2430
612.8	2422
613.0	2417
613.2	2408
613.4	2404
613.6	2396
613.8	2382
614.0	2364
614.2	2342
614.4	2326
614.6	2314
614.8	2306
615.0	2296
615.2	2287
615.4	2276
615.6	2265
615.8	2254
616.0	2239
616.2	2224
616.4	2213
616.6	2201
616.8	2192
617.0	2183
617.2	2174
617.4	2161
617.6	2152
617.8	2143
618.0	2135
618.2	2122
618.4	2113
618.6	2100
618.8	2090
619.0	2080
619.2	2066
619.4	2054
619.6	2042
619.8	2029
620.0	2017
620.2	2009
620.4	1996
620.6	1984
620.8	1975
621.0	1967
621.2	1960
621.4	1956
621.6	1943
621.8	1930
622.0	1918
622.2	1909
622.4	1899
622.6	1886
622.8	1867
623.0	1857
623.2	1848
623.4	1845
623.6	1844
623.8	1833
624.0	1814
624.2	1800
624.4	1789
624.6	1782
624.8	1782
625.0	1775
625.2	1762
625.4	1752
625.6	1736
625.8	1722
626.0	1711
626.2	1701
626.4	1692
626.6	1688
626.8	1676
627.0	1668
627.2	1659
627.4	1653
627.6	1641
627.8	1632
628.0	1619
628.2	1612
628.4	1607
628.6	1601
628.8	1587
629.0	1574
629.2	1561
629.4	1550
629.6	1542
629.8	1534
630.0	1526
630.2	1518
630.4	1512
630.6	1503
630.8	1496
631.0	1488
631.2	1476
631.4	1469
631.6	1458
631.8	1449
632.0	1444
632.2	1437
632.4	1429
632.6	1429
632.8	1419
633.0	1411
633.2	1398
633.4	1385
633.6	1375
633.8	1375
634.0	1366
634.2	1358
634.4	1346
634.6	1338
634.8	1330
635.0	1327
635.2	1322
635.4	1316
635.6	1309
635.8	1298
636.0	1290
636.2	1279
636.4	1270
636.6	1261
636.8	1256
637.0	1247
637.2	1242
637.4	1231
637.6	1221
637.8	1213
638.0	1209
638.2	1200
638.4	1195
638.6	1191
638.8	1185
639.0	1179
639.2	1174
639.4	1164
639.6	1156
639.8	1147
640.0	1138
640.2	1129
640.4	1125
640.6	1120
640.8	1116
641.0	1108
641.2	1102
641.4	1094
641.6	1090
641.8	1083
642.0	1072
642.2	1062
642.4	1052
642.6	1050
642.8	1048
643.0	1043
643.2	1034
643.4	1025
643.6	1016
643.8	1011
644.0	1007
644.2	1000
644.4	995.9
644.6	992.0
644.8	987.2
645.0	979.6
645.2	972.9
645.4	961.8
645.6	955.3
645.8	947.5
646.0	945.7
646.2	940.3
646.4	937.2
646.6	931.0
646.8	924.0
647.0	913.6
647.2	908.7
647.4	905.0
647.6	904.1
647.8	899.0
648.0	897.2
648.2	892.3
648.4	886.2
648.6	880.1
648.8	874.3
649.0	868.4
649.2	866.0
649.4	863.2
649.6	858.4
649.8	848.2
650.0	838.5
650.2	834.2
650.4	825.7
650.6	818.1
650.8	813.8
651.0	807.6
651.2	802.8
651.4	801.2
651.6	796.8
651.8	794.6
652.0	793.0
652.2	784.9
652.4	775.8
652.6	767.3
652.8	763.0
653.0	762.3
653.2	760.9
653.4	754.0
653.6	747.8
653.8	743.8
654.0	741.0
654.2	735.1
654.4	729.8
654.6	725.0
654.8	718.7
655.0	717.8
655.2	711.8
655.4	706.7
655.6	703.2
655.8	700.1
656.0	695.7
656.2	695.0
656.4	687.2
656.6	681.2
656.8	675.9
657.0	669.6
657.2	664.5
657.4	661.6
657.6	655.5
657.8	650.0
658.0	649.4
658.2	647.1
658.4	642.3
658.6	639.4
658.8	632.3
659.0	625.7
659.2	622.4
659.4	620.5
659.6	617.6
659.8	616.5
660.0	611.7
660.2	606.2
660.4	600.9
660.6	598.0
660.8	595.5
661.0	590.9
661.2	583.4
661.4	578.2
661.6	574.0
661.8	571.6
662.0	573.3
662.2	571.2
662.4	567.0
662.6	562.2
662.8	557.0
663.0	554.4
663.2	550.7
663.4	544.3
663.6	538.8
663.8	532.7
664.0	532.0
664.2	531.4
664.4	528.3
664.6	523.7
664.8	519.8
665.0	518.7
665.2	517.2
665.4	512.1
665.6	508.4
665.8	503.6
666.0	498.9
666.2	498.0
666.4	494.7
666.6	491.0
666.8	487.0
667.0	482.7
667.2	479.2
667.4	476.6
667.6	474.1
667.8	470.1
668.0	468.6
668.2	465.9
668.4	465.7
668.6	462.1
668.8	457.6
669.0	451.2
669.2	449.5
669.4	445.1
669.6	442.8
669.8	439.8
670.0	438.4
670.2	436.1
670.4	432.8
670.6	428.4
670.8	424.9
671.0	422.7
671.2	422.2
671.4	422.0
671.6	418.1
671.8	413.3
672.0	410.4
672.2	406.6
672.4	403.2
672.6	401.5
672.8	396.5
673.0	393.4
673.2	391.9
673.4	389.5
673.6	389.7
673.8	388.9
674.0	385.1
674.2	383.2
674.4	379.8
674.6	376.5
674.8	375.4
675.0	372.2
675.2	369.2
675.4	365.3
675.6	362.8
675.8	360.0
676.0	357.9
676.2	354.6
676.4	351.1
676.6	348.4
676.8	347.6
677.0	347.4
677.2	346.6
677.4	344.2
677.6	338.8
677.8	333.9
678.0	330.0
678.2	328.5
678.4	326.6
678.6	326.4
678.8	325.8
679.0	323.0
679.2	322.9
679.4	319.9
679.6	316.0
679.8	312.8
680.0	309.8
680.2	308.5
680.4	309.6
680.6	307.1
680.8	304.2
681.0	302.5
681.2	301.1
681.4	300.3
681.6	298.2
681.8	294.2
682.0	290.4
682.2	288.2
682.4	287.0
682.6	284.7
682.8	281.7
683.0	278.6
683.2	277.1
683.4	276.5
683.6	276.4
683.8	276.1
684.0	273.0
684.2	271.2
684.4	269.6
684.6	267.7
684.8	265.3
685.0	264.4
685.2	261.0
685.4	258.5
685.6	256.7
685.8	253.6
686.0	251.0
686.2	250.3
686.4	248.5
686.6	249.0
686.8	250.4
687.0	249.2
687.2	248.7
687.4	246.3
687.6	241.8
687.8	239.2
688.0	236.9
688.2	234.4
688.4	235.6
688.6	236.1
688.8	232.8
689.0	230.3
689.2	228.0
689.4	227.1
689.6	228.6
689.8	230.1
690.0	225.9
690.2	222.9
690.4	219.6
690.6	217.3
690.8	215.5
691.0	214.0
691.2	211.8
691.4	210.8
691.6	208.9
691.8	208.1
692.0	206.5
692.2	204.8
692.4	205.6
692.6	203.5
692.8	201.8
693.0	201.5
693.2	200.1
693.4	199.3
693.6	198.0
693.8	196.1
694.0	195.0
694.2	194.7
694.4	193.5
694.6	192.1
694.8	190.1
695.0	190.1
695.2	188.6
695.4	187.2
695.6	185.3
695.8	181.8
696.0	180.8
696.2	180.5
696.4	180.1
696.6	179.1
696.8	177.8
697.0	176.1
697.2	174.5
697.4	174.1
697.6	174.8
697.8	174.0
698.0	173.6
698.2	173.1
698.4	168.6
698.6	166.7
698.8	167.7
699.0	167.2
699.2	167.3
699.4	166.4
699.6	163.5
699.8	161.8
700.0	161.9
700.2	161.5
700.4	161.5
700.6	160.8
700.8	159.7
701.0	158.3
701.2	157.3
701.4	157.0
701.6	156.0
701.8	153.5
702.0	151.8
702.2	149.6
702.4	149.1
702.6	148.7
702.8	149.1
703.0	149.4
703.2	149.1
703.4	147.9
703.6	146.8
703.8	143.9
704.0	144.0
704.2	145.0
704.4	144.8
704.6	144.1
704.8	143.9
705.0	142.6
705.2	142.4
705.4	141.0
705.6	139.2
705.8	136.1
706.0	134.2
706.2	133.9
706.4	132.6
706.6	131.2
706.8	130.9
707.0	130.1
707.2	130.0
707.4	129.5
707.6	127.7
707.8	127.1
708.0	126.8
708.2	125.8
708.4	126.4
708.6	124.7
708.8	124.7
709.0	124.6
709.2	125.1
709.4	123.7
709.6	122.3
709.8	120.6
710.0	119.0
710.2	117.6
710.4	117.6
710.6	116.4
710.8	116.5
711.0	116.8
711.2	116.0
711.4	115.4
711.6	114.9
711.8	114.5
712.0	114.4
712.2	114.0
712.4	112.3
712.6	110.2
712.8	108.4
713.0	108.2
713.2	108.6
713.4	109.0
713.6	107.9
713.8	106.9
714.0	106.2
714.2	105.2
714.4	103.5
714.6	102.8
714.8	101.4
715.0	101.3
715.2	102.6
715.4	102.8
715.6	102.0
715.8	102.0
716.0	100.8
716.2	100.2
716.4	99.68
716.6	98.78
716.8	97.23
717.0	95.77
717.2	95.15
717.4	95.52
717.6	95.44
717.8	95.56
718.0	94.56
718.2	94.44
718.4	93.22
718.6	91.27
718.8	89.35
719.0	88.93
719.2	88.43
719.4	88.43
719.6	87.77
719.8	87.14
720.0	86.54
720.2	86.34
