Sample:	'20211010A(EM)
File name:	G-NI 6 600.FDS
Run date:	'19:31:27, 06/19/2023
Operator:	Administrator
Comment:	'

Instrument
Model:	F-4700 FL Spectrophotometer
Serial number:	2019-001
ROM Version:	5J24010 00

Instrument parameters
Measurement type:	Wavelength scan
Scan mode:	Emission
Data mode:	Fluorescence
EX WL:	400.0 nm
EM  Start WL:	420.0 nm
EM  End WL:	800.0 nm
Scan speed:	1200 nm/min
Delay:	0.0 s
EX Slit:	10.0 nm
EM Slit:	10.0 nm
PMT Voltage:	500 V
Response:	0.002 s
Corrected spectra:	Off
Shutter control:	On

Processing performed
Savitsky-Golay smoothed
Smoothing order:	3
Number of points:	7
Number of times:	1

Peak integration
Integration method:	Rectangular
Sensitivity:	1
Threshold:	1.000

Peaks
No.	Start(nm)	Apex(nm)	End(nm)	Height(Data)	Valley(nm)	Valley(Data)
1	420.0	548.0	552.6	2673	552.6	2639
2	552.6	553.8	713.2	2649	713.2	41.99
3	713.2	713.8	715.0	44.06	715.0	38.45
4	715.0	715.8	727.0	40.62	727.0	25.01
5	727.0	727.6	734.4	26.45	734.4	18.81
6	734.4	735.2	758.0	20.06	758.0	8.263
7	758.0	759.0	783.4	9.712	783.4	4.267

Data points
nm	Data
420.0	1.296
420.2	1.550
420.4	1.535
420.6	1.369
420.8	1.202
421.0	1.124
421.2	1.080
421.4	1.099
421.6	1.183
421.8	1.355
422.0	1.360
422.2	1.466
422.4	1.513
422.6	1.443
422.8	1.430
423.0	1.433
423.2	1.284
423.4	1.364
423.6	1.469
423.8	1.317
424.0	1.281
424.2	1.293
424.4	1.206
424.6	1.461
424.8	1.441
425.0	1.312
425.2	1.249
425.4	1.249
425.6	1.126
425.8	1.424
426.0	1.408
426.2	1.517
426.4	1.414
426.6	1.351
426.8	1.157
427.0	1.102
427.2	0.952
427.4	1.074
427.6	1.166
427.8	1.340
428.0	1.505
428.2	1.511
428.4	1.380
428.6	1.336
428.8	1.228
429.0	1.227
429.2	1.296
429.4	1.308
429.6	1.267
429.8	1.274
430.0	1.267
430.2	1.432
430.4	1.473
430.6	1.539
430.8	1.397
431.0	1.381
431.2	1.295
431.4	1.217
431.6	1.157
431.8	1.144
432.0	1.181
432.2	1.389
432.4	1.563
432.6	1.684
432.8	1.568
433.0	1.442
433.2	1.343
433.4	1.361
433.6	1.394
433.8	1.570
434.0	1.581
434.2	1.629
434.4	1.568
434.6	1.616
434.8	1.589
435.0	1.641
435.2	1.494
435.4	1.469
435.6	1.494
435.8	1.598
436.0	1.751
436.2	1.696
436.4	1.431
436.6	1.335
436.8	1.203
437.0	1.341
437.2	1.513
437.4	1.562
437.6	1.411
437.8	1.366
438.0	1.348
438.2	1.595
438.4	1.770
438.6	1.754
438.8	1.529
439.0	1.427
439.2	1.554
439.4	1.725
439.6	1.720
439.8	1.674
440.0	1.653
440.2	1.623
440.4	1.664
440.6	1.754
440.8	1.516
441.0	1.552
441.2	1.571
441.4	1.631
441.6	1.604
441.8	1.684
442.0	1.559
442.2	1.592
442.4	1.519
442.6	1.480
442.8	1.480
443.0	1.573
443.2	1.723
443.4	1.758
443.6	1.798
443.8	1.712
444.0	1.767
444.2	1.726
444.4	1.775
444.6	1.673
444.8	1.734
445.0	1.671
445.2	1.707
445.4	1.821
445.6	2.025
445.8	2.026
446.0	2.074
446.2	2.022
446.4	1.916
446.6	1.851
446.8	1.821
447.0	1.611
447.2	1.523
447.4	1.544
447.6	1.745
447.8	1.784
448.0	1.926
448.2	2.038
448.4	2.050
448.6	1.933
448.8	1.869
449.0	1.708
449.2	1.720
449.4	2.004
449.6	2.172
449.8	2.257
450.0	2.208
450.2	1.965
450.4	1.926
450.6	2.151
450.8	2.227
451.0	2.353
451.2	2.298
451.4	2.235
451.6	2.169
451.8	2.201
452.0	2.162
452.2	2.112
452.4	2.164
452.6	2.326
452.8	2.465
453.0	2.642
453.2	2.755
453.4	2.545
453.6	2.527
453.8	2.487
454.0	2.530
454.2	2.462
454.4	2.303
454.6	2.308
454.8	2.472
455.0	2.937
455.2	3.267
455.4	3.338
455.6	3.183
455.8	3.130
456.0	2.834
456.2	3.080
456.4	3.025
456.6	3.060
456.8	3.012
457.0	3.174
457.2	3.011
457.4	3.482
457.6	3.580
457.8	3.543
458.0	3.430
458.2	3.479
458.4	3.298
458.6	3.607
458.8	3.692
459.0	3.597
459.2	3.639
459.4	3.612
459.6	3.694
459.8	3.783
460.0	3.682
460.2	3.791
460.4	3.845
460.6	3.996
460.8	4.233
461.0	4.304
461.2	4.205
461.4	4.247
461.6	4.415
461.8	4.481
462.0	4.702
462.2	4.940
462.4	5.200
462.6	5.411
462.8	5.666
463.0	5.392
463.2	5.315
463.4	5.381
463.6	5.528
463.8	5.546
464.0	5.499
464.2	5.268
464.4	5.500
464.6	6.206
464.8	6.493
465.0	6.494
465.2	6.597
465.4	6.321
465.6	6.403
465.8	6.881
466.0	6.940
466.2	6.788
466.4	7.052
466.6	7.156
466.8	6.987
467.0	7.179
467.2	7.052
467.4	7.342
467.6	7.904
467.8	8.663
468.0	9.032
468.2	9.149
468.4	8.872
468.6	9.258
468.8	9.352
469.0	9.626
469.2	10.18
469.4	10.36
469.6	10.71
469.8	11.05
470.0	11.30
470.2	11.08
470.4	11.45
470.6	11.77
470.8	12.24
471.0	12.37
471.2	12.73
471.4	12.72
471.6	13.38
471.8	13.76
472.0	13.98
472.2	14.25
472.4	14.69
472.6	15.07
472.8	15.92
473.0	16.27
473.2	16.45
473.4	16.40
473.6	16.85
473.8	17.37
474.0	18.29
474.2	19.27
474.4	20.56
474.6	21.31
474.8	21.71
475.0	21.73
475.2	21.51
475.4	22.14
475.6	23.02
475.8	24.36
476.0	24.76
476.2	25.22
476.4	25.57
476.6	26.66
476.8	27.49
477.0	28.95
477.2	30.00
477.4	31.08
477.6	31.02
477.8	31.50
478.0	32.47
478.2	33.50
478.4	34.39
478.6	36.03
478.8	37.09
479.0	38.08
479.2	39.20
479.4	39.40
479.6	39.18
479.8	40.40
480.0	42.45
480.2	44.26
480.4	45.72
480.6	46.28
480.8	46.90
481.0	48.54
481.2	50.72
481.4	52.20
481.6	53.52
481.8	54.17
482.0	55.11
482.2	57.44
482.4	59.94
482.6	62.21
482.8	63.83
483.0	64.84
483.2	65.93
483.4	67.74
483.6	69.59
483.8	72.20
484.0	73.94
484.2	75.45
484.4	78.06
484.6	80.45
484.8	82.71
485.0	84.31
485.2	87.19
485.4	89.33
485.6	93.49
485.8	96.98
486.0	99.26
486.2	101.0
486.4	102.4
486.6	103.7
486.8	106.5
487.0	107.8
487.2	110.2
487.4	114.2
487.6	117.2
487.8	120.3
488.0	123.9
488.2	126.9
488.4	131.2
488.6	135.0
488.8	137.8
489.0	139.6
489.2	142.5
489.4	146.2
489.6	150.4
489.8	153.4
490.0	157.0
490.2	160.8
490.4	165.7
490.6	170.7
490.8	174.2
491.0	177.5
491.2	182.5
491.4	187.6
491.6	193.3
491.8	198.4
492.0	199.5
492.2	204.7
492.4	209.7
492.6	214.6
492.8	220.3
493.0	224.5
493.2	228.7
493.4	236.3
493.6	242.8
493.8	247.4
494.0	252.7
494.2	255.0
494.4	259.3
494.6	266.0
494.8	272.1
495.0	277.8
495.2	286.3
495.4	290.9
495.6	296.5
495.8	303.3
496.0	308.6
496.2	315.2
496.4	323.0
496.6	328.4
496.8	335.3
497.0	339.7
497.2	344.0
497.4	349.2
497.6	356.7
497.8	366.2
498.0	375.6
498.2	381.6
498.4	388.4
498.6	393.7
498.8	401.7
499.0	411.9
499.2	422.1
499.4	431.3
499.6	441.4
499.8	447.8
500.0	453.2
500.2	460.4
500.4	467.0
500.6	478.3
500.8	489.6
501.0	500.9
501.2	509.9
501.4	517.1
501.6	521.8
501.8	531.2
502.0	537.8
502.2	548.6
502.4	558.1
502.6	566.6
502.8	575.3
503.0	584.7
503.2	593.4
503.4	604.1
503.6	613.7
503.8	623.1
504.0	633.1
504.2	644.6
504.4	657.4
504.6	671.7
504.8	679.9
505.0	687.6
505.2	697.5
505.4	710.0
505.6	722.0
505.8	733.6
506.0	739.7
506.2	745.9
506.4	762.4
506.6	776.1
506.8	788.3
507.0	799.5
507.2	809.8
507.4	819.2
507.6	838.9
507.8	850.9
508.0	863.2
508.2	874.6
508.4	882.7
508.6	894.3
508.8	905.9
509.0	915.7
509.2	927.9
509.4	940.6
509.6	948.0
509.8	962.0
510.0	973.2
510.2	982.9
510.4	997.4
510.6	1011
510.8	1024
511.0	1036
511.2	1046
511.4	1055
511.6	1066
511.8	1080
512.0	1097
512.2	1111
512.4	1122
512.6	1134
512.8	1146
513.0	1159
513.2	1173
513.4	1188
513.6	1196
513.8	1210
514.0	1226
514.2	1242
514.4	1257
514.6	1274
514.8	1287
515.0	1299
515.2	1309
515.4	1317
515.6	1329
515.8	1345
516.0	1361
516.2	1373
516.4	1383
516.6	1394
516.8	1410
517.0	1426
517.2	1441
517.4	1452
517.6	1463
517.8	1477
518.0	1486
518.2	1497
518.4	1512
518.6	1530
518.8	1544
519.0	1555
519.2	1561
519.4	1570
519.6	1586
519.8	1604
520.0	1622
520.2	1639
520.4	1652
520.6	1665
520.8	1677
521.0	1687
521.2	1696
521.4	1711
521.6	1721
521.8	1736
522.0	1753
522.2	1768
522.4	1779
522.6	1790
522.8	1799
523.0	1814
523.2	1826
523.4	1842
523.6	1855
523.8	1865
524.0	1879
524.2	1890
524.4	1900
524.6	1915
524.8	1925
525.0	1936
525.2	1952
525.4	1964
525.6	1974
525.8	1988
526.0	1998
526.2	2009
526.4	2020
526.6	2030
526.8	2035
527.0	2048
527.2	2061
527.4	2073
527.6	2082
527.8	2091
528.0	2099
528.2	2114
528.4	2122
528.6	2132
528.8	2139
529.0	2146
529.2	2160
529.4	2176
529.6	2181
529.8	2192
530.0	2202
530.2	2212
530.4	2224
530.6	2235
530.8	2246
531.0	2255
531.2	2262
531.4	2272
531.6	2278
531.8	2291
532.0	2303
532.2	2308
532.4	2313
532.6	2321
532.8	2325
533.0	2340
533.2	2347
533.4	2355
533.6	2363
533.8	2371
534.0	2379
534.2	2392
534.4	2400
534.6	2406
534.8	2411
535.0	2411
535.2	2423
535.4	2433
535.6	2442
535.8	2450
536.0	2455
536.2	2462
536.4	2465
536.6	2466
536.8	2470
537.0	2476
537.2	2482
537.4	2501
537.6	2506
537.8	2515
538.0	2527
538.2	2529
538.4	2528
538.6	2534
538.8	2540
539.0	2544
539.2	2552
539.4	2549
539.6	2548
539.8	2554
540.0	2568
540.2	2582
540.4	2585
540.6	2581
540.8	2576
541.0	2573
541.2	2580
541.4	2594
541.6	2602
541.8	2607
542.0	2606
542.2	2607
542.4	2613
542.6	2620
542.8	2626
543.0	2627
543.2	2627
543.4	2624
543.6	2632
543.8	2638
544.0	2642
544.2	2642
544.4	2644
544.6	2642
544.8	2649
545.0	2654
545.2	2650
545.4	2645
545.6	2648
545.8	2649
546.0	2658
546.2	2660
546.4	2654
546.6	2655
546.8	2659
547.0	2657
547.2	2664
547.4	2667
547.6	2670
547.8	2672
548.0	2673
548.2	2669
548.4	2668
548.6	2671
548.8	2668
549.0	2665
549.2	2663
549.4	2666
549.6	2666
549.8	2666
550.0	2666
550.2	2665
550.4	2661
550.6	2663
550.8	2664
551.0	2664
551.2	2662
551.4	2662
551.6	2658
551.8	2651
552.0	2651
552.2	2644
552.4	2639
552.6	2639
552.8	2640
553.0	2640
553.2	2643
553.4	2641
553.6	2645
553.8	2649
554.0	2644
554.2	2637
554.4	2635
554.6	2628
554.8	2631
555.0	2636
555.2	2632
555.4	2627
555.6	2624
555.8	2615
556.0	2609
556.2	2609
556.4	2611
556.6	2606
556.8	2604
557.0	2602
557.2	2596
557.4	2601
557.6	2601
557.8	2598
558.0	2592
558.2	2587
558.4	2580
558.6	2579
558.8	2575
559.0	2573
559.2	2566
559.4	2560
559.6	2559
559.8	2557
560.0	2552
560.2	2544
560.4	2534
560.6	2530
560.8	2533
561.0	2533
561.2	2527
561.4	2525
561.6	2520
561.8	2515
562.0	2510
562.2	2500
562.4	2490
562.6	2485
562.8	2488
563.0	2482
563.2	2482
563.4	2474
563.6	2469
563.8	2464
564.0	2465
564.2	2451
564.4	2444
564.6	2437
564.8	2430
565.0	2426
565.2	2422
565.4	2417
565.6	2418
565.8	2418
566.0	2413
566.2	2403
566.4	2397
566.6	2393
566.8	2389
567.0	2382
567.2	2377
567.4	2370
567.6	2364
567.8	2355
568.0	2352
568.2	2342
568.4	2340
568.6	2333
568.8	2323
569.0	2318
569.2	2315
569.4	2310
569.6	2309
569.8	2303
570.0	2293
570.2	2284
570.4	2275
570.6	2276
570.8	2273
571.0	2266
571.2	2253
571.4	2241
571.6	2232
571.8	2237
572.0	2237
572.2	2235
572.4	2231
572.6	2227
572.8	2215
573.0	2207
573.2	2196
573.4	2183
573.6	2177
573.8	2176
574.0	2175
574.2	2170
574.4	2162
574.6	2153
574.8	2143
575.0	2133
575.2	2125
575.4	2121
575.6	2118
575.8	2116
576.0	2113
576.2	2104
576.4	2096
576.6	2093
576.8	2090
577.0	2086
577.2	2081
577.4	2070
577.6	2055
577.8	2041
578.0	2033
578.2	2028
578.4	2026
578.6	2026
578.8	2021
579.0	2022
579.2	2017
579.4	2005
579.6	1996
579.8	1990
580.0	1980
580.2	1977
580.4	1968
580.6	1959
580.8	1956
581.0	1949
581.2	1936
581.4	1929
581.6	1921
581.8	1919
582.0	1918
582.2	1911
582.4	1900
582.6	1891
582.8	1881
583.0	1872
583.2	1864
583.4	1861
583.6	1863
583.8	1857
584.0	1851
584.2	1842
584.4	1833
584.6	1828
584.8	1823
585.0	1811
585.2	1807
585.4	1797
585.6	1791
585.8	1784
586.0	1774
586.2	1764
586.4	1763
586.6	1757
586.8	1754
587.0	1753
587.2	1749
587.4	1740
587.6	1733
587.8	1725
588.0	1722
588.2	1716
588.4	1709
588.6	1703
588.8	1695
589.0	1684
589.2	1680
589.4	1672
589.6	1660
589.8	1656
590.0	1651
590.2	1645
590.4	1642
590.6	1642
590.8	1625
591.0	1615
591.2	1613
591.4	1613
591.6	1613
591.8	1614
592.0	1596
592.2	1581
592.4	1573
592.6	1569
592.8	1566
593.0	1561
593.2	1551
593.4	1544
593.6	1539
593.8	1534
594.0	1533
594.2	1527
594.4	1519
594.6	1511
594.8	1503
595.0	1498
595.2	1502
595.4	1494
595.6	1485
595.8	1471
596.0	1461
596.2	1455
596.4	1452
596.6	1447
596.8	1444
597.0	1438
597.2	1431
597.4	1422
597.6	1413
597.8	1406
598.0	1406
598.2	1407
598.4	1402
598.6	1395
598.8	1386
599.0	1372
599.2	1365
599.4	1358
599.6	1351
599.8	1346
600.0	1346
600.2	1343
600.4	1339
600.6	1334
600.8	1324
601.0	1318
601.2	1313
601.4	1308
601.6	1301
601.8	1295
602.0	1290
602.2	1280
602.4	1273
602.6	1271
602.8	1264
603.0	1261
603.2	1260
603.4	1253
603.6	1248
603.8	1243
604.0	1237
604.2	1232
604.4	1225
604.6	1213
604.8	1210
605.0	1208
605.2	1205
605.4	1200
605.6	1191
605.8	1179
606.0	1177
606.2	1173
606.4	1171
606.6	1170
606.8	1162
607.0	1155
607.2	1151
607.4	1146
607.6	1139
607.8	1132
608.0	1125
608.2	1118
608.4	1115
608.6	1112
608.8	1103
609.0	1096
609.2	1093
609.4	1089
609.6	1084
609.8	1081
610.0	1075
610.2	1071
610.4	1068
610.6	1067
610.8	1060
611.0	1052
611.2	1043
611.4	1036
611.6	1032
611.8	1027
612.0	1021
612.2	1015
612.4	1011
612.6	1009
612.8	999.8
613.0	993.4
613.2	986.5
613.4	979.2
613.6	974.6
613.8	972.9
614.0	967.7
614.2	967.9
614.4	964.1
614.6	957.7
614.8	951.8
615.0	946.9
615.2	941.8
615.4	937.3
615.6	931.5
615.8	926.0
616.0	922.3
616.2	919.3
616.4	916.3
616.6	912.1
616.8	907.3
617.0	904.7
617.2	901.2
617.4	895.3
617.6	887.1
617.8	878.1
618.0	873.3
618.2	866.6
618.4	865.9
618.6	864.7
618.8	862.0
619.0	856.1
619.2	850.2
619.4	843.1
619.6	837.4
619.8	830.8
620.0	824.9
620.2	819.0
620.4	816.8
620.6	818.4
620.8	816.2
621.0	810.8
621.2	803.6
621.4	799.3
621.6	795.4
621.8	790.1
622.0	784.4
622.2	776.0
622.4	771.7
622.6	769.6
622.8	768.2
623.0	764.8
623.2	758.0
623.4	752.5
623.6	752.6
623.8	749.1
624.0	747.4
624.2	741.5
624.4	732.8
624.6	726.7
624.8	723.0
625.0	719.3
625.2	716.5
625.4	715.2
625.6	713.7
625.8	710.1
626.0	705.8
626.2	701.4
626.4	694.3
626.6	689.7
626.8	686.3
627.0	683.6
627.2	681.5
627.4	675.6
627.6	670.7
627.8	663.7
628.0	656.4
628.2	653.5
628.4	651.9
628.6	646.5
628.8	645.5
629.0	641.4
629.2	637.1
629.4	637.9
629.6	634.1
629.8	629.9
630.0	624.0
630.2	618.4
630.4	612.9
630.6	613.1
630.8	611.1
631.0	611.2
631.2	605.5
631.4	599.9
631.6	593.8
631.8	592.1
632.0	592.6
632.2	591.8
632.4	587.5
632.6	580.7
632.8	576.5
633.0	572.4
633.2	569.1
633.4	565.2
633.6	562.4
633.8	558.5
634.0	555.5
634.2	549.1
634.4	545.1
634.6	540.9
634.8	541.5
635.0	543.3
635.2	541.1
635.4	536.7
635.6	533.1
635.8	528.1
636.0	525.7
636.2	524.0
636.4	520.3
636.6	516.2
636.8	511.8
637.0	508.8
637.2	505.6
637.4	503.5
637.6	497.7
637.8	495.0
638.0	492.4
638.2	490.2
638.4	489.1
638.6	487.8
638.8	483.9
639.0	480.9
639.2	473.9
639.4	469.0
639.6	466.0
639.8	464.0
640.0	464.0
640.2	460.8
640.4	456.6
640.6	453.8
640.8	452.3
641.0	451.8
641.2	451.8
641.4	447.9
641.6	442.1
641.8	435.8
642.0	429.9
642.2	427.2
642.4	426.9
642.6	426.2
642.8	425.7
643.0	425.0
643.2	420.7
643.4	416.2
643.6	413.4
643.8	410.1
644.0	409.5
644.2	408.7
644.4	405.8
644.6	403.0
644.8	401.6
645.0	401.4
645.2	399.9
645.4	396.7
645.6	393.9
645.8	389.1
646.0	383.8
646.2	382.0
646.4	379.0
646.6	377.1
646.8	378.0
647.0	377.6
647.2	373.9
647.4	369.6
647.6	366.5
647.8	363.3
648.0	361.4
648.2	358.7
648.4	353.6
648.6	349.1
648.8	346.6
649.0	345.9
649.2	346.9
649.4	344.0
649.6	342.8
649.8	343.0
650.0	342.5
650.2	341.7
650.4	339.0
650.6	334.2
650.8	331.1
651.0	329.0
651.2	324.0
651.4	320.9
651.6	319.6
651.8	321.5
652.0	321.3
652.2	318.9
652.4	313.8
652.6	309.6
652.8	307.8
653.0	307.8
653.2	305.9
653.4	304.4
653.6	304.8
653.8	303.7
654.0	300.9
654.2	296.4
654.4	292.8
654.6	291.7
654.8	292.5
655.0	293.8
655.2	291.2
655.4	287.0
655.6	283.4
655.8	280.2
656.0	277.3
656.2	276.9
656.4	273.1
656.6	271.6
656.8	271.0
657.0	271.1
657.2	270.6
657.4	269.8
657.6	266.2
657.8	263.7
658.0	262.0
658.2	261.3
658.4	258.5
658.6	256.4
658.8	255.6
659.0	253.5
659.2	251.9
659.4	251.0
659.6	248.7
659.8	247.5
660.0	247.5
660.2	245.7
660.4	243.9
660.6	243.6
660.8	242.5
661.0	241.0
661.2	238.6
661.4	235.8
661.6	232.9
661.8	231.1
662.0	228.5
662.2	228.7
662.4	227.9
662.6	226.6
662.8	223.6
663.0	222.3
663.2	219.8
663.4	219.4
663.6	218.8
663.8	218.1
664.0	215.4
664.2	215.3
664.4	213.1
664.6	210.7
664.8	208.9
665.0	208.5
665.2	207.8
665.4	206.5
665.6	203.7
665.8	201.9
666.0	200.6
666.2	200.6
666.4	201.3
666.6	199.7
666.8	196.9
667.0	194.1
667.2	192.6
667.4	194.0
667.6	194.3
667.8	192.9
668.0	190.8
668.2	188.0
668.4	184.9
668.6	184.8
668.8	184.2
669.0	183.4
669.2	181.7
669.4	180.1
669.6	177.8
669.8	177.3
670.0	176.4
670.2	175.1
670.4	172.3
670.6	170.3
670.8	169.1
671.0	169.4
671.2	169.6
671.4	168.8
671.6	166.4
671.8	164.7
672.0	161.2
672.2	160.2
672.4	160.4
672.6	160.6
672.8	160.9
673.0	162.0
673.2	159.2
673.4	158.0
673.6	155.9
673.8	154.2
674.0	153.0
674.2	153.0
674.4	151.1
674.6	148.7
674.8	148.2
675.0	147.2
675.2	147.3
675.4	148.2
675.6	147.5
675.8	144.7
676.0	143.9
676.2	141.6
676.4	140.6
676.6	139.7
676.8	140.1
677.0	139.8
677.2	140.5
677.4	139.1
677.6	137.6
677.8	136.4
678.0	134.4
678.2	132.8
678.4	132.0
678.6	130.5
678.8	130.8
679.0	130.9
679.2	129.3
679.4	129.3
679.6	127.2
679.8	126.0
680.0	125.0
680.2	123.5
680.4	123.2
680.6	123.8
680.8	122.1
681.0	121.5
681.2	120.5
681.4	119.9
681.6	118.2
681.8	118.0
682.0	117.6
682.2	116.4
682.4	115.1
682.6	114.2
682.8	111.1
683.0	110.1
683.2	109.8
683.4	109.0
683.6	107.7
683.8	108.4
684.0	108.0
684.2	107.8
684.4	107.7
684.6	106.9
684.8	106.0
685.0	105.9
685.2	104.7
685.4	103.9
685.6	103.1
685.8	101.8
686.0	101.3
686.2	100.4
686.4	100.6
686.6	100.9
686.8	99.99
687.0	98.27
687.2	96.88
687.4	95.17
687.6	94.83
687.8	94.81
688.0	94.24
688.2	93.66
688.4	91.55
688.6	90.41
688.8	90.00
689.0	90.23
689.2	90.29
689.4	89.82
689.6	88.25
689.8	87.74
690.0	88.13
690.2	87.64
690.4	86.54
690.6	85.87
690.8	85.85
691.0	86.42
691.2	85.84
691.4	84.75
691.6	83.53
691.8	82.94
692.0	82.85
692.2	82.79
692.4	80.99
692.6	79.57
692.8	78.39
693.0	78.49
693.2	80.04
693.4	80.64
693.6	80.32
693.8	79.90
694.0	79.05
694.2	76.82
694.4	76.16
694.6	75.11
694.8	74.08
695.0	74.66
695.2	75.42
695.4	74.57
695.6	74.34
695.8	75.01
696.0	74.51
696.2	73.64
696.4	72.54
696.6	70.96
696.8	69.02
697.0	69.26
697.2	69.51
697.4	68.96
697.6	69.22
697.8	68.20
698.0	68.10
698.2	67.99
698.4	68.30
698.6	67.93
698.8	68.06
699.0	67.40
699.2	67.06
699.4	66.51
699.6	65.95
699.8	65.31
700.0	63.88
700.2	63.51
700.4	62.45
700.6	62.06
700.8	62.66
701.0	62.97
701.2	61.92
701.4	62.28
701.6	62.06
701.8	61.22
702.0	61.09
702.2	60.05
702.4	59.01
702.6	59.90
702.8	60.18
703.0	59.65
703.2	58.84
703.4	57.63
703.6	57.05
703.8	57.63
704.0	57.87
704.2	57.89
704.4	57.18
704.6	56.48
704.8	55.85
705.0	55.46
705.2	55.66
705.4	55.77
705.6	54.93
705.8	54.24
706.0	54.10
706.2	53.83
706.4	53.51
706.6	53.03
706.8	51.87
707.0	51.22
707.2	50.97
707.4	50.25
707.6	49.97
707.8	49.96
708.0	50.03
708.2	50.08
708.4	50.05
708.6	49.50
708.8	48.56
709.0	47.56
709.2	47.66
709.4	47.80
709.6	48.28
709.8	48.69
710.0	48.23
710.2	47.52
710.4	47.34
710.6	47.01
710.8	45.94
711.0	46.00
711.2	45.43
711.4	45.45
711.6	45.51
711.8	44.72
712.0	43.94
712.2	44.43
712.4	43.57
712.6	43.80
712.8	43.30
713.0	42.31
713.2	41.99
713.4	43.21
713.6	43.68
713.8	44.06
714.0	43.73
714.2	42.40
714.4	41.08
714.6	40.87
714.8	39.71
715.0	38.45
715.2	38.54
715.4	38.90
715.6	39.74
715.8	40.62
716.0	40.48
716.2	39.59
716.4	39.38
716.6	38.89
716.8	38.75
717.0	38.59
717.2	37.59
717.4	35.95
717.6	35.26
717.8	35.14
718.0	36.34
