Sample:	'20211010A(EM)
File name:	G-NI 8.FDS
Run date:	'19:37:51, 06/19/2023
Operator:	Administrator
Comment:	'

Instrument
Model:	F-4700 FL Spectrophotometer
Serial number:	2019-001
ROM Version:	5J24010 00

Instrument parameters
Measurement type:	Wavelength scan
Scan mode:	Emission
Data mode:	Fluorescence
EX WL:	400.0 nm
EM  Start WL:	420.0 nm
EM  End WL:	800.0 nm
Scan speed:	1200 nm/min
Delay:	0.0 s
EX Slit:	10.0 nm
EM Slit:	10.0 nm
PMT Voltage:	500 V
Response:	0.002 s
Corrected spectra:	Off
Shutter control:	On

Processing performed
Savitsky-Golay smoothed
Smoothing order:	3
Number of points:	7
Number of times:	1

Peak integration
Integration method:	Rectangular
Sensitivity:	1
Threshold:	1.000

Peaks
No.	Start(nm)	Apex(nm)	End(nm)	Height(Data)	Valley(nm)	Valley(Data)
1	420.0	532.6	533.2	2324	533.2	2301
2	533.2	536.6	537.2	2356	537.2	2344
3	537.2	538.2	538.8	2362	538.8	2351
4	538.8	540.2	541.0	2363	541.0	2343
5	541.0	541.8	698.6	2362	698.6	52.52
6	698.6	699.0	708.6	54.94	708.6	39.88
7	708.6	709.2	724.8	40.94	724.8	23.64
8	724.8	725.4	777.0	24.84	777.0	3.992
9	777.0	777.8	790.0	5.056	790.0	3.320

Data points
nm	Data
420.0	1.553
420.2	1.487
420.4	1.491
420.6	1.516
420.8	1.441
421.0	1.417
421.2	1.491
421.4	1.499
421.6	1.532
421.8	1.368
422.0	1.215
422.2	1.246
422.4	1.493
422.6	1.531
422.8	1.468
423.0	1.466
423.2	1.464
423.4	1.535
423.6	1.566
423.8	1.460
424.0	1.376
424.2	1.385
424.4	1.382
424.6	1.402
424.8	1.264
425.0	1.242
425.2	1.345
425.4	1.258
425.6	1.320
425.8	1.448
426.0	1.541
426.2	1.737
426.4	1.750
426.6	1.567
426.8	1.336
427.0	1.356
427.2	1.323
427.4	1.445
427.6	1.453
427.8	1.434
428.0	1.372
428.2	1.367
428.4	1.326
428.6	1.294
428.8	1.382
429.0	1.400
429.2	1.418
429.4	1.292
429.6	1.283
429.8	1.403
430.0	1.636
430.2	1.673
430.4	1.651
430.6	1.492
430.8	1.487
431.0	1.588
431.2	1.580
431.4	1.548
431.6	1.530
431.8	1.365
432.0	1.462
432.2	1.522
432.4	1.478
432.6	1.456
432.8	1.494
433.0	1.514
433.2	1.600
433.4	1.604
433.6	1.717
433.8	1.551
434.0	1.482
434.2	1.624
434.4	1.567
434.6	1.536
434.8	1.711
435.0	1.503
435.2	1.466
435.4	1.553
435.6	1.523
435.8	1.615
436.0	1.651
436.2	1.603
436.4	1.633
436.6	1.584
436.8	1.595
437.0	1.563
437.2	1.435
437.4	1.432
437.6	1.397
437.8	1.434
438.0	1.663
438.2	1.691
438.4	1.638
438.6	1.657
438.8	1.543
439.0	1.539
439.2	1.579
439.4	1.557
439.6	1.521
439.8	1.671
440.0	1.614
440.2	1.749
440.4	1.776
440.6	1.667
440.8	1.576
441.0	1.493
441.2	1.414
441.4	1.552
441.6	1.581
441.8	1.453
442.0	1.607
442.2	1.600
442.4	1.610
442.6	1.628
442.8	1.603
443.0	1.609
443.2	1.700
443.4	1.636
443.6	1.586
443.8	1.514
444.0	1.558
444.2	1.588
444.4	1.473
444.6	1.407
444.8	1.569
445.0	1.681
445.2	1.667
445.4	1.695
445.6	1.576
445.8	1.474
446.0	1.680
446.2	1.697
446.4	1.628
446.6	1.658
446.8	1.544
447.0	1.531
447.2	1.690
447.4	1.660
447.6	1.679
447.8	1.485
448.0	1.402
448.2	1.508
448.4	1.664
448.6	1.693
448.8	1.664
449.0	1.533
449.2	1.572
449.4	1.560
449.6	1.753
449.8	1.829
450.0	1.868
450.2	1.920
450.4	1.993
450.6	1.755
450.8	1.617
451.0	1.511
451.2	1.360
451.4	1.427
451.6	1.723
451.8	1.802
452.0	1.761
452.2	1.887
452.4	1.740
452.6	1.622
452.8	1.595
453.0	1.614
453.2	1.557
453.4	1.738
453.6	1.839
453.8	1.761
454.0	1.639
454.2	1.770
454.4	1.758
454.6	1.833
454.8	1.979
455.0	1.860
455.2	1.821
455.4	1.867
455.6	1.757
455.8	1.704
456.0	1.604
456.2	1.537
456.4	1.745
456.6	1.867
456.8	1.848
457.0	1.907
457.2	1.666
457.4	1.709
457.6	1.703
457.8	1.684
458.0	1.817
458.2	1.915
458.4	1.812
458.6	1.997
458.8	2.160
459.0	2.214
459.2	2.175
459.4	1.972
459.6	1.806
459.8	1.628
460.0	1.762
460.2	1.840
460.4	1.887
460.6	2.081
460.8	2.276
461.0	2.156
461.2	2.148
461.4	2.130
461.6	2.181
461.8	2.371
462.0	2.575
462.2	2.668
462.4	2.537
462.6	2.292
462.8	2.144
463.0	2.201
463.2	2.429
463.4	2.712
463.6	2.901
463.8	2.842
464.0	2.765
464.2	2.766
464.4	2.701
464.6	2.780
464.8	2.840
465.0	2.807
465.2	2.960
465.4	3.092
465.6	3.344
465.8	3.741
466.0	3.882
466.2	3.917
466.4	3.982
466.6	3.679
466.8	3.489
467.0	3.577
467.2	3.813
467.4	3.998
467.6	4.363
467.8	4.238
468.0	3.987
468.2	4.042
468.4	4.193
468.6	4.301
468.8	4.686
469.0	4.851
469.2	5.053
469.4	5.194
469.6	5.486
469.8	5.615
470.0	5.510
470.2	5.629
470.4	5.797
470.6	5.730
470.8	5.945
471.0	6.538
471.2	6.713
471.4	7.199
471.6	7.345
471.8	7.431
472.0	7.455
472.2	8.097
472.4	8.460
472.6	8.713
472.8	8.714
473.0	8.690
473.2	8.626
473.4	8.775
473.6	9.246
473.8	9.594
474.0	9.952
474.2	10.24
474.4	10.43
474.6	10.89
474.8	11.25
475.0	11.69
475.2	12.09
475.4	13.15
475.6	13.60
475.8	14.45
476.0	14.63
476.2	14.91
476.4	15.36
476.6	16.39
476.8	17.32
477.0	18.42
477.2	18.73
477.4	19.13
477.6	19.57
477.8	20.29
478.0	21.21
478.2	22.28
478.4	22.51
478.6	22.87
478.8	23.33
479.0	24.24
479.2	25.22
479.4	26.71
479.6	28.24
479.8	29.63
480.0	30.47
480.2	31.50
480.4	32.85
480.6	33.47
480.8	34.87
481.0	36.28
481.2	37.34
481.4	39.30
481.6	40.83
481.8	42.07
482.0	43.47
482.2	45.13
482.4	46.96
482.6	48.68
482.8	49.35
483.0	50.62
483.2	51.68
483.4	52.77
483.6	55.34
483.8	56.93
484.0	58.55
484.2	60.94
484.4	63.30
484.6	65.62
484.8	69.20
485.0	71.38
485.2	73.85
485.4	75.91
485.6	76.88
485.8	79.20
486.0	83.53
486.2	87.10
486.4	90.87
486.6	93.87
486.8	96.03
487.0	99.10
487.2	102.9
487.4	105.6
487.6	108.7
487.8	111.3
488.0	114.8
488.2	118.2
488.4	121.2
488.6	124.7
488.8	128.6
489.0	132.9
489.2	137.1
489.4	141.6
489.6	146.4
489.8	151.3
490.0	155.9
490.2	160.5
490.4	164.0
490.6	168.8
490.8	174.1
491.0	180.7
491.2	186.0
491.4	191.8
491.6	196.2
491.8	200.9
492.0	206.8
492.2	212.0
492.4	218.9
492.6	225.8
492.8	232.1
493.0	237.5
493.2	242.9
493.4	248.5
493.6	257.5
493.8	264.5
494.0	271.8
494.2	278.7
494.4	283.8
494.6	292.5
494.8	299.9
495.0	306.8
495.2	312.3
495.4	319.2
495.6	325.7
495.8	335.5
496.0	344.3
496.2	356.2
496.4	367.0
496.6	375.7
496.8	383.4
497.0	391.6
497.2	399.3
497.4	409.9
497.6	418.5
497.8	426.5
498.0	436.1
498.2	446.7
498.4	457.0
498.6	468.8
498.8	476.8
499.0	485.5
499.2	496.2
499.4	505.2
499.6	515.0
499.8	529.1
500.0	539.8
500.2	553.6
500.4	567.8
500.6	578.4
500.8	590.4
501.0	603.1
501.2	612.9
501.4	624.8
501.6	638.0
501.8	649.9
502.0	660.4
502.2	672.4
502.4	684.2
502.6	694.4
502.8	704.5
503.0	716.9
503.2	726.9
503.4	743.5
503.6	759.9
503.8	773.8
504.0	786.5
504.2	803.8
504.4	817.3
504.6	834.1
504.8	849.4
505.0	859.1
505.2	867.8
505.4	880.5
505.6	893.6
505.8	908.3
506.0	923.9
506.2	935.8
506.4	948.7
506.6	962.7
506.8	979.6
507.0	993.1
507.2	1009
507.4	1024
507.6	1037
507.8	1052
508.0	1066
508.2	1080
508.4	1097
508.6	1111
508.8	1123
509.0	1139
509.2	1154
509.4	1172
509.6	1186
509.8	1200
510.0	1213
510.2	1229
510.4	1244
510.6	1260
510.8	1274
511.0	1286
511.2	1298
511.4	1309
511.6	1323
511.8	1336
512.0	1351
512.2	1366
512.4	1381
512.6	1396
512.8	1419
513.0	1433
513.2	1448
513.4	1457
513.6	1469
513.8	1481
514.0	1497
514.2	1512
514.4	1526
514.6	1535
514.8	1549
515.0	1562
515.2	1575
515.4	1591
515.6	1601
515.8	1616
516.0	1630
516.2	1643
516.4	1654
516.6	1668
516.8	1677
517.0	1693
517.2	1710
517.4	1725
517.6	1735
517.8	1746
518.0	1757
518.2	1770
518.4	1779
518.6	1790
518.8	1801
519.0	1811
519.2	1826
519.4	1841
519.6	1848
519.8	1866
520.0	1878
520.2	1890
520.4	1905
520.6	1919
520.8	1925
521.0	1936
521.2	1941
521.4	1951
521.6	1965
521.8	1983
522.0	1993
522.2	2002
522.4	2010
522.6	2014
522.8	2018
523.0	2026
523.2	2032
523.4	2046
523.6	2059
523.8	2064
524.0	2070
524.2	2076
524.4	2084
524.6	2096
524.8	2108
525.0	2116
525.2	2122
525.4	2130
525.6	2134
525.8	2137
526.0	2143
526.2	2147
526.4	2153
526.6	2169
526.8	2179
527.0	2180
527.2	2186
527.4	2191
527.6	2194
527.8	2210
528.0	2214
528.2	2213
528.4	2218
528.6	2226
528.8	2234
529.0	2243
529.2	2250
529.4	2251
529.6	2255
529.8	2262
530.0	2272
530.2	2274
530.4	2283
530.6	2278
530.8	2281
531.0	2286
531.2	2290
531.4	2298
531.6	2300
531.8	2301
532.0	2304
532.2	2315
532.4	2321
532.6	2324
532.8	2317
533.0	2308
533.2	2301
533.4	2305
533.6	2314
533.8	2326
534.0	2331
534.2	2331
534.4	2336
534.6	2344
534.8	2353
535.0	2357
535.2	2352
535.4	2347
535.6	2348
535.8	2349
536.0	2347
536.2	2349
536.4	2353
536.6	2356
536.8	2352
537.0	2350
537.2	2344
537.4	2346
537.6	2351
537.8	2357
538.0	2360
538.2	2362
538.4	2360
538.6	2354
538.8	2351
539.0	2352
539.2	2355
539.4	2361
539.6	2360
539.8	2359
540.0	2362
540.2	2363
540.4	2359
540.6	2356
540.8	2344
541.0	2343
541.2	2345
541.4	2354
541.6	2361
541.8	2362
542.0	2352
542.2	2347
542.4	2341
542.6	2338
542.8	2337
543.0	2334
543.2	2327
543.4	2327
543.6	2329
543.8	2328
544.0	2329
544.2	2321
544.4	2319
544.6	2319
544.8	2314
545.0	2314
545.2	2312
545.4	2306
545.6	2309
545.8	2311
546.0	2310
546.2	2308
546.4	2302
546.6	2297
546.8	2289
547.0	2287
547.2	2284
547.4	2280
547.6	2281
547.8	2279
548.0	2271
548.2	2270
548.4	2267
548.6	2267
548.8	2273
549.0	2270
549.2	2265
549.4	2262
549.6	2253
549.8	2247
550.0	2245
550.2	2241
550.4	2242
550.6	2236
550.8	2227
551.0	2223
551.2	2215
551.4	2212
551.6	2214
551.8	2211
552.0	2209
552.2	2209
552.4	2198
552.6	2188
552.8	2184
553.0	2185
553.2	2185
553.4	2187
553.6	2179
553.8	2169
554.0	2164
554.2	2159
554.4	2153
554.6	2156
554.8	2155
555.0	2152
555.2	2152
555.4	2142
555.6	2127
555.8	2125
556.0	2123
556.2	2121
556.4	2121
556.6	2118
556.8	2110
557.0	2106
557.2	2101
557.4	2092
557.6	2080
557.8	2081
558.0	2078
558.2	2073
558.4	2070
558.6	2067
558.8	2059
559.0	2056
559.2	2052
559.4	2044
559.6	2034
559.8	2029
560.0	2021
560.2	2014
560.4	2019
560.6	2015
560.8	2014
561.0	2007
561.2	2003
561.4	1994
561.6	1990
561.8	1983
562.0	1976
562.2	1968
562.4	1964
562.6	1953
562.8	1951
563.0	1948
563.2	1941
563.4	1936
563.6	1932
563.8	1925
564.0	1922
564.2	1918
564.4	1915
564.6	1909
564.8	1900
565.0	1893
565.2	1887
565.4	1879
565.6	1872
565.8	1867
566.0	1862
566.2	1859
566.4	1859
566.6	1852
566.8	1843
567.0	1835
567.2	1834
567.4	1834
567.6	1833
567.8	1831
568.0	1819
568.2	1807
568.4	1795
568.6	1785
568.8	1776
569.0	1772
569.2	1768
569.4	1770
569.6	1762
569.8	1757
570.0	1754
570.2	1744
570.4	1740
570.6	1733
570.8	1727
571.0	1726
571.2	1727
571.4	1720
571.6	1714
571.8	1702
572.0	1693
572.2	1690
572.4	1686
572.6	1685
572.8	1676
573.0	1665
573.2	1657
573.4	1650
573.6	1646
573.8	1647
574.0	1644
574.2	1639
574.4	1632
574.6	1619
574.8	1613
575.0	1609
575.2	1600
575.4	1593
575.6	1588
575.8	1585
576.0	1583
576.2	1581
576.4	1572
576.6	1565
576.8	1557
577.0	1552
577.2	1546
577.4	1540
577.6	1535
577.8	1529
578.0	1523
578.2	1518
578.4	1513
578.6	1510
578.8	1504
579.0	1496
579.2	1491
579.4	1481
579.6	1475
579.8	1471
580.0	1469
580.2	1464
580.4	1459
580.6	1453
580.8	1448
581.0	1444
581.2	1440
581.4	1433
581.6	1423
581.8	1417
582.0	1411
582.2	1408
582.4	1405
582.6	1403
582.8	1397
583.0	1390
583.2	1377
583.4	1371
583.6	1369
583.8	1368
584.0	1363
584.2	1358
584.4	1346
584.6	1342
584.8	1340
585.0	1334
585.2	1325
585.4	1317
585.6	1309
585.8	1304
586.0	1301
586.2	1296
586.4	1291
586.6	1287
586.8	1283
587.0	1278
587.2	1275
587.4	1270
587.6	1263
587.8	1257
588.0	1249
588.2	1239
588.4	1237
588.6	1233
588.8	1230
589.0	1226
589.2	1222
589.4	1215
589.6	1211
589.8	1207
590.0	1204
590.2	1197
590.4	1193
590.6	1187
590.8	1178
591.0	1171
591.2	1166
591.4	1162
591.6	1158
591.8	1156
592.0	1153
592.2	1145
592.4	1138
592.6	1131
592.8	1124
593.0	1121
593.2	1122
593.4	1119
593.6	1115
593.8	1111
594.0	1104
594.2	1100
594.4	1095
594.6	1088
594.8	1083
595.0	1076
595.2	1072
595.4	1071
595.6	1067
595.8	1063
596.0	1061
596.2	1054
596.4	1043
596.6	1039
596.8	1035
597.0	1032
597.2	1029
597.4	1031
597.6	1026
597.8	1022
598.0	1017
598.2	1006
598.4	998.3
598.6	993.3
598.8	993.6
599.0	989.6
599.2	987.1
599.4	981.3
599.6	977.2
599.8	973.4
600.0	971.1
600.2	964.9
600.4	959.7
600.6	954.8
600.8	948.1
601.0	943.4
601.2	935.9
601.4	930.8
601.6	929.7
601.8	927.5
602.0	925.8
602.2	922.4
602.4	918.0
602.6	911.7
602.8	910.5
603.0	904.7
603.2	901.4
603.4	897.6
603.6	892.8
603.8	884.6
604.0	883.0
604.2	877.2
604.4	875.1
604.6	871.8
604.8	866.5
605.0	861.2
605.2	860.2
605.4	855.0
605.6	850.1
605.8	843.0
606.0	839.9
606.2	839.9
606.4	837.8
606.6	832.5
606.8	827.7
607.0	819.5
607.2	817.4
607.4	816.9
607.6	811.1
607.8	804.6
608.0	799.1
608.2	794.9
608.4	792.5
608.6	792.7
608.8	787.9
609.0	782.5
609.2	779.9
609.4	779.1
609.6	774.8
609.8	771.6
610.0	763.1
610.2	758.7
610.4	761.1
610.6	760.7
610.8	755.7
611.0	749.7
611.2	741.5
611.4	733.3
611.6	733.0
611.8	730.3
612.0	726.6
612.2	726.3
612.4	727.4
612.6	724.7
612.8	721.9
613.0	714.5
613.2	712.2
613.4	707.7
613.6	701.8
613.8	697.1
614.0	690.1
614.2	684.7
614.4	685.9
614.6	682.1
614.8	678.6
615.0	676.4
615.2	672.0
615.4	668.2
615.6	664.8
615.8	659.6
616.0	658.9
616.2	656.9
616.4	653.4
616.6	651.2
616.8	649.0
617.0	643.7
617.2	639.8
617.4	637.6
617.6	633.0
617.8	630.6
618.0	629.4
618.2	625.1
618.4	621.0
618.6	620.1
618.8	615.2
619.0	611.8
619.2	610.3
619.4	606.3
619.6	603.1
619.8	601.7
620.0	597.4
620.2	596.2
620.4	591.8
620.6	586.2
620.8	580.6
621.0	577.6
621.2	574.8
621.4	577.2
621.6	572.9
621.8	566.2
622.0	560.1
622.2	555.8
622.4	555.6
622.6	556.3
622.8	552.2
623.0	547.7
623.2	547.2
623.4	541.8
623.6	540.8
623.8	538.2
624.0	532.7
624.2	530.4
624.4	531.2
624.6	525.0
624.8	523.0
625.0	523.8
625.2	519.8
625.4	514.2
625.6	510.9
625.8	503.5
626.0	502.4
626.2	503.8
626.4	502.6
626.6	498.9
626.8	494.0
627.0	490.0
627.2	488.3
627.4	488.2
627.6	487.3
627.8	484.6
628.0	478.0
628.2	472.6
628.4	469.4
628.6	466.4
628.8	467.3
629.0	467.9
629.2	465.7
629.4	462.5
629.6	459.7
629.8	455.0
630.0	454.9
630.2	454.0
630.4	452.4
630.6	449.2
630.8	442.2
631.0	436.3
631.2	433.2
631.4	432.4
631.6	433.6
631.8	432.8
632.0	426.5
632.2	422.0
632.4	419.7
632.6	417.7
632.8	418.5
633.0	416.9
633.2	413.8
633.4	413.5
633.6	410.5
633.8	406.7
634.0	404.3
634.2	400.5
634.4	398.2
634.6	398.5
634.8	395.2
635.0	393.1
635.2	389.7
635.4	387.4
635.6	385.2
635.8	385.0
636.0	385.2
636.2	385.5
636.4	381.0
636.6	376.9
636.8	372.6
637.0	367.9
637.2	367.7
637.4	367.4
637.6	363.7
637.8	359.7
638.0	357.4
638.2	354.7
638.4	355.5
638.6	355.4
638.8	351.8
639.0	346.9
639.2	344.0
639.4	342.7
639.6	342.8
639.8	342.1
640.0	338.3
640.2	336.2
640.4	333.8
640.6	332.9
640.8	331.3
641.0	329.3
641.2	325.8
641.4	322.3
641.6	320.4
641.8	319.8
642.0	319.6
642.2	317.7
642.4	316.8
642.6	313.4
642.8	312.9
643.0	311.7
643.2	310.5
643.4	309.9
643.6	308.8
643.8	305.5
644.0	304.7
644.2	300.8
644.4	297.1
644.6	296.4
644.8	294.6
645.0	291.7
645.2	291.3
645.4	287.8
645.6	285.2
645.8	282.8
646.0	280.3
646.2	278.4
646.4	277.6
646.6	276.7
646.8	276.7
647.0	275.5
647.2	273.5
647.4	270.3
647.6	268.5
647.8	266.6
648.0	266.0
648.2	265.7
648.4	265.8
648.6	262.1
648.8	260.4
649.0	259.0
649.2	258.5
649.4	258.1
649.6	257.8
649.8	255.8
650.0	253.8
650.2	250.4
650.4	248.6
650.6	246.2
650.8	244.4
651.0	243.3
651.2	242.2
651.4	240.5
651.6	240.1
651.8	239.1
652.0	238.2
652.2	236.8
652.4	235.5
652.6	234.8
652.8	232.1
653.0	229.2
653.2	227.5
653.4	225.2
653.6	224.4
653.8	224.8
654.0	224.0
654.2	222.2
654.4	219.7
654.6	217.7
654.8	215.5
655.0	214.8
655.2	214.5
655.4	212.6
655.6	208.9
655.8	207.9
656.0	206.7
656.2	207.5
656.4	207.9
656.6	206.4
656.8	202.8
657.0	201.2
657.2	199.5
657.4	199.6
657.6	198.3
657.8	196.1
658.0	194.7
658.2	194.1
658.4	192.1
658.6	191.7
658.8	190.9
659.0	190.4
659.2	189.6
659.4	188.6
659.6	186.5
659.8	184.0
660.0	182.9
660.2	182.9
660.4	182.0
660.6	180.8
660.8	178.7
661.0	176.6
661.2	175.3
661.4	174.4
661.6	174.5
661.8	173.5
662.0	172.3
662.2	173.1
662.4	172.2
662.6	170.0
662.8	169.0
663.0	167.5
663.2	166.5
663.4	165.1
663.6	163.1
663.8	161.3
664.0	160.3
664.2	159.9
664.4	159.6
664.6	157.1
664.8	156.3
665.0	156.8
665.2	156.8
665.4	155.7
665.6	154.5
665.8	152.6
666.0	151.5
666.2	151.7
666.4	152.4
666.6	150.2
666.8	147.8
667.0	146.0
667.2	144.7
667.4	144.2
667.6	144.0
667.8	142.3
668.0	141.0
668.2	140.6
668.4	140.2
668.6	138.4
668.8	137.0
669.0	136.3
669.2	136.2
669.4	136.8
669.6	136.4
669.8	134.4
670.0	132.5
670.2	133.6
670.4	133.2
670.6	133.7
670.8	133.2
671.0	131.9
671.2	128.8
671.4	128.5
671.6	126.8
671.8	126.4
672.0	124.9
672.2	124.3
672.4	123.6
672.6	123.1
672.8	121.4
673.0	120.1
673.2	118.8
673.4	118.7
673.6	118.5
673.8	118.0
674.0	117.3
674.2	116.2
674.4	116.1
674.6	116.7
674.8	115.7
675.0	115.1
675.2	114.7
675.4	113.4
675.6	111.8
675.8	111.3
676.0	110.9
676.2	110.8
676.4	110.0
676.6	109.5
676.8	108.3
677.0	107.3
677.2	106.4
677.4	106.0
677.6	104.3
677.8	103.7
678.0	103.3
678.2	102.9
678.4	102.2
678.6	102.3
678.8	100.9
679.0	99.72
679.2	98.90
679.4	98.61
679.6	98.35
679.8	97.44
680.0	96.66
680.2	94.87
680.4	94.06
680.6	93.88
680.8	93.45
681.0	93.17
681.2	93.02
681.4	92.03
681.6	91.48
681.8	91.21
682.0	90.91
682.2	90.76
682.4	90.49
682.6	90.33
682.8	89.82
683.0	89.61
683.2	88.43
683.4	87.65
683.6	87.84
683.8	87.51
684.0	85.81
684.2	84.08
684.4	81.96
684.6	81.00
684.8	80.61
685.0	79.86
685.2	79.83
685.4	80.15
685.6	80.36
685.8	80.13
686.0	79.61
686.2	78.43
686.4	78.97
686.6	79.74
686.8	80.30
687.0	79.70
687.2	78.17
687.4	76.64
687.6	74.77
687.8	73.15
688.0	72.84
688.2	71.80
688.4	71.98
688.6	72.85
688.8	72.86
689.0	72.56
689.2	72.49
689.4	71.65
689.6	70.95
689.8	70.26
690.0	69.35
690.2	68.54
690.4	67.81
690.6	66.93
690.8	66.92
691.0	66.82
691.2	66.94
691.4	67.53
691.6	66.81
691.8	65.75
692.0	65.86
692.2	65.06
692.4	64.43
692.6	64.66
692.8	64.33
693.0	63.33
693.2	63.23
693.4	61.88
693.6	60.80
693.8	60.64
694.0	61.43
694.2	61.29
694.4	62.27
694.6	61.68
694.8	60.17
695.0	59.15
695.2	59.53
695.4	59.07
695.6	58.99
695.8	57.99
696.0	56.38
696.2	55.98
696.4	56.45
696.6	56.01
696.8	57.01
697.0	56.14
697.2	55.80
697.4	55.94
697.6	55.96
697.8	55.52
698.0	55.10
698.2	53.13
698.4	52.53
698.6	52.52
698.8	53.68
699.0	54.94
699.2	54.29
699.4	53.35
699.6	53.66
699.8	52.86
700.0	52.81
700.2	52.31
700.4	51.05
700.6	50.62
700.8	50.82
701.0	50.36
701.2	50.10
701.4	49.93
701.6	49.36
701.8	49.07
702.0	49.05
702.2	48.82
702.4	49.10
702.6	49.25
702.8	49.26
703.0	48.47
703.2	48.10
703.4	47.18
703.6	46.51
703.8	45.57
704.0	45.95
704.2	45.94
704.4	46.35
704.6	45.96
704.8	45.18
705.0	44.56
705.2	44.47
705.4	44.31
705.6	43.86
705.8	43.28
706.0	43.35
706.2	43.28
706.4	43.29
706.6	43.63
706.8	43.64
707.0	43.74
707.2	43.42
707.4	41.93
707.6	40.79
707.8	40.32
708.0	40.05
708.2	40.48
708.4	40.33
708.6	39.88
708.8	40.32
709.0	40.75
709.2	40.94
709.4	40.69
709.6	40.44
709.8	39.38
710.0	38.93
710.2	38.63
710.4	38.56
710.6	38.15
710.8	38.69
711.0	38.65
711.2	38.66
711.4	38.41
711.6	38.25
711.8	37.52
712.0	37.78
712.2	37.82
712.4	37.29
712.6	37.15
712.8	36.58
713.0	35.71
713.2	35.93
713.4	35.55
713.6	34.97
713.8	34.55
714.0	33.77
714.2	34.43
714.4	35.16
714.6	35.46
714.8	35.03
715.0	33.97
715.2	33.55
715.4	33.29
715.6	32.99
715.8	32.96
716.0	32.59
716.2	32.73
