Sample:	'20211010A(EM)
File name:	G-NI 4 400.FDS
Run date:	'19:22:43, 06/19/2023
Operator:	Administrator
Comment:	'

Instrument
Model:	F-4700 FL Spectrophotometer
Serial number:	2019-001
ROM Version:	5J24010 00

Instrument parameters
Measurement type:	Wavelength scan
Scan mode:	Emission
Data mode:	Fluorescence
EX WL:	400.0 nm
EM  Start WL:	420.0 nm
EM  End WL:	800.0 nm
Scan speed:	1200 nm/min
Delay:	0.0 s
EX Slit:	10.0 nm
EM Slit:	10.0 nm
PMT Voltage:	500 V
Response:	0.002 s
Corrected spectra:	Off
Shutter control:	On

Processing performed
Savitsky-Golay smoothed
Smoothing order:	3
Number of points:	7
Number of times:	1

Peak integration
Integration method:	Rectangular
Sensitivity:	1
Threshold:	1.000

Peaks
No.	Start(nm)	Apex(nm)	End(nm)	Height(Data)	Valley(nm)	Valley(Data)
1	420.0	549.0	550.4	4110	550.4	4090
2	550.4	551.2	746.8	4111	746.8	17.67
3	746.8	747.8	748.6	19.34	748.6	17.31
4	748.6	749.4	786.0	18.42	786.0	5.862
5	786.0	790.4	792.8	7.540	792.8	6.429
6	792.8	796.2	797.0	8.202	797.0	6.832

Data points
nm	Data
420.0	1.805
420.2	1.925
420.4	1.941
420.6	1.887
420.8	1.765
421.0	1.744
421.2	1.754
421.4	1.852
421.6	1.928
421.8	1.960
422.0	1.894
422.2	2.039
422.4	1.958
422.6	1.986
422.8	2.087
423.0	1.908
423.2	1.761
423.4	1.813
423.6	1.831
423.8	1.857
424.0	2.059
424.2	1.997
424.4	1.959
424.6	1.952
424.8	1.928
425.0	1.920
425.2	1.972
425.4	1.889
425.6	1.930
425.8	1.800
426.0	1.725
426.2	1.850
426.4	1.821
426.6	1.713
426.8	1.776
427.0	1.536
427.2	1.445
427.4	1.740
427.6	1.998
427.8	2.239
428.0	2.501
428.2	2.392
428.4	2.078
428.6	2.024
428.8	1.917
429.0	1.791
429.2	1.764
429.4	1.760
429.6	1.708
429.8	1.874
430.0	2.123
430.2	2.308
430.4	2.432
430.6	2.353
430.8	2.120
431.0	1.993
431.2	2.044
431.4	2.193
431.6	2.390
431.8	2.275
432.0	1.915
432.2	1.777
432.4	1.767
432.6	1.888
432.8	2.071
433.0	2.079
433.2	1.998
433.4	1.940
433.6	1.861
433.8	1.868
434.0	1.984
434.2	1.981
434.4	2.102
434.6	2.033
434.8	1.933
435.0	2.024
435.2	2.166
435.4	2.071
435.6	2.107
435.8	2.100
436.0	2.040
436.2	2.190
436.4	2.287
436.6	2.214
436.8	2.192
437.0	2.126
437.2	2.055
437.4	2.091
437.6	2.262
437.8	2.377
438.0	2.293
438.2	2.209
438.4	2.232
438.6	2.104
438.8	2.188
439.0	2.067
439.2	1.814
439.4	1.821
439.6	1.783
439.8	1.897
440.0	2.253
440.2	2.358
440.4	2.464
440.6	2.470
440.8	2.299
441.0	2.249
441.2	2.317
441.4	2.175
441.6	2.250
441.8	2.296
442.0	2.264
442.2	2.293
442.4	2.198
442.6	2.043
442.8	2.068
443.0	2.108
443.2	2.124
443.4	2.398
443.6	2.477
443.8	2.597
444.0	2.604
444.2	2.386
444.4	2.330
444.6	2.512
444.8	2.531
445.0	2.702
445.2	2.794
445.4	2.790
445.6	2.768
445.8	2.784
446.0	2.669
446.2	2.690
446.4	2.674
446.6	2.805
446.8	2.954
447.0	2.977
447.2	2.946
447.4	2.832
447.6	2.670
447.8	2.569
448.0	2.606
448.2	2.575
448.4	2.591
448.6	2.764
448.8	2.940
449.0	3.032
449.2	3.029
449.4	2.930
449.6	2.822
449.8	2.813
450.0	3.038
450.2	3.245
450.4	3.446
450.6	3.687
450.8	3.523
451.0	3.242
451.2	3.166
451.4	3.001
451.6	3.107
451.8	3.490
452.0	3.428
452.2	3.487
452.4	3.481
452.6	3.430
452.8	3.409
453.0	3.542
453.2	3.652
453.4	3.680
453.6	3.739
453.8	4.031
454.0	4.075
454.2	4.180
454.4	4.171
454.6	3.980
454.8	3.981
455.0	4.336
455.2	4.408
455.4	4.398
455.6	4.327
455.8	4.369
456.0	4.640
456.2	5.033
456.4	4.980
456.6	4.744
456.8	4.561
457.0	4.584
457.2	4.647
457.4	5.006
457.6	5.194
457.8	5.394
458.0	5.429
458.2	5.261
458.4	5.104
458.6	5.277
458.8	5.283
459.0	5.431
459.2	5.598
459.4	5.614
459.6	5.899
459.8	6.219
460.0	6.602
460.2	6.640
460.4	6.521
460.6	6.507
460.8	6.389
461.0	6.397
461.2	6.636
461.4	6.773
461.6	6.877
461.8	7.302
462.0	7.780
462.2	7.988
462.4	7.946
462.6	7.737
462.8	7.574
463.0	7.668
463.2	7.879
463.4	8.122
463.6	8.480
463.8	8.717
464.0	8.710
464.2	9.207
464.4	9.304
464.6	9.354
464.8	9.362
465.0	9.268
465.2	9.260
465.4	9.407
465.6	9.833
465.8	10.57
466.0	11.24
466.2	11.60
466.4	11.86
466.6	11.52
466.8	11.59
467.0	11.42
467.2	11.82
467.4	12.28
467.6	12.77
467.8	13.40
468.0	13.60
468.2	13.39
468.4	13.74
468.6	13.85
468.8	13.90
469.0	14.50
469.2	14.96
469.4	15.61
469.6	16.19
469.8	16.78
470.0	16.88
470.2	17.35
470.4	17.95
470.6	18.41
470.8	18.60
471.0	19.25
471.2	19.79
471.4	20.19
471.6	21.19
471.8	21.55
472.0	21.89
472.2	22.40
472.4	22.80
472.6	23.07
472.8	24.56
473.0	25.42
473.2	26.03
473.4	26.97
473.6	27.06
473.8	28.00
474.0	29.01
474.2	30.27
474.4	30.84
474.6	31.74
474.8	32.55
475.0	33.58
475.2	34.49
475.4	35.47
475.6	36.57
475.8	37.66
476.0	38.63
476.2	39.36
476.4	40.61
476.6	41.04
476.8	42.40
477.0	44.06
477.2	45.34
477.4	47.25
477.6	48.17
477.8	49.44
478.0	50.90
478.2	52.67
478.4	55.28
478.6	56.91
478.8	57.80
479.0	57.98
479.2	59.32
479.4	60.49
479.6	62.90
479.8	64.19
480.0	65.55
480.2	66.38
480.4	68.71
480.6	71.27
480.8	74.68
481.0	77.21
481.2	78.82
481.4	81.57
481.6	82.64
481.8	84.67
482.0	87.81
482.2	91.12
482.4	94.13
482.6	97.17
482.8	98.00
483.0	100.1
483.2	103.2
483.4	106.3
483.6	109.5
483.8	111.9
484.0	114.4
484.2	117.4
484.4	121.6
484.6	124.2
484.8	127.6
485.0	130.4
485.2	134.1
485.4	137.3
485.6	141.6
485.8	146.3
486.0	149.9
486.2	152.5
486.4	156.6
486.6	159.9
486.8	163.4
487.0	168.4
487.2	172.5
487.4	177.9
487.6	184.2
487.8	188.7
488.0	193.6
488.2	197.6
488.4	201.8
488.6	206.6
488.8	211.1
489.0	215.1
489.2	221.1
489.4	227.4
489.6	233.0
489.8	238.6
490.0	244.8
490.2	250.4
490.4	256.4
490.6	262.8
490.8	266.7
491.0	271.7
491.2	276.5
491.4	284.3
491.6	293.4
491.8	302.5
492.0	309.4
492.2	317.2
492.4	323.3
492.6	330.0
492.8	336.8
493.0	344.8
493.2	350.4
493.4	357.7
493.6	366.7
493.8	375.6
494.0	383.6
494.2	391.2
494.4	398.3
494.6	404.9
494.8	413.5
495.0	425.8
495.2	437.6
495.4	449.6
495.6	459.8
495.8	467.6
496.0	474.5
496.2	482.3
496.4	492.8
496.6	508.1
496.8	517.4
497.0	527.0
497.2	535.1
497.4	546.4
497.6	555.6
497.8	567.8
498.0	578.0
498.2	589.2
498.4	599.0
498.6	610.4
498.8	616.9
499.0	626.2
499.2	641.1
499.4	657.7
499.6	673.7
499.8	684.7
500.0	695.3
500.2	709.3
500.4	724.4
500.6	739.1
500.8	752.9
501.0	760.7
501.2	772.9
501.4	789.7
501.6	805.8
501.8	821.9
502.0	835.0
502.2	844.3
502.4	856.2
502.6	868.9
502.8	884.3
503.0	899.9
503.2	911.7
503.4	927.9
503.6	940.9
503.8	958.6
504.0	975.2
504.2	993.3
504.4	1007
504.6	1024
504.8	1039
505.0	1059
505.2	1076
505.4	1092
505.6	1102
505.8	1117
506.0	1133
506.2	1154
506.4	1172
506.6	1187
506.8	1204
507.0	1221
507.2	1233
507.4	1250
507.6	1266
507.8	1285
508.0	1310
508.2	1328
508.4	1339
508.6	1355
508.8	1371
509.0	1389
509.2	1411
509.4	1429
509.6	1445
509.8	1472
510.0	1495
510.2	1519
510.4	1544
510.6	1559
510.8	1568
511.0	1585
511.2	1599
511.4	1623
511.6	1648
511.8	1663
512.0	1683
512.2	1703
512.4	1722
512.6	1746
512.8	1764
513.0	1778
513.2	1796
513.4	1819
513.6	1840
513.8	1865
514.0	1890
514.2	1911
514.4	1927
514.6	1946
514.8	1963
515.0	1990
515.2	2014
515.4	2039
515.6	2056
515.8	2072
516.0	2085
516.2	2103
516.4	2124
516.6	2144
516.8	2161
517.0	2178
517.2	2199
517.4	2223
517.6	2251
517.8	2270
518.0	2291
518.2	2304
518.4	2326
518.6	2343
518.8	2359
519.0	2375
519.2	2401
519.4	2421
519.6	2447
519.8	2472
520.0	2498
520.2	2515
520.4	2538
520.6	2556
520.8	2575
521.0	2600
521.2	2622
521.4	2636
521.6	2649
521.8	2663
522.0	2677
522.2	2698
522.4	2715
522.6	2742
522.8	2760
523.0	2785
523.2	2806
523.4	2828
523.6	2843
523.8	2862
524.0	2876
524.2	2894
524.4	2914
524.6	2937
524.8	2951
525.0	2969
525.2	2992
525.4	3012
525.6	3037
525.8	3052
526.0	3066
526.2	3078
526.4	3089
526.6	3106
526.8	3122
527.0	3144
527.2	3161
527.4	3175
527.6	3185
527.8	3202
528.0	3217
528.2	3245
528.4	3254
528.6	3263
528.8	3272
529.0	3292
529.2	3306
529.4	3328
529.6	3348
529.8	3368
530.0	3386
530.2	3406
530.4	3413
530.6	3425
530.8	3441
531.0	3459
531.2	3471
531.4	3484
531.6	3492
531.8	3513
532.0	3531
532.2	3546
532.4	3554
532.6	3564
532.8	3578
533.0	3593
533.2	3612
533.4	3624
533.6	3629
533.8	3644
534.0	3661
534.2	3668
534.4	3683
534.6	3696
534.8	3713
535.0	3728
535.2	3738
535.4	3738
535.6	3745
535.8	3752
536.0	3777
536.2	3797
536.4	3805
536.6	3812
536.8	3826
537.0	3830
537.2	3840
537.4	3848
537.6	3857
537.8	3864
538.0	3868
538.2	3874
538.4	3877
538.6	3894
538.8	3915
539.0	3921
539.2	3918
539.4	3914
539.6	3915
539.8	3924
540.0	3933
540.2	3944
540.4	3954
540.6	3967
540.8	3978
541.0	3985
541.2	3997
541.4	4005
541.6	4005
541.8	4001
542.0	4004
542.2	4006
542.4	4016
542.6	4027
542.8	4036
543.0	4050
543.2	4065
543.4	4063
543.6	4057
543.8	4048
544.0	4043
544.2	4054
544.4	4059
544.6	4059
544.8	4064
545.0	4069
545.2	4075
545.4	4083
545.6	4087
545.8	4089
546.0	4089
546.2	4082
546.4	4076
546.6	4078
546.8	4083
547.0	4090
547.2	4087
547.4	4083
547.6	4085
547.8	4096
548.0	4101
548.2	4097
548.4	4095
548.6	4094
548.8	4102
549.0	4110
549.2	4110
549.4	4101
549.6	4106
549.8	4099
550.0	4098
550.2	4096
550.4	4090
550.6	4090
550.8	4098
551.0	4101
551.2	4111
551.4	4106
551.6	4103
551.8	4096
552.0	4095
552.2	4085
552.4	4083
552.6	4076
552.8	4074
553.0	4068
553.2	4081
553.4	4075
553.6	4080
553.8	4079
554.0	4071
554.2	4062
554.4	4064
554.6	4055
554.8	4055
555.0	4047
555.2	4042
555.4	4029
555.6	4028
555.8	4021
556.0	4015
556.2	4020
556.4	4021
556.6	4011
556.8	4011
557.0	4000
557.2	3989
557.4	3989
557.6	3992
557.8	3994
558.0	3985
558.2	3972
558.4	3954
558.6	3942
558.8	3944
559.0	3947
559.2	3940
559.4	3934
559.6	3925
559.8	3919
560.0	3922
560.2	3922
560.4	3910
560.6	3902
560.8	3895
561.0	3889
561.2	3881
561.4	3870
561.6	3855
561.8	3854
562.0	3851
562.2	3850
562.4	3846
562.6	3838
562.8	3833
563.0	3833
563.2	3823
563.4	3812
563.6	3806
563.8	3794
564.0	3785
564.2	3774
564.4	3764
564.6	3754
564.8	3755
565.0	3749
565.2	3748
565.4	3741
565.6	3734
565.8	3721
566.0	3713
566.2	3703
566.4	3697
566.6	3683
566.8	3661
567.0	3646
567.2	3636
567.4	3641
567.6	3644
567.8	3646
568.0	3629
568.2	3619
568.4	3607
568.6	3604
568.8	3591
569.0	3584
569.2	3569
569.4	3561
569.6	3543
569.8	3534
570.0	3524
570.2	3518
570.4	3520
570.6	3518
570.8	3510
571.0	3495
571.2	3481
571.4	3462
571.6	3451
571.8	3444
572.0	3441
572.2	3429
572.4	3423
572.6	3409
572.8	3400
573.0	3391
573.2	3383
573.4	3373
573.6	3362
573.8	3348
574.0	3339
574.2	3327
574.4	3318
574.6	3314
574.8	3313
575.0	3301
575.2	3287
575.4	3270
575.6	3255
575.8	3247
576.0	3246
576.2	3233
576.4	3220
576.6	3210
576.8	3203
577.0	3190
577.2	3188
577.4	3178
577.6	3166
577.8	3161
578.0	3155
578.2	3140
578.4	3133
578.6	3118
578.8	3101
579.0	3090
579.2	3084
579.4	3079
579.6	3072
579.8	3063
580.0	3046
580.2	3028
580.4	3017
580.6	3005
580.8	3003
581.0	3004
581.2	2991
581.4	2982
581.6	2973
581.8	2955
582.0	2946
582.2	2938
582.4	2921
582.6	2913
582.8	2912
583.0	2899
583.2	2887
583.4	2885
583.6	2872
583.8	2860
584.0	2853
584.2	2840
584.4	2826
584.6	2813
584.8	2800
585.0	2789
585.2	2783
585.4	2777
585.6	2766
585.8	2754
586.0	2744
586.2	2737
586.4	2725
586.6	2720
586.8	2708
587.0	2699
587.2	2685
587.4	2676
587.6	2661
587.8	2653
588.0	2639
588.2	2629
588.4	2616
588.6	2606
588.8	2599
589.0	2594
589.2	2586
589.4	2575
589.6	2561
589.8	2547
590.0	2539
590.2	2530
590.4	2521
590.6	2513
590.8	2504
591.0	2492
591.2	2481
591.4	2462
591.6	2453
591.8	2448
592.0	2443
592.2	2438
592.4	2429
592.6	2416
592.8	2408
593.0	2402
593.2	2390
593.4	2376
593.6	2366
593.8	2358
594.0	2353
594.2	2343
594.4	2332
594.6	2319
594.8	2311
595.0	2303
595.2	2298
595.4	2284
595.6	2277
595.8	2269
596.0	2263
596.2	2251
596.4	2237
596.6	2225
596.8	2217
597.0	2212
597.2	2210
597.4	2198
597.6	2185
597.8	2175
598.0	2166
598.2	2156
598.4	2149
598.6	2136
598.8	2128
599.0	2126
599.2	2121
599.4	2110
599.6	2100
599.8	2090
600.0	2086
600.2	2082
600.4	2072
600.6	2058
600.8	2043
601.0	2028
601.2	2020
601.4	2010
601.6	2004
601.8	1994
602.0	1987
602.2	1980
602.4	1970
602.6	1960
602.8	1947
603.0	1939
603.2	1932
603.4	1928
603.6	1920
603.8	1913
604.0	1901
604.2	1899
604.4	1889
604.6	1877
604.8	1869
605.0	1857
605.2	1842
605.4	1837
605.6	1829
605.8	1820
606.0	1816
606.2	1810
606.4	1799
606.6	1791
606.8	1779
607.0	1767
607.2	1759
607.4	1752
607.6	1748
607.8	1736
608.0	1728
608.2	1720
608.4	1715
608.6	1708
608.8	1707
609.0	1691
609.2	1681
609.4	1669
609.6	1664
609.8	1655
610.0	1650
610.2	1640
610.4	1636
610.6	1625
610.8	1619
611.0	1611
611.2	1602
611.4	1592
611.6	1585
611.8	1576
612.0	1568
612.2	1560
612.4	1552
612.6	1546
612.8	1540
613.0	1533
613.2	1523
613.4	1510
613.6	1499
613.8	1491
614.0	1489
614.2	1483
614.4	1478
614.6	1470
614.8	1462
615.0	1456
615.2	1451
615.4	1441
615.6	1431
615.8	1421
616.0	1412
616.2	1405
616.4	1398
616.6	1390
616.8	1384
617.0	1380
617.2	1372
617.4	1362
617.6	1355
617.8	1349
618.0	1343
618.2	1340
618.4	1327
618.6	1320
618.8	1310
619.0	1303
619.2	1293
619.4	1289
619.6	1278
619.8	1271
620.0	1262
620.2	1258
620.4	1252
620.6	1247
620.8	1244
621.0	1238
621.2	1233
621.4	1230
621.6	1221
621.8	1213
622.0	1207
622.2	1200
622.4	1194
622.6	1185
622.8	1175
623.0	1166
623.2	1159
623.4	1157
623.6	1151
623.8	1143
624.0	1136
624.2	1128
624.4	1121
624.6	1117
624.8	1112
625.0	1104
625.2	1096
625.4	1093
625.6	1088
625.8	1084
626.0	1081
626.2	1071
626.4	1062
626.6	1056
626.8	1051
627.0	1049
627.2	1044
627.4	1034
627.6	1024
627.8	1014
628.0	1013
628.2	1011
628.4	1007
628.6	1004
628.8	997.6
629.0	988.5
629.2	985.1
629.4	978.5
629.6	972.6
629.8	966.7
630.0	957.4
630.2	948.4
630.4	945.3
630.6	940.0
630.8	936.7
631.0	930.4
631.2	923.0
631.4	918.1
631.6	916.4
631.8	909.5
632.0	900.7
632.2	895.4
632.4	891.1
632.6	885.3
632.8	880.7
633.0	874.5
633.2	867.9
633.4	866.8
633.6	863.5
633.8	856.8
634.0	851.3
634.2	847.0
634.4	843.8
634.6	839.7
634.8	832.1
635.0	825.1
635.2	818.6
635.4	814.5
635.6	812.3
635.8	807.5
636.0	803.0
636.2	797.1
636.4	794.0
636.6	790.2
636.8	786.3
637.0	778.3
637.2	771.9
637.4	765.3
637.6	764.3
637.8	760.8
638.0	755.1
638.2	747.5
638.4	740.9
638.6	734.7
638.8	734.0
639.0	733.0
639.2	728.7
639.4	724.1
639.6	722.1
639.8	720.3
640.0	718.9
640.2	714.2
640.4	703.8
640.6	694.7
640.8	689.2
641.0	685.4
641.2	683.2
641.4	680.8
641.6	675.8
641.8	672.1
642.0	667.0
642.2	662.4
642.4	660.2
642.6	655.7
642.8	650.3
643.0	643.9
643.2	641.8
643.4	639.3
643.6	637.1
643.8	632.8
644.0	627.4
644.2	622.0
644.4	617.5
644.6	612.0
644.8	609.5
645.0	607.7
645.2	606.6
645.4	604.4
645.6	598.0
645.8	592.3
646.0	588.5
646.2	583.3
646.4	581.0
646.6	582.0
646.8	580.1
647.0	575.7
647.2	573.1
647.4	564.3
647.6	558.8
647.8	556.6
648.0	549.8
648.2	546.6
648.4	543.6
648.6	541.3
648.8	540.6
649.0	535.7
649.2	531.4
649.4	526.9
649.6	520.8
649.8	518.6
650.0	518.0
650.2	514.5
650.4	513.4
650.6	510.2
650.8	508.2
651.0	504.9
651.2	500.6
651.4	495.8
651.6	491.5
651.8	487.9
652.0	488.0
652.2	486.1
652.4	482.6
652.6	481.1
652.8	480.4
653.0	477.6
653.2	475.0
653.4	468.2
653.6	461.1
653.8	456.2
654.0	452.0
654.2	450.0
654.4	451.1
654.6	449.3
654.8	449.1
655.0	449.0
655.2	441.1
655.4	434.8
655.6	430.7
655.8	424.3
656.0	424.1
656.2	426.4
656.4	423.5
656.6	422.2
656.8	419.4
657.0	413.6
657.2	408.1
657.4	406.0
657.6	403.9
657.8	403.1
658.0	401.6
658.2	398.5
658.4	395.0
658.6	392.9
658.8	388.9
659.0	385.1
659.2	382.4
659.4	380.6
659.6	381.8
659.8	380.1
660.0	375.2
660.2	372.8
660.4	369.5
660.6	365.4
660.8	363.1
661.0	361.0
661.2	356.9
661.4	357.6
661.6	356.2
661.8	352.5
662.0	349.6
662.2	349.6
662.4	348.0
662.6	347.5
662.8	345.2
663.0	339.9
663.2	336.5
663.4	334.3
663.6	332.3
663.8	331.0
664.0	330.2
664.2	327.7
664.4	326.1
664.6	322.0
664.8	318.6
665.0	317.0
665.2	315.2
665.4	314.2
665.6	314.1
665.8	312.0
666.0	308.8
666.2	303.9
666.4	299.5
666.6	297.8
666.8	299.4
667.0	299.8
667.2	297.9
667.4	293.8
667.6	290.8
667.8	287.9
668.0	287.2
668.2	286.2
668.4	285.1
668.6	282.6
668.8	280.4
669.0	276.9
669.2	274.2
669.4	272.1
669.6	269.9
669.8	267.8
670.0	266.8
670.2	265.8
670.4	265.5
670.6	265.0
670.8	264.3
671.0	261.7
671.2	258.9
671.4	255.2
671.6	252.9
671.8	251.7
672.0	251.9
672.2	250.3
672.4	250.8
672.6	246.3
672.8	243.6
673.0	241.4
673.2	240.1
673.4	238.4
673.6	238.1
673.8	234.1
674.0	231.9
674.2	229.6
674.4	228.5
674.6	228.2
674.8	227.2
675.0	225.3
675.2	222.1
675.4	220.1
675.6	218.3
675.8	216.4
676.0	215.8
676.2	217.1
676.4	215.2
676.6	216.5
676.8	215.3
677.0	212.5
677.2	210.8
677.4	208.8
677.6	205.8
677.8	204.0
678.0	201.7
678.2	201.3
678.4	200.0
678.6	198.3
678.8	198.4
679.0	196.7
679.2	195.0
679.4	194.3
679.6	191.7
679.8	190.1
680.0	189.6
680.2	188.2
680.4	186.1
680.6	184.2
680.8	182.1
681.0	180.7
681.2	180.2
681.4	180.2
681.6	178.0
681.8	176.7
682.0	176.2
682.2	174.7
682.4	173.6
682.6	172.8
682.8	172.0
683.0	169.9
683.2	169.7
683.4	169.1
683.6	166.9
683.8	164.8
684.0	164.2
684.2	161.0
684.4	160.6
684.6	160.7
684.8	160.5
685.0	160.0
685.2	158.1
685.4	155.5
685.6	152.7
685.8	150.6
686.0	150.9
686.2	150.3
686.4	148.9
686.6	149.6
686.8	150.5
687.0	150.7
687.2	150.1
687.4	147.1
687.6	143.3
687.8	140.9
688.0	140.8
688.2	140.5
688.4	140.4
688.6	139.9
688.8	139.6
689.0	139.6
689.2	139.5
689.4	137.4
689.6	135.6
689.8	134.7
690.0	134.6
690.2	135.2
690.4	134.2
690.6	131.5
690.8	129.1
691.0	129.7
691.2	128.7
691.4	127.7
691.6	126.0
691.8	124.6
692.0	123.2
692.2	124.2
692.4	122.6
692.6	122.1
692.8	121.4
693.0	120.2
693.2	119.2
693.4	118.8
693.6	117.4
693.8	116.9
694.0	116.5
694.2	116.2
694.4	116.5
694.6	115.9
694.8	114.9
695.0	113.5
695.2	113.2
695.4	112.2
695.6	110.5
695.8	109.2
696.0	108.2
696.2	107.9
696.4	108.8
696.6	108.3
696.8	106.6
697.0	106.4
697.2	107.1
697.4	107.4
697.6	106.9
697.8	105.2
698.0	103.3
698.2	102.3
698.4	103.0
698.6	103.2
698.8	102.2
699.0	101.9
699.2	101.5
699.4	99.79
699.6	98.58
699.8	98.37
700.0	96.74
700.2	96.31
700.4	95.41
700.6	93.52
700.8	93.50
701.0	95.75
701.2	96.14
701.4	95.89
701.6	94.11
701.8	92.87
702.0	91.50
702.2	90.75
702.4	90.18
702.6	90.26
702.8	89.59
703.0	90.50
703.2	90.98
703.4	89.95
703.6	88.96
703.8	87.82
704.0	85.69
704.2	85.50
704.4	86.27
704.6	86.82
704.8	86.89
705.0	84.92
705.2	82.88
705.4	82.38
705.6	82.01
705.8	82.24
706.0	81.38
706.2	80.30
706.4	80.60
706.6	80.39
706.8	80.55
707.0	80.13
707.2	78.74
707.4	78.50
707.6	77.48
707.8	75.49
708.0	74.95
708.2	75.23
708.4	74.78
708.6	75.20
708.8	74.75
709.0	73.86
709.2	73.22
709.4	73.68
709.6	73.45
709.8	73.60
710.0	72.63
710.2	71.84
710.4	70.90
710.6	70.21
710.8	70.22
711.0	70.30
711.2	69.52
711.4	69.28
711.6	68.58
711.8	66.58
712.0	66.76
712.2	67.00
712.4	67.91
712.6	67.59
712.8	66.37
713.0	63.87
713.2	63.46
713.4	63.03
713.6	63.82
713.8	63.54
714.0	63.45
714.2	62.55
714.4	62.27
714.6	61.38
714.8	60.86
715.0	59.71
715.2	59.61
715.4	59.33
715.6	59.64
715.8	58.54
716.0	57.98
716.2	57.41
716.4	57.36
716.6	57.31
716.8	57.78
717.0	57.05
717.2	56.75
717.4	56.43
717.6	55.25
717.8	54.78
718.0	54.30
718.2	53.69
718.4	53.63
718.6	54.10
718.8	53.61
719.0	53.75
719.2	53.13
719.4	52.00
719.6	51.80
719.8	52.02
720.0	50.97
720.2	50.60
720.4	49.95
