Sample:	'20211010A(EM)
File name:	G-NI 1.FDS
Run date:	'19:09:30, 06/19/2023
Operator:	Administrator
Comment:	'

Instrument
Model:	F-4700 FL Spectrophotometer
Serial number:	2019-001
ROM Version:	5J24010 00

Instrument parameters
Measurement type:	Wavelength scan
Scan mode:	Emission
Data mode:	Fluorescence
EX WL:	400.0 nm
EM  Start WL:	420.0 nm
EM  End WL:	800.0 nm
Scan speed:	1200 nm/min
Delay:	0.0 s
EX Slit:	10.0 nm
EM Slit:	10.0 nm
PMT Voltage:	500 V
Response:	0.002 s
Corrected spectra:	Off
Shutter control:	On

Processing performed
Savitsky-Golay smoothed
Smoothing order:	3
Number of points:	7
Number of times:	1

Peak integration
Integration method:	Rectangular
Sensitivity:	1
Threshold:	1.000

Peaks
No.	Start(nm)	Apex(nm)	End(nm)	Height(Data)	Valley(nm)	Valley(Data)
1	420.0	536.0	536.8	1661	536.8	1650
2	536.8	538.8	703.4	1671	703.4	33.38
3	703.4	704.2	706.2	34.52	706.2	30.43
4	706.2	707.2	713.8	31.48	713.8	24.92
5	713.8	714.4	745.4	26.22	745.4	8.118
6	745.4	746.4	766.2	9.695	766.2	4.081
7	766.2	767.0	800.0	5.104	800.0	3.216

Data points
nm	Data
420.0	1.286
420.2	1.355
420.4	1.269
420.6	1.117
420.8	1.057
421.0	1.010
421.2	1.056
421.4	1.116
421.6	1.222
421.8	1.223
422.0	1.328
422.2	1.237
422.4	1.051
422.6	0.942
422.8	0.934
423.0	0.942
423.2	1.330
423.4	1.447
423.6	1.390
423.8	1.287
424.0	1.245
424.2	1.098
424.4	1.371
424.6	1.331
424.8	1.225
425.0	1.112
425.2	0.984
425.4	1.000
425.6	1.194
425.8	1.248
426.0	1.324
426.2	1.286
426.4	1.217
426.6	1.284
426.8	1.160
427.0	1.038
427.2	0.947
427.4	0.845
427.6	0.907
427.8	1.117
428.0	1.122
428.2	1.158
428.4	1.214
428.6	1.452
428.8	1.499
429.0	1.382
429.2	1.195
429.4	0.895
429.6	0.825
429.8	1.144
430.0	1.412
430.2	1.543
430.4	1.689
430.6	1.465
430.8	1.280
431.0	1.190
431.2	1.128
431.4	1.155
431.6	1.332
431.8	1.296
432.0	1.238
432.2	1.241
432.4	1.207
432.6	1.122
432.8	1.158
433.0	1.019
433.2	0.943
433.4	0.994
433.6	1.139
433.8	1.228
434.0	1.292
434.2	1.189
434.4	1.130
434.6	0.995
434.8	1.085
435.0	1.173
435.2	1.107
435.4	1.222
435.6	1.287
435.8	1.212
436.0	1.156
436.2	1.061
436.4	1.122
436.6	1.375
436.8	1.675
437.0	1.772
437.2	1.638
437.4	1.420
437.6	1.357
437.8	1.229
438.0	1.238
438.2	1.241
438.4	1.251
438.6	1.224
438.8	1.267
439.0	1.302
439.2	1.313
439.4	1.223
439.6	1.187
439.8	1.197
440.0	1.316
440.2	1.438
440.4	1.369
440.6	1.177
440.8	1.115
441.0	1.109
441.2	1.229
441.4	1.349
441.6	1.380
441.8	1.229
442.0	1.270
442.2	1.229
442.4	1.179
442.6	1.139
442.8	1.177
443.0	1.031
443.2	1.227
443.4	1.211
443.6	1.218
443.8	1.128
444.0	1.188
444.2	1.270
444.4	1.365
444.6	1.396
444.8	1.358
445.0	1.223
445.2	1.202
445.4	1.363
445.6	1.415
445.8	1.468
446.0	1.430
446.2	1.363
446.4	1.222
446.6	1.167
446.8	1.212
447.0	1.233
447.2	1.321
447.4	1.339
447.6	1.313
447.8	1.287
448.0	1.342
448.2	1.397
448.4	1.325
448.6	1.280
448.8	1.276
449.0	1.352
449.2	1.386
449.4	1.418
449.6	1.285
449.8	1.211
450.0	1.253
450.2	1.255
450.4	1.270
450.6	1.245
450.8	1.186
451.0	1.100
451.2	1.167
451.4	1.303
451.6	1.330
451.8	1.334
452.0	1.339
452.2	1.283
452.4	1.233
452.6	1.428
452.8	1.410
453.0	1.418
453.2	1.469
453.4	1.468
453.6	1.558
453.8	1.646
454.0	1.645
454.2	1.571
454.4	1.616
454.6	1.560
454.8	1.719
455.0	1.637
455.2	1.635
455.4	1.462
455.6	1.451
455.8	1.369
456.0	1.427
456.2	1.382
456.4	1.433
456.6	1.403
456.8	1.444
457.0	1.433
457.2	1.346
457.4	1.423
457.6	1.495
457.8	1.477
458.0	1.581
458.2	1.643
458.4	1.554
458.6	1.574
458.8	1.585
459.0	1.385
459.2	1.350
459.4	1.339
459.6	1.408
459.8	1.493
460.0	1.688
460.2	1.706
460.4	1.610
460.6	1.520
460.8	1.551
461.0	1.502
461.2	1.630
461.4	1.652
461.6	1.678
461.8	1.766
462.0	1.807
462.2	1.781
462.4	1.884
462.6	1.757
462.8	1.757
463.0	1.804
463.2	1.954
463.4	2.067
463.6	2.178
463.8	2.058
464.0	1.855
464.2	1.715
464.4	1.879
464.6	1.933
464.8	2.178
465.0	2.396
465.2	2.305
465.4	2.462
465.6	2.565
465.8	2.419
466.0	2.437
466.2	2.462
466.4	2.391
466.6	2.563
466.8	2.669
467.0	2.739
467.2	2.735
467.4	2.829
467.6	2.828
467.8	2.903
468.0	3.099
468.2	3.251
468.4	3.466
468.6	3.461
468.8	3.437
469.0	3.484
469.2	3.609
469.4	3.923
469.6	4.310
469.8	4.260
470.0	4.411
470.2	4.422
470.4	4.274
470.6	4.455
470.8	4.402
471.0	4.615
471.2	4.901
471.4	5.230
471.6	5.526
471.8	5.553
472.0	5.419
472.2	5.530
472.4	5.579
472.6	5.790
472.8	6.244
473.0	6.450
473.2	6.651
473.4	6.883
473.6	7.128
473.8	7.288
474.0	7.145
474.2	7.498
474.4	7.618
474.6	7.786
474.8	8.634
475.0	9.205
475.2	9.494
475.4	9.781
475.6	9.998
475.8	10.32
476.0	11.13
476.2	11.29
476.4	11.43
476.6	11.54
476.8	12.17
477.0	13.40
477.2	13.83
477.4	14.04
477.6	14.06
477.8	15.00
478.0	15.56
478.2	16.50
478.4	16.87
478.6	17.33
478.8	17.58
479.0	18.35
479.2	18.63
479.4	19.26
479.6	20.07
479.8	20.30
480.0	20.90
480.2	21.44
480.4	22.96
480.6	24.78
480.8	26.19
481.0	26.57
481.2	26.88
481.4	26.71
481.6	27.52
481.8	28.52
482.0	29.73
482.2	31.37
482.4	32.94
482.6	34.05
482.8	35.39
483.0	36.07
483.2	37.33
483.4	38.61
483.6	39.80
483.8	40.38
484.0	41.43
484.2	42.37
484.4	44.84
484.6	46.56
484.8	48.66
485.0	50.20
485.2	52.47
485.4	53.63
485.6	55.38
485.8	56.01
486.0	57.62
486.2	59.57
486.4	62.07
486.6	64.76
486.8	67.13
487.0	69.16
487.2	71.71
487.4	73.32
487.6	74.82
487.8	78.21
488.0	80.78
488.2	84.29
488.4	88.51
488.6	90.35
488.8	91.90
489.0	94.37
489.2	96.85
489.4	99.49
489.6	103.2
489.8	105.2
490.0	108.4
490.2	113.0
490.4	116.8
490.6	118.9
490.8	122.1
491.0	125.6
491.2	132.0
491.4	137.1
491.6	139.9
491.8	142.8
492.0	144.8
492.2	147.4
492.4	153.5
492.6	159.1
492.8	164.0
493.0	169.7
493.2	173.3
493.4	176.1
493.6	180.4
493.8	184.5
494.0	188.3
494.2	194.3
494.4	200.8
494.6	207.4
494.8	212.2
495.0	216.4
495.2	219.7
495.4	223.9
495.6	228.9
495.8	236.2
496.0	241.7
496.2	250.7
496.4	257.4
496.6	263.1
496.8	268.4
497.0	273.8
497.2	278.4
497.4	285.5
497.6	292.0
497.8	298.7
498.0	306.7
498.2	314.3
498.4	321.6
498.6	326.4
498.8	332.3
499.0	339.6
499.2	350.4
499.4	361.2
499.6	371.0
499.8	376.7
500.0	383.0
500.2	389.3
500.4	396.8
500.6	403.5
500.8	411.3
501.0	419.6
501.2	427.6
501.4	438.2
501.6	448.7
501.8	457.3
502.0	463.7
502.2	471.5
502.4	479.0
502.6	488.8
502.8	498.4
503.0	504.3
503.2	509.2
503.4	519.3
503.6	528.4
503.8	540.9
504.0	552.3
504.2	561.9
504.4	571.5
504.6	582.1
504.8	590.3
505.0	598.3
505.2	608.6
505.4	621.1
505.6	630.8
505.8	641.6
506.0	654.1
506.2	661.3
506.4	670.1
506.6	681.2
506.8	687.6
507.0	698.4
507.2	709.4
507.4	722.1
507.6	734.0
507.8	746.5
508.0	751.6
508.2	759.2
508.4	764.5
508.6	774.1
508.8	787.9
509.0	800.7
509.2	809.8
509.4	820.6
509.6	829.8
509.8	835.9
510.0	847.6
510.2	863.5
510.4	875.3
510.6	884.1
510.8	893.7
511.0	899.6
511.2	909.3
511.4	923.9
511.6	935.7
511.8	944.8
512.0	953.4
512.2	965.0
512.4	978.7
512.6	987.8
512.8	998.6
513.0	1004
513.2	1007
513.4	1014
513.6	1026
513.8	1035
514.0	1051
514.2	1063
514.4	1072
514.6	1081
514.8	1092
515.0	1099
515.2	1111
515.4	1121
515.6	1133
515.8	1144
516.0	1153
516.2	1161
516.4	1167
516.6	1177
516.8	1190
517.0	1200
517.2	1208
517.4	1213
517.6	1217
517.8	1229
518.0	1241
518.2	1255
518.4	1263
518.6	1265
518.8	1267
519.0	1278
519.2	1286
519.4	1297
519.6	1304
519.8	1311
520.0	1319
520.2	1328
520.4	1334
520.6	1341
520.8	1347
521.0	1355
521.2	1364
521.4	1375
521.6	1385
521.8	1391
522.0	1397
522.2	1403
522.4	1406
522.6	1411
522.8	1415
523.0	1420
523.2	1432
523.4	1442
523.6	1452
523.8	1457
524.0	1460
524.2	1465
524.4	1470
524.6	1472
524.8	1482
525.0	1489
525.2	1492
525.4	1500
525.6	1501
525.8	1505
526.0	1513
526.2	1517
526.4	1517
526.6	1521
526.8	1522
527.0	1529
527.2	1532
527.4	1539
527.6	1544
527.8	1550
528.0	1558
528.2	1562
528.4	1562
528.6	1568
528.8	1573
529.0	1573
529.2	1577
529.4	1579
529.6	1582
529.8	1586
530.0	1590
530.2	1588
530.4	1592
530.6	1599
530.8	1609
531.0	1615
531.2	1619
531.4	1624
531.6	1625
531.8	1626
532.0	1628
532.2	1625
532.4	1624
532.6	1628
532.8	1633
533.0	1631
533.2	1633
533.4	1635
533.6	1636
533.8	1641
534.0	1645
534.2	1646
534.4	1650
534.6	1652
534.8	1655
535.0	1658
535.2	1653
535.4	1651
535.6	1652
535.8	1655
536.0	1661
536.2	1661
536.4	1655
536.6	1651
536.8	1650
537.0	1655
537.2	1661
537.4	1660
537.6	1662
537.8	1660
538.0	1663
538.2	1668
538.4	1668
538.6	1669
538.8	1671
539.0	1666
539.2	1666
539.4	1667
539.6	1659
539.8	1665
540.0	1667
540.2	1664
540.4	1665
540.6	1664
540.8	1660
541.0	1663
541.2	1665
541.4	1665
541.6	1663
541.8	1658
542.0	1658
542.2	1652
542.4	1650
542.6	1651
542.8	1652
543.0	1650
543.2	1650
543.4	1645
543.6	1643
543.8	1641
544.0	1638
544.2	1631
544.4	1630
544.6	1631
544.8	1631
545.0	1633
545.2	1632
545.4	1629
545.6	1631
545.8	1631
546.0	1626
546.2	1621
546.4	1613
546.6	1610
546.8	1609
547.0	1609
547.2	1612
547.4	1610
547.6	1606
547.8	1606
548.0	1607
548.2	1601
548.4	1600
548.6	1600
548.8	1600
549.0	1600
549.2	1598
549.4	1594
549.6	1587
549.8	1584
550.0	1588
550.2	1588
550.4	1586
550.6	1583
550.8	1576
551.0	1574
551.2	1574
551.4	1571
551.6	1566
551.8	1560
552.0	1556
552.2	1551
552.4	1549
552.6	1545
552.8	1545
553.0	1545
553.2	1543
553.4	1538
553.6	1535
553.8	1532
554.0	1530
554.2	1526
554.4	1520
554.6	1517
554.8	1511
555.0	1510
555.2	1511
555.4	1510
555.6	1504
555.8	1502
556.0	1495
556.2	1492
556.4	1490
556.6	1487
556.8	1483
557.0	1484
557.2	1480
557.4	1475
557.6	1472
557.8	1467
558.0	1463
558.2	1463
558.4	1456
558.6	1450
558.8	1451
559.0	1448
559.2	1446
559.4	1447
559.6	1441
559.8	1433
560.0	1429
560.2	1420
560.4	1420
560.6	1423
560.8	1425
561.0	1419
561.2	1416
561.4	1402
561.6	1397
561.8	1394
562.0	1390
562.2	1387
562.4	1385
562.6	1379
562.8	1378
563.0	1381
563.2	1379
563.4	1377
563.6	1373
563.8	1364
564.0	1353
564.2	1351
564.4	1349
564.6	1349
564.8	1347
565.0	1341
565.2	1329
565.4	1325
565.6	1322
565.8	1320
566.0	1319
566.2	1316
566.4	1312
566.6	1308
566.8	1301
567.0	1299
567.2	1297
567.4	1293
567.6	1288
567.8	1284
568.0	1278
568.2	1276
568.4	1274
568.6	1270
568.8	1262
569.0	1256
569.2	1255
569.4	1253
569.6	1250
569.8	1243
570.0	1236
570.2	1232
570.4	1233
570.6	1232
570.8	1228
571.0	1222
571.2	1218
571.4	1216
571.6	1214
571.8	1207
572.0	1198
572.2	1193
572.4	1190
572.6	1191
572.8	1187
573.0	1178
573.2	1169
573.4	1166
573.6	1163
573.8	1164
574.0	1163
574.2	1161
574.4	1156
574.6	1153
574.8	1149
575.0	1145
575.2	1140
575.4	1137
575.6	1134
575.8	1127
576.0	1125
576.2	1119
576.4	1113
576.6	1109
576.8	1107
577.0	1101
577.2	1096
577.4	1091
577.6	1087
577.8	1086
578.0	1083
578.2	1080
578.4	1074
578.6	1071
578.8	1068
579.0	1063
579.2	1062
579.4	1053
579.6	1046
579.8	1042
580.0	1041
580.2	1035
580.4	1035
580.6	1029
580.8	1022
581.0	1018
581.2	1016
581.4	1013
581.6	1013
581.8	1010
582.0	1005
582.2	1001
582.4	998.9
582.6	996.4
582.8	991.9
583.0	983.9
583.2	977.4
583.4	972.1
583.6	969.2
583.8	966.6
584.0	964.3
584.2	958.6
584.4	954.4
584.6	947.7
584.8	945.0
585.0	944.1
585.2	943.6
585.4	941.4
585.6	934.7
585.8	927.7
586.0	924.1
586.2	921.3
586.4	921.3
586.6	920.4
586.8	914.0
587.0	909.0
587.2	903.9
587.4	898.0
587.6	894.7
587.8	888.6
588.0	883.2
588.2	879.7
588.4	876.3
588.6	877.0
588.8	876.2
589.0	872.6
589.2	867.0
589.4	861.8
589.6	857.6
589.8	856.0
590.0	852.9
590.2	847.8
590.4	845.3
590.6	841.0
590.8	836.9
591.0	834.4
591.2	829.8
591.4	825.0
591.6	824.7
591.8	821.3
592.0	818.6
592.2	816.9
592.4	811.1
592.6	806.6
592.8	804.2
593.0	799.5
593.2	798.2
593.4	791.5
593.6	784.5
593.8	780.9
594.0	778.9
594.2	774.1
594.4	773.2
594.6	768.9
594.8	766.1
595.0	764.7
595.2	762.7
595.4	759.0
595.6	754.6
595.8	749.6
596.0	744.6
596.2	743.3
596.4	744.1
596.6	742.9
596.8	739.6
597.0	734.5
597.2	730.8
597.4	726.8
597.6	726.1
597.8	719.2
598.0	716.1
598.2	714.2
598.4	712.6
598.6	709.1
598.8	707.7
599.0	701.1
599.2	695.8
599.4	694.3
599.6	691.9
599.8	690.7
600.0	689.1
600.2	683.9
600.4	676.5
600.6	673.5
600.8	673.0
601.0	670.7
601.2	671.6
601.4	666.6
601.6	662.2
601.8	660.2
602.0	659.4
602.2	653.5
602.4	654.1
602.6	648.5
602.8	646.4
603.0	644.3
603.2	643.3
603.4	638.5
603.6	637.0
603.8	631.4
604.0	626.1
604.2	621.7
604.4	620.3
604.6	617.2
604.8	618.1
605.0	615.5
605.2	610.3
605.4	604.4
605.6	599.4
605.8	596.7
606.0	596.4
606.2	595.9
606.4	594.0
606.6	590.5
606.8	586.5
607.0	584.2
607.2	581.5
607.4	583.3
607.6	580.1
607.8	575.7
608.0	569.2
608.2	563.0
608.4	558.9
608.6	561.3
608.8	558.5
609.0	556.7
609.2	554.3
609.4	554.4
609.6	550.0
609.8	550.5
610.0	547.6
610.2	545.7
610.4	543.5
610.6	541.8
610.8	535.7
611.0	530.8
611.2	525.7
611.4	524.4
611.6	521.9
611.8	518.8
612.0	517.2
612.2	515.0
612.4	511.8
612.6	512.9
612.8	509.5
613.0	505.5
613.2	501.1
613.4	498.6
613.6	495.4
613.8	495.2
614.0	493.8
614.2	492.3
614.4	491.5
614.6	488.2
614.8	484.1
615.0	480.7
615.2	480.0
615.4	479.7
615.6	478.6
615.8	473.9
616.0	470.3
616.2	467.3
616.4	466.0
616.6	465.6
616.8	461.2
617.0	457.5
617.2	453.4
617.4	452.8
617.6	451.7
617.8	451.0
618.0	446.7
618.2	443.2
618.4	440.4
618.6	443.3
618.8	441.4
619.0	437.5
619.2	432.3
619.4	429.6
619.6	427.9
619.8	427.1
620.0	423.0
620.2	417.4
620.4	416.6
620.6	417.4
620.8	418.2
621.0	416.4
621.2	413.9
621.4	409.9
621.6	406.8
621.8	404.6
622.0	403.9
622.2	400.9
622.4	399.1
622.6	397.1
622.8	392.9
623.0	391.5
623.2	388.3
623.4	384.0
623.6	381.7
623.8	380.6
624.0	379.0
624.2	378.1
624.4	377.0
624.6	373.5
624.8	371.3
625.0	370.5
625.2	367.4
625.4	365.2
625.6	366.4
625.8	363.4
626.0	360.9
626.2	358.2
626.4	356.1
626.6	355.5
626.8	354.8
627.0	352.6
627.2	350.1
627.4	347.2
627.6	346.0
627.8	346.0
628.0	344.4
628.2	343.0
628.4	339.7
628.6	336.8
628.8	332.6
629.0	331.8
629.2	329.7
629.4	328.1
629.6	325.3
629.8	324.6
630.0	321.1
630.2	319.0
630.4	317.3
630.6	317.3
630.8	315.5
631.0	315.8
631.2	314.9
631.4	311.5
631.6	310.5
631.8	307.7
632.0	304.1
632.2	300.0
632.4	298.9
632.6	298.2
632.8	298.6
633.0	297.8
633.2	296.3
633.4	292.0
633.6	291.4
633.8	290.8
634.0	288.3
634.2	286.9
634.4	283.6
634.6	281.1
634.8	281.4
635.0	280.4
635.2	277.7
635.4	276.3
635.6	274.4
635.8	271.5
636.0	269.6
636.2	267.9
636.4	266.6
636.6	266.9
636.8	267.6
637.0	265.3
637.2	264.8
637.4	263.0
637.6	260.5
637.8	259.2
638.0	257.5
638.2	256.0
638.4	255.8
638.6	254.7
638.8	250.9
639.0	250.8
639.2	250.6
639.4	249.7
639.6	247.6
639.8	247.0
640.0	242.6
640.2	242.9
640.4	243.7
640.6	241.1
640.8	237.5
641.0	235.4
641.2	232.3
641.4	231.6
641.6	232.0
641.8	231.1
642.0	231.2
642.2	230.3
642.4	230.0
642.6	229.1
642.8	227.2
643.0	224.5
643.2	224.1
643.4	221.7
643.6	220.2
643.8	220.2
644.0	217.6
644.2	213.7
644.4	210.5
644.6	208.7
644.8	208.3
645.0	209.4
645.2	209.1
645.4	207.6
645.6	205.4
645.8	204.5
646.0	202.9
646.2	202.1
646.4	201.6
646.6	200.7
646.8	199.0
647.0	196.2
647.2	193.9
647.4	192.2
647.6	191.7
647.8	192.2
648.0	192.9
648.2	192.6
648.4	190.8
648.6	186.9
648.8	186.1
649.0	184.1
649.2	183.8
649.4	184.1
649.6	182.3
649.8	180.4
650.0	181.3
650.2	179.7
650.4	178.1
650.6	177.6
650.8	175.1
651.0	172.1
651.2	171.7
651.4	171.3
651.6	170.4
651.8	170.5
652.0	170.1
652.2	169.3
652.4	169.0
652.6	167.8
652.8	166.3
653.0	164.6
653.2	163.5
653.4	162.2
653.6	161.4
653.8	160.0
654.0	159.6
654.2	158.8
654.4	157.6
654.6	155.6
654.8	154.9
655.0	153.9
655.2	153.6
655.4	153.3
655.6	151.5
655.8	150.2
656.0	149.8
656.2	147.8
656.4	147.2
656.6	146.8
656.8	145.0
657.0	145.0
657.2	143.8
657.4	140.7
657.6	139.8
657.8	138.0
658.0	136.8
658.2	136.9
658.4	136.9
658.6	136.8
658.8	137.4
659.0	135.9
659.2	135.5
659.4	134.0
659.6	133.3
659.8	131.8
660.0	130.0
660.2	129.7
660.4	129.6
660.6	129.0
660.8	128.7
661.0	128.2
661.2	127.7
661.4	126.6
661.6	124.5
661.8	123.3
662.0	122.7
662.2	122.3
662.4	122.1
662.6	120.1
662.8	119.1
663.0	119.1
663.2	119.4
663.4	119.6
663.6	119.6
663.8	118.3
664.0	116.0
664.2	114.5
664.4	113.3
664.6	113.1
664.8	113.7
665.0	112.8
665.2	110.7
665.4	109.5
665.6	109.4
665.8	109.7
666.0	110.9
666.2	110.8
666.4	108.8
666.6	107.7
666.8	106.3
667.0	105.3
667.2	104.6
667.4	104.4
667.6	102.8
667.8	103.0
668.0	101.4
668.2	99.84
668.4	97.90
668.6	98.04
668.8	97.92
669.0	98.96
669.2	98.53
669.4	98.30
669.6	97.09
669.8	96.06
670.0	94.99
670.2	94.33
670.4	93.70
670.6	93.86
670.8	93.45
671.0	93.02
671.2	91.67
671.4	90.56
671.6	90.45
671.8	89.49
672.0	88.36
672.2	87.94
672.4	86.16
672.6	86.51
672.8	87.57
673.0	86.90
673.2	86.69
673.4	86.35
673.6	85.40
673.8	84.85
674.0	84.39
674.2	83.09
674.4	82.67
674.6	81.71
674.8	81.58
675.0	80.90
675.2	81.84
675.4	81.88
675.6	81.14
675.8	79.67
676.0	78.58
676.2	77.77
676.4	78.64
676.6	78.86
676.8	78.01
677.0	77.09
677.2	76.72
677.4	76.54
677.6	76.09
677.8	74.84
678.0	73.42
678.2	72.96
678.4	72.85
678.6	73.13
678.8	72.72
679.0	71.18
679.2	70.78
679.4	71.04
679.6	70.30
679.8	70.35
680.0	69.80
680.2	68.27
680.4	67.75
680.6	68.48
680.8	67.65
681.0	67.59
681.2	66.50
681.4	65.32
681.6	64.88
681.8	66.26
682.0	66.13
682.2	65.75
682.4	65.26
682.6	63.80
682.8	62.41
683.0	62.45
683.2	62.67
683.4	62.57
683.6	63.33
683.8	61.94
684.0	60.64
684.2	59.60
684.4	59.12
684.6	58.86
684.8	58.94
685.0	58.98
685.2	59.39
685.4	59.07
685.6	58.52
685.8	57.40
686.0	56.13
686.2	55.55
686.4	56.16
686.6	56.57
686.8	56.43
687.0	55.42
687.2	54.04
687.4	53.27
687.6	53.93
687.8	54.81
688.0	55.11
688.2	54.76
688.4	53.05
688.6	51.41
688.8	50.79
689.0	51.18
689.2	51.78
689.4	51.90
689.6	51.33
689.8	50.81
690.0	49.94
690.2	49.84
690.4	49.97
690.6	49.86
690.8	49.53
691.0	49.44
691.2	48.22
691.4	49.29
691.6	49.34
691.8	49.28
692.0	48.56
692.2	47.32
692.4	46.37
692.6	47.43
692.8	47.05
693.0	47.00
693.2	46.53
693.4	45.47
693.6	44.93
693.8	44.75
694.0	44.07
694.2	44.39
694.4	43.69
694.6	44.56
694.8	44.59
695.0	44.21
695.2	42.99
695.4	42.74
695.6	41.68
695.8	42.61
696.0	42.21
696.2	41.87
696.4	41.22
696.6	40.94
696.8	40.97
697.0	41.80
697.2	41.20
697.4	41.53
697.6	40.56
697.8	39.57
698.0	39.38
698.2	39.02
698.4	38.60
698.6	38.58
698.8	38.21
699.0	38.34
699.2	38.74
699.4	38.35
699.6	38.62
699.8	37.61
700.0	37.41
700.2	36.69
700.4	36.26
700.6	36.02
700.8	36.30
701.0	36.15
701.2	36.16
701.4	35.31
701.6	34.62
701.8	34.99
702.0	34.98
702.2	35.65
702.4	35.80
702.6	35.07
702.8	34.60
703.0	34.42
703.2	33.45
703.4	33.38
703.6	33.68
703.8	33.82
704.0	34.27
704.2	34.52
704.4	34.14
704.6	33.60
704.8	33.84
705.0	33.34
705.2	33.33
705.4	33.25
705.6	32.61
705.8	31.45
706.0	31.30
706.2	30.43
706.4	30.86
706.6	31.32
706.8	31.37
707.0	31.08
707.2	31.48
707.4	31.21
707.6	31.05
707.8	30.58
708.0	29.28
708.2	29.04
708.4	28.63
708.6	29.10
708.8	29.00
709.0	28.86
709.2	28.58
709.4	29.04
709.6	28.87
709.8	29.46
710.0	28.85
710.2	28.73
710.4	28.72
710.6	28.55
710.8	28.47
711.0	28.59
711.2	27.31
711.4	26.71
711.6	26.47
711.8	26.72
712.0	27.19
712.2	27.56
712.4	26.39
712.6	25.48
712.8	25.43
713.0	25.46
713.2	25.94
713.4	25.77
713.6	25.02
713.8	24.92
714.0	25.08
714.2	25.85
714.4	26.22
714.6	25.87
714.8	25.31
715.0	25.04
715.2	23.94
715.4	24.14
715.6	23.94
