Sample:	'20211010A(EM)
File name:	G-NI 2 200.FDS
Run date:	'19:15:33, 06/19/2023
Operator:	Administrator
Comment:	'

Instrument
Model:	F-4700 FL Spectrophotometer
Serial number:	2019-001
ROM Version:	5J24010 00

Instrument parameters
Measurement type:	Wavelength scan
Scan mode:	Emission
Data mode:	Fluorescence
EX WL:	400.0 nm
EM  Start WL:	420.0 nm
EM  End WL:	800.0 nm
Scan speed:	1200 nm/min
Delay:	0.0 s
EX Slit:	10.0 nm
EM Slit:	10.0 nm
PMT Voltage:	500 V
Response:	0.002 s
Corrected spectra:	Off
Shutter control:	On

Processing performed
Savitsky-Golay smoothed
Smoothing order:	3
Number of points:	7
Number of times:	1

Peak integration
Integration method:	Rectangular
Sensitivity:	1
Threshold:	1.000

Peaks
No.	Start(nm)	Apex(nm)	End(nm)	Height(Data)	Valley(nm)	Valley(Data)
1	420.0	547.8	548.8	8433	548.8	8394
2	548.8	549.8	768.4	8426	768.4	17.60
3	768.4	768.8	772.2	19.26	772.2	16.00
4	772.2	773.2	788.6	17.09	788.6	11.08
5	788.6	790.0	793.6	12.25	793.6	10.81
6	793.6	797.2	797.6	12.22	797.6	11.11

Data points
nm	Data
420.0	3.071
420.2	2.705
420.4	2.746
420.6	3.002
420.8	3.145
421.0	3.314
421.2	3.318
421.4	3.521
421.6	3.653
421.8	3.784
422.0	3.638
422.2	3.570
422.4	3.361
422.6	3.334
422.8	3.460
423.0	3.500
423.2	3.520
423.4	3.728
423.6	3.676
423.8	3.416
424.0	3.474
424.2	3.274
424.4	3.134
424.6	3.157
424.8	3.461
425.0	3.516
425.2	3.700
425.4	3.526
425.6	3.417
425.8	3.252
426.0	3.509
426.2	3.564
426.4	3.359
426.6	3.176
426.8	3.180
427.0	3.331
427.2	3.712
427.4	3.809
427.6	3.663
427.8	3.484
428.0	3.265
428.2	3.205
428.4	3.348
428.6	3.393
428.8	3.521
429.0	3.611
429.2	3.379
429.4	3.281
429.6	3.481
429.8	3.778
430.0	3.721
430.2	3.676
430.4	3.560
430.6	3.774
430.8	4.034
431.0	4.038
431.2	3.839
431.4	3.585
431.6	3.458
431.8	3.571
432.0	3.589
432.2	3.466
432.4	3.536
432.6	3.534
432.8	3.611
433.0	3.673
433.2	3.710
433.4	3.544
433.6	3.356
433.8	3.379
434.0	3.411
434.2	3.375
434.4	3.516
434.6	3.495
434.8	3.442
435.0	3.485
435.2	3.584
435.4	3.598
435.6	3.679
435.8	3.749
436.0	3.808
436.2	3.954
436.4	4.073
436.6	4.089
436.8	3.986
437.0	3.769
437.2	3.770
437.4	3.787
437.6	3.682
437.8	3.793
438.0	4.037
438.2	3.989
438.4	3.960
438.6	3.826
438.8	3.909
439.0	4.166
439.2	4.517
439.4	4.558
439.6	4.482
439.8	4.309
440.0	4.361
440.2	4.188
440.4	4.089
440.6	4.100
440.8	4.080
441.0	4.434
441.2	4.624
441.4	4.632
441.6	4.654
441.8	4.609
442.0	4.513
442.2	4.704
442.4	4.858
442.6	4.956
442.8	4.816
443.0	4.746
443.2	4.555
443.4	4.432
443.6	4.464
443.8	4.625
444.0	4.505
444.2	4.613
444.4	4.717
444.6	4.847
444.8	4.874
445.0	4.942
445.2	4.716
445.4	4.720
445.6	4.740
445.8	4.597
446.0	4.802
446.2	4.934
446.4	4.785
446.6	5.066
446.8	4.922
447.0	4.554
447.2	4.749
447.4	4.743
447.6	4.692
447.8	5.115
448.0	5.397
448.2	5.808
448.4	6.097
448.6	5.838
448.8	5.611
449.0	5.380
449.2	5.505
449.4	5.963
449.6	6.136
449.8	6.205
450.0	6.353
450.2	5.995
450.4	5.819
450.6	5.665
450.8	5.818
451.0	6.007
451.2	6.214
451.4	6.365
451.6	6.262
451.8	6.366
452.0	6.464
452.2	6.319
452.4	6.160
452.6	6.554
452.8	6.634
453.0	6.952
453.2	6.964
453.4	6.868
453.6	6.809
453.8	6.856
454.0	6.898
454.2	7.145
454.4	7.530
454.6	7.729
454.8	7.800
455.0	7.753
455.2	7.627
455.4	7.661
455.6	7.782
455.8	7.799
456.0	7.737
456.2	7.767
456.4	8.043
456.6	8.100
456.8	8.280
457.0	8.440
457.2	8.599
457.4	8.723
457.6	9.016
457.8	8.960
458.0	8.925
458.2	8.995
458.4	8.817
458.6	8.803
458.8	9.076
459.0	9.526
459.2	9.878
459.4	10.59
459.6	10.81
459.8	10.89
460.0	10.96
460.2	11.48
460.4	11.72
460.6	12.07
460.8	12.33
461.0	12.13
461.2	12.14
461.4	12.81
461.6	12.87
461.8	13.36
462.0	13.70
462.2	13.67
462.4	13.84
462.6	13.87
462.8	13.75
463.0	14.24
463.2	14.48
463.4	14.68
463.6	15.15
463.8	15.60
464.0	16.28
464.2	16.18
464.4	16.38
464.6	16.87
464.8	17.88
465.0	18.65
465.2	19.10
465.4	19.06
465.6	19.06
465.8	19.61
466.0	20.03
466.2	20.42
466.4	21.09
466.6	21.87
466.8	22.18
467.0	22.69
467.2	22.38
467.4	23.26
467.6	24.01
467.8	24.53
468.0	25.21
468.2	25.77
468.4	26.28
468.6	27.28
468.8	27.66
469.0	27.96
469.2	28.24
469.4	28.46
469.6	29.45
469.8	30.47
470.0	32.12
470.2	33.57
470.4	34.49
470.6	34.68
470.8	35.73
471.0	36.56
471.2	38.73
471.4	40.18
471.6	41.17
471.8	41.66
472.0	42.45
472.2	42.87
472.4	44.83
472.6	46.27
472.8	48.01
473.0	49.42
473.2	50.27
473.4	51.16
473.6	52.19
473.8	54.68
474.0	56.78
474.2	58.20
474.4	59.41
474.6	60.62
474.8	62.33
475.0	65.43
475.2	68.38
475.4	70.59
475.6	72.47
475.8	74.10
476.0	75.74
476.2	77.34
476.4	79.45
476.6	81.64
476.8	85.20
477.0	89.15
477.2	91.73
477.4	94.16
477.6	95.29
477.8	96.33
478.0	98.45
478.2	102.7
478.4	105.4
478.6	109.2
478.8	112.2
479.0	115.0
479.2	118.8
479.4	123.4
479.6	126.6
479.8	130.4
480.0	133.1
480.2	136.6
480.4	141.7
480.6	146.1
480.8	150.8
481.0	155.2
481.2	158.4
481.4	162.7
481.6	167.4
481.8	172.8
482.0	177.6
482.2	184.1
482.4	188.7
482.6	192.6
482.8	196.5
483.0	201.7
483.2	208.1
483.4	215.0
483.6	221.3
483.8	226.3
484.0	231.4
484.2	238.3
484.4	246.8
484.6	255.2
484.8	263.4
485.0	269.3
485.2	274.1
485.4	280.3
485.6	287.9
485.8	297.3
486.0	307.7
486.2	316.3
486.4	323.8
486.6	331.7
486.8	338.0
487.0	345.6
487.2	354.2
487.4	363.4
487.6	371.6
487.8	382.3
488.0	388.9
488.2	401.2
488.4	411.7
488.6	425.6
488.8	437.7
489.0	448.5
489.2	456.6
489.4	468.9
489.6	481.0
489.8	496.4
490.0	506.5
490.2	515.8
490.4	527.0
490.6	541.4
490.8	554.8
491.0	568.9
491.2	581.6
491.4	596.2
491.6	611.5
491.8	627.2
492.0	638.3
492.2	652.0
492.4	669.8
492.6	685.7
492.8	700.2
493.0	713.8
493.2	727.4
493.4	742.8
493.6	763.5
493.8	784.3
494.0	802.2
494.2	822.4
494.4	840.0
494.6	856.9
494.8	874.2
495.0	892.9
495.2	912.2
495.4	936.6
495.6	956.0
495.8	975.6
496.0	994.8
496.2	1011
496.4	1029
496.6	1052
496.8	1072
497.0	1092
497.2	1116
497.4	1137
497.6	1155
497.8	1179
498.0	1205
498.2	1231
498.4	1256
498.6	1280
498.8	1303
499.0	1328
499.2	1356
499.4	1384
499.6	1406
499.8	1428
500.0	1458
500.2	1484
500.4	1512
500.6	1543
500.8	1569
501.0	1599
501.2	1630
501.4	1657
501.6	1682
501.8	1711
502.0	1741
502.2	1770
502.4	1803
502.6	1832
502.8	1861
503.0	1892
503.2	1925
503.4	1959
503.6	1995
503.8	2024
504.0	2052
504.2	2089
504.4	2120
504.6	2156
504.8	2190
505.0	2221
505.2	2248
505.4	2291
505.6	2324
505.8	2362
506.0	2394
506.2	2432
506.4	2462
506.6	2508
506.8	2543
507.0	2582
507.2	2609
507.4	2644
507.6	2673
507.8	2720
508.0	2754
508.2	2797
508.4	2836
508.6	2877
508.8	2914
509.0	2957
509.2	2991
509.4	3027
509.6	3063
509.8	3108
510.0	3153
510.2	3196
510.4	3240
510.6	3278
510.8	3314
511.0	3355
511.2	3394
511.4	3432
511.6	3466
511.8	3508
512.0	3543
512.2	3587
512.4	3626
512.6	3668
512.8	3697
513.0	3733
513.2	3772
513.4	3819
513.6	3861
513.8	3909
514.0	3958
514.2	4000
514.4	4045
514.6	4081
514.8	4116
515.0	4165
515.2	4212
515.4	4254
515.6	4299
515.8	4329
516.0	4368
516.2	4419
516.4	4456
516.6	4504
516.8	4546
517.0	4577
517.2	4616
517.4	4665
517.6	4717
517.8	4771
518.0	4811
518.2	4849
518.4	4881
518.6	4916
518.8	4955
519.0	4989
519.2	5029
519.4	5075
519.6	5117
519.8	5162
520.0	5197
520.2	5236
520.4	5276
520.6	5328
520.8	5371
521.0	5421
521.2	5458
521.4	5503
521.6	5542
521.8	5586
522.0	5623
522.2	5661
522.4	5687
522.6	5721
522.8	5752
523.0	5796
523.2	5845
523.4	5890
523.6	5932
523.8	5979
524.0	6014
524.2	6059
524.4	6091
524.6	6128
524.8	6168
525.0	6211
525.2	6247
525.4	6286
525.6	6322
525.8	6364
526.0	6392
526.2	6420
526.4	6447
526.6	6474
526.8	6509
527.0	6550
527.2	6591
527.4	6632
527.6	6659
527.8	6684
528.0	6712
528.2	6738
528.4	6772
528.6	6813
528.8	6851
529.0	6890
529.2	6929
529.4	6954
529.6	6972
529.8	6992
530.0	7019
530.2	7054
530.4	7091
530.6	7134
530.8	7164
531.0	7179
531.2	7202
531.4	7230
531.6	7258
531.8	7300
532.0	7333
532.2	7351
532.4	7374
532.6	7388
532.8	7419
533.0	7449
533.2	7475
533.4	7492
533.6	7518
533.8	7542
534.0	7576
534.2	7598
534.4	7615
534.6	7634
534.8	7669
535.0	7695
535.2	7717
535.4	7729
535.6	7743
535.8	7775
536.0	7807
536.2	7830
536.4	7847
536.6	7861
536.8	7868
537.0	7897
537.2	7907
537.4	7936
537.6	7954
537.8	7984
538.0	7995
538.2	8011
538.4	8012
538.6	8022
538.8	8035
539.0	8056
539.2	8074
539.4	8094
539.6	8116
539.8	8121
540.0	8136
540.2	8142
540.4	8140
540.6	8158
540.8	8186
541.0	8203
541.2	8215
541.4	8215
541.6	8218
541.8	8236
542.0	8252
542.2	8275
542.4	8273
542.6	8265
542.8	8276
543.0	8285
543.2	8298
543.4	8321
543.6	8325
543.8	8321
544.0	8330
544.2	8335
544.4	8362
544.6	8377
544.8	8385
545.0	8374
545.2	8365
545.4	8353
545.6	8362
545.8	8369
546.0	8389
546.2	8390
546.4	8389
546.6	8391
546.8	8391
547.0	8388
547.2	8393
547.4	8399
547.6	8409
547.8	8433
548.0	8431
548.2	8417
548.4	8409
548.6	8397
548.8	8394
549.0	8396
549.2	8406
549.4	8413
549.6	8425
549.8	8426
550.0	8426
550.2	8402
550.4	8394
550.6	8377
550.8	8371
551.0	8376
551.2	8379
551.4	8367
551.6	8364
551.8	8360
552.0	8361
552.2	8359
552.4	8342
552.6	8320
552.8	8310
553.0	8312
553.2	8326
553.4	8341
553.6	8340
553.8	8328
554.0	8303
554.2	8287
554.4	8279
554.6	8271
554.8	8260
555.0	8253
555.2	8245
555.4	8249
555.6	8244
555.8	8236
556.0	8222
556.2	8202
556.4	8179
556.6	8161
556.8	8149
557.0	8145
557.2	8153
557.4	8154
557.6	8141
557.8	8125
558.0	8100
558.2	8070
558.4	8061
558.6	8054
558.8	8060
559.0	8058
559.2	8036
559.4	8027
559.6	8013
559.8	7996
560.0	7999
560.2	7980
560.4	7962
560.6	7955
560.8	7946
561.0	7932
561.2	7925
561.4	7908
561.6	7898
561.8	7874
562.0	7859
562.2	7830
562.4	7803
562.6	7789
562.8	7784
563.0	7767
563.2	7754
563.4	7730
563.6	7699
563.8	7687
564.0	7679
564.2	7668
564.4	7660
564.6	7648
564.8	7623
565.0	7606
565.2	7585
565.4	7568
565.6	7554
565.8	7538
566.0	7520
566.2	7497
566.4	7484
566.6	7469
566.8	7457
567.0	7444
567.2	7425
567.4	7404
567.6	7389
567.8	7365
568.0	7347
568.2	7336
568.4	7316
568.6	7297
568.8	7277
569.0	7256
569.2	7237
569.4	7224
569.6	7199
569.8	7179
570.0	7156
570.2	7135
570.4	7121
570.6	7106
570.8	7080
571.0	7059
571.2	7032
571.4	7010
571.6	6999
571.8	6982
572.0	6961
572.2	6940
572.4	6921
572.6	6899
572.8	6886
573.0	6856
573.2	6833
573.4	6818
573.6	6799
573.8	6779
574.0	6756
574.2	6720
574.4	6690
574.6	6690
574.8	6683
575.0	6671
575.2	6648
575.4	6618
575.6	6585
575.8	6580
576.0	6563
576.2	6542
576.4	6511
576.6	6489
576.8	6466
577.0	6450
577.2	6426
577.4	6399
577.6	6366
577.8	6357
578.0	6341
578.2	6324
578.4	6309
578.6	6284
578.8	6267
579.0	6244
579.2	6232
579.4	6219
579.6	6203
579.8	6185
580.0	6167
580.2	6131
580.4	6109
580.6	6081
580.8	6044
581.0	6022
581.2	6005
581.4	6001
581.6	5991
581.8	5970
582.0	5945
582.2	5908
582.4	5874
582.6	5863
582.8	5849
583.0	5849
583.2	5837
583.4	5804
583.6	5773
583.8	5734
584.0	5711
584.2	5706
584.4	5698
584.6	5684
584.8	5662
585.0	5631
585.2	5611
585.4	5591
585.6	5573
585.8	5551
586.0	5519
586.2	5502
586.4	5486
586.6	5474
586.8	5458
587.0	5438
587.2	5413
587.4	5386
587.6	5364
587.8	5352
588.0	5335
588.2	5313
588.4	5286
588.6	5259
588.8	5243
589.0	5227
589.2	5211
589.4	5196
589.6	5179
589.8	5155
590.0	5126
590.2	5097
590.4	5076
590.6	5068
590.8	5060
591.0	5035
591.2	5009
591.4	4995
591.6	4975
591.8	4963
592.0	4945
592.2	4922
592.4	4894
592.6	4882
592.8	4851
593.0	4825
593.2	4806
593.4	4794
593.6	4774
593.8	4758
594.0	4722
594.2	4703
594.4	4690
594.6	4677
594.8	4662
595.0	4638
595.2	4610
595.4	4598
595.6	4576
595.8	4544
596.0	4531
596.2	4517
596.4	4501
596.6	4491
596.8	4471
597.0	4449
597.2	4440
597.4	4418
597.6	4394
597.8	4373
598.0	4352
598.2	4328
598.4	4309
598.6	4285
598.8	4266
599.0	4249
599.2	4237
599.4	4218
599.6	4200
599.8	4186
600.0	4168
600.2	4152
600.4	4132
600.6	4108
600.8	4085
601.0	4073
601.2	4069
601.4	4061
601.6	4040
601.8	4021
602.0	3995
602.2	3972
602.4	3963
602.6	3942
602.8	3922
603.0	3904
603.2	3885
603.4	3861
603.6	3844
603.8	3822
604.0	3811
604.2	3794
604.4	3777
604.6	3754
604.8	3734
605.0	3716
605.2	3707
605.4	3688
605.6	3669
605.8	3646
606.0	3634
606.2	3613
606.4	3599
606.6	3581
606.8	3571
607.0	3554
607.2	3547
607.4	3530
607.6	3513
607.8	3499
608.0	3477
608.2	3462
608.4	3439
608.6	3424
608.8	3406
609.0	3388
609.2	3366
609.4	3356
609.6	3336
609.8	3323
610.0	3308
610.2	3287
610.4	3271
610.6	3252
610.8	3230
611.0	3206
611.2	3196
611.4	3186
611.6	3179
611.8	3165
612.0	3148
612.2	3125
612.4	3111
612.6	3098
612.8	3085
613.0	3069
613.2	3058
613.4	3038
613.6	3015
613.8	2996
614.0	2977
614.2	2971
614.4	2965
614.6	2947
614.8	2930
615.0	2918
615.2	2896
615.4	2887
615.6	2872
615.8	2853
616.0	2838
616.2	2828
616.4	2810
616.6	2794
616.8	2776
617.0	2759
617.2	2749
617.4	2735
617.6	2720
617.8	2705
618.0	2687
618.2	2672
618.4	2660
618.6	2647
618.8	2634
619.0	2619
619.2	2601
619.4	2585
619.6	2572
619.8	2560
620.0	2545
620.2	2528
620.4	2514
620.6	2504
620.8	2495
621.0	2481
621.2	2462
621.4	2450
621.6	2435
621.8	2429
622.0	2411
622.2	2392
622.4	2372
622.6	2361
622.8	2350
623.0	2343
623.2	2328
623.4	2314
623.6	2303
623.8	2289
624.0	2277
624.2	2264
624.4	2251
624.6	2238
624.8	2230
625.0	2218
625.2	2204
625.4	2188
625.6	2172
625.8	2155
626.0	2146
626.2	2137
626.4	2126
626.6	2117
626.8	2110
627.0	2103
627.2	2092
627.4	2076
627.6	2060
627.8	2045
628.0	2027
628.2	2014
628.4	2005
628.6	1997
628.8	1996
629.0	1985
629.2	1970
629.4	1956
629.6	1944
629.8	1929
630.0	1922
630.2	1907
630.4	1901
630.6	1892
630.8	1879
631.0	1864
631.2	1849
631.4	1839
631.6	1832
631.8	1822
632.0	1811
632.2	1799
632.4	1785
632.6	1778
632.8	1770
633.0	1762
633.2	1753
633.4	1740
633.6	1732
633.8	1720
634.0	1709
634.2	1696
634.4	1681
634.6	1667
634.8	1663
635.0	1659
635.2	1654
635.4	1641
635.6	1624
635.8	1609
636.0	1594
636.2	1585
636.4	1578
636.6	1572
636.8	1565
637.0	1553
637.2	1540
637.4	1527
637.6	1521
637.8	1517
638.0	1511
638.2	1499
638.4	1492
638.6	1481
638.8	1470
639.0	1462
639.2	1453
639.4	1448
639.6	1447
639.8	1440
640.0	1430
640.2	1422
640.4	1409
640.6	1400
640.8	1386
641.0	1376
641.2	1367
641.4	1361
641.6	1356
641.8	1348
642.0	1331
642.2	1322
642.4	1315
642.6	1307
642.8	1303
643.0	1298
643.2	1287
643.4	1280
643.6	1273
643.8	1262
644.0	1256
644.2	1248
644.4	1241
644.6	1236
644.8	1228
645.0	1220
645.2	1214
645.4	1208
645.6	1198
645.8	1189
646.0	1179
646.2	1165
646.4	1159
646.6	1154
646.8	1148
647.0	1145
647.2	1140
647.4	1129
647.6	1121
647.8	1112
648.0	1103
648.2	1099
648.4	1094
648.6	1092
648.8	1084
649.0	1076
649.2	1068
649.4	1061
649.6	1050
649.8	1050
650.0	1042
650.2	1035
650.4	1031
650.6	1025
650.8	1013
651.0	1010
651.2	1001
651.4	994.8
651.6	990.4
651.8	983.9
652.0	978.1
652.2	973.7
652.4	964.4
652.6	956.6
652.8	946.4
653.0	938.3
653.2	934.1
653.4	930.2
653.6	926.8
653.8	920.1
654.0	913.9
654.2	910.1
654.4	903.8
654.6	897.3
654.8	889.0
655.0	879.9
655.2	874.6
655.4	869.7
655.6	868.5
655.8	865.1
656.0	860.6
656.2	856.1
656.4	849.3
656.6	838.0
656.8	832.6
657.0	826.3
657.2	822.9
657.4	819.1
657.6	815.2
657.8	810.6
658.0	803.0
658.2	798.2
658.4	791.1
658.6	784.0
658.8	778.0
659.0	773.3
659.2	767.2
659.4	763.7
659.6	761.2
659.8	756.3
660.0	754.0
660.2	750.1
660.4	745.8
660.6	740.7
660.8	736.3
661.0	729.6
661.2	724.1
661.4	719.3
661.6	716.0
661.8	713.0
662.0	705.9
662.2	701.2
662.4	696.0
662.6	689.5
662.8	684.6
663.0	680.3
663.2	671.9
663.4	666.6
663.6	664.4
663.8	662.1
664.0	657.7
664.2	656.2
664.4	652.2
664.6	646.0
664.8	642.4
665.0	643.1
665.2	637.8
665.4	634.0
665.6	627.0
665.8	617.3
666.0	611.4
666.2	610.8
666.4	607.3
666.6	603.3
666.8	597.3
667.0	590.1
667.2	585.9
667.4	584.2
667.6	580.1
667.8	577.3
668.0	574.5
668.2	569.3
668.4	567.8
668.6	565.4
668.8	560.1
669.0	557.9
669.2	553.5
669.4	547.0
669.6	544.2
669.8	540.1
670.0	535.1
670.2	532.8
670.4	528.3
670.6	525.7
670.8	524.0
671.0	520.7
671.2	516.0
671.4	510.6
671.6	506.0
671.8	502.1
672.0	501.4
672.2	497.4
672.4	494.8
672.6	492.7
672.8	492.6
673.0	489.2
673.2	487.1
673.4	481.2
673.6	475.1
673.8	470.0
674.0	466.8
674.2	464.5
674.4	463.3
674.6	459.2
674.8	455.5
675.0	451.4
675.2	448.1
675.4	446.2
675.6	444.7
675.8	440.2
676.0	438.2
676.2	435.1
676.4	430.7
676.6	427.8
676.8	424.6
677.0	421.6
677.2	419.3
677.4	415.9
677.6	411.5
677.8	410.0
678.0	408.8
678.2	408.8
678.4	408.1
678.6	405.6
678.8	400.7
679.0	395.6
679.2	392.0
679.4	389.8
679.6	387.2
679.8	386.0
680.0	384.2
680.2	381.3
680.4	377.0
680.6	373.7
680.8	370.7
681.0	366.8
681.2	366.2
681.4	365.0
681.6	362.0
681.8	359.5
682.0	357.3
682.2	352.5
682.4	349.5
682.6	346.2
682.8	345.3
683.0	342.7
683.2	341.4
683.4	337.2
683.6	334.1
683.8	330.0
684.0	329.8
684.2	328.7
684.4	328.5
684.6	325.3
684.8	324.9
685.0	321.2
685.2	316.7
685.4	312.6
685.6	309.2
685.8	307.0
686.0	306.6
686.2	306.1
686.4	305.5
686.6	305.3
686.8	304.9
687.0	303.1
687.2	298.9
687.4	294.4
687.6	292.7
687.8	289.9
688.0	287.8
688.2	285.7
688.4	283.1
688.6	281.9
688.8	281.7
689.0	279.8
689.2	277.2
689.4	274.7
689.6	274.2
689.8	273.8
690.0	272.2
690.2	268.9
690.4	264.6
690.6	263.0
690.8	264.3
691.0	262.9
691.2	260.0
691.4	256.2
691.6	253.3
691.8	252.1
692.0	251.5
692.2	251.3
692.4	250.4
692.6	248.3
692.8	247.1
693.0	243.2
693.2	240.8
693.4	240.0
693.6	239.1
693.8	238.2
694.0	238.0
694.2	236.8
694.4	235.5
694.6	233.1
694.8	230.5
695.0	228.7
695.2	226.2
695.4	225.7
695.6	224.0
695.8	223.0
696.0	222.4
696.2	221.3
696.4	219.8
696.6	219.0
696.8	217.1
697.0	214.8
697.2	213.0
697.4	213.1
697.6	212.4
697.8	211.8
698.0	209.6
698.2	207.6
698.4	204.8
698.6	204.3
698.8	202.8
699.0	202.0
699.2	199.7
699.4	198.4
699.6	197.2
699.8	196.5
700.0	196.6
700.2	195.9
700.4	194.3
700.6	192.9
700.8	191.1
701.0	190.2
701.2	189.5
701.4	188.9
701.6	187.4
701.8	186.9
702.0	183.8
702.2	182.8
702.4	181.9
702.6	180.8
702.8	179.5
703.0	179.5
703.2	177.7
703.4	176.6
703.6	174.7
703.8	173.8
704.0	172.1
704.2	171.4
704.4	170.9
704.6	170.4
704.8	169.0
705.0	169.0
705.2	167.1
705.4	165.7
705.6	164.6
705.8	162.6
706.0	161.0
706.2	161.0
706.4	160.8
706.6	160.2
706.8	159.8
707.0	157.8
707.2	155.9
707.4	154.9
707.6	154.6
707.8	154.6
708.0	155.1
708.2	154.6
708.4	152.8
708.6	151.4
708.8	150.2
709.0	148.1
709.2	146.0
709.4	145.3
709.6	143.8
709.8	144.0
710.0	144.0
710.2	142.4
710.4	141.7
710.6	140.7
710.8	139.7
711.0	140.0
711.2	139.7
711.4	137.9
711.6	136.8
711.8	134.4
712.0	134.2
712.2	134.9
712.4	134.6
712.6	133.3
712.8	131.9
713.0	129.7
713.2	128.6
713.4	128.4
713.6	129.3
713.8	129.1
714.0	128.6
714.2	127.0
714.4	124.1
714.6	122.4
714.8	122.6
715.0	122.3
715.2	122.5
715.4	122.3
715.6	120.7
715.8	118.8
716.0	118.6
716.2	119.2
716.4	118.7
716.6	118.7
716.8	117.7
717.0	114.9
717.2	112.5
717.4	112.0
717.6	111.5
717.8	112.3
718.0	112.1
718.2	112.1
718.4	109.9
718.6	109.2
718.8	108.3
719.0	107.2
719.2	106.3
719.4	105.9
719.6	104.4
719.8	103.1
720.0	101.5
720.2	100.5
720.4	99.59
720.6	100.3
720.8	100.5
721.0	100.2
721.2	98.60
721.4	97.47
721.6	95.59
721.8	96.38
722.0	95.46
722.2	94.87
722.4	93.79
722.6	92.86
722.8	92.35
