Sample:	'20211010A(EM)
File name:	G-NI 4.FDS
Run date:	'19:20:55, 06/19/2023
Operator:	Administrator
Comment:	'

Instrument
Model:	F-4700 FL Spectrophotometer
Serial number:	2019-001
ROM Version:	5J24010 00

Instrument parameters
Measurement type:	Wavelength scan
Scan mode:	Emission
Data mode:	Fluorescence
EX WL:	400.0 nm
EM  Start WL:	420.0 nm
EM  End WL:	800.0 nm
Scan speed:	1200 nm/min
Delay:	0.0 s
EX Slit:	10.0 nm
EM Slit:	10.0 nm
PMT Voltage:	500 V
Response:	0.002 s
Corrected spectra:	Off
Shutter control:	On

Processing performed
Savitsky-Golay smoothed
Smoothing order:	3
Number of points:	7
Number of times:	1

Peak integration
Integration method:	Rectangular
Sensitivity:	1
Threshold:	1.000

Peaks
No.	Start(nm)	Apex(nm)	End(nm)	Height(Data)	Valley(nm)	Valley(Data)
1	420.0	532.2	533.0	473.8	533.0	470.6
2	533.0	534.0	535.4	479.4	535.4	473.5
3	535.4	537.6	538.2	483.8	538.2	474.9
4	538.2	539.2	540.0	483.8	540.0	469.2
5	540.0	540.8	541.8	478.4	541.8	473.8
6	541.8	542.6	543.4	478.0	543.4	471.8
7	543.4	544.4	546.2	477.5	546.2	468.0
8	546.2	547.0	634.4	471.3	634.4	79.93
9	634.4	635.2	649.8	82.50	649.8	50.82
10	649.8	650.6	686.4	53.02	686.4	15.69
11	686.4	687.4	697.2	17.10	697.2	11.33
12	697.2	698.2	710.0	12.67	710.0	7.502
13	710.0	710.8	800.0	8.871	800.0	1.539

Data points
nm	Data
420.0	0.744
420.2	0.766
420.4	0.729
420.6	0.667
420.8	0.680
421.0	0.614
421.2	0.437
421.4	0.494
421.6	0.528
421.8	0.608
422.0	0.801
422.2	0.742
422.4	0.719
422.6	0.795
422.8	0.714
423.0	0.714
423.2	0.747
423.4	0.682
423.6	0.666
423.8	0.725
424.0	0.732
424.2	0.702
424.4	0.684
424.6	0.635
424.8	0.588
425.0	0.558
425.2	0.605
425.4	0.553
425.6	0.549
425.8	0.530
426.0	0.585
426.2	0.541
426.4	0.607
426.6	0.593
426.8	0.635
427.0	0.640
427.2	0.600
427.4	0.660
427.6	0.684
427.8	0.656
428.0	0.656
428.2	0.623
428.4	0.547
428.6	0.669
428.8	0.678
429.0	0.693
429.2	0.650
429.4	0.572
429.6	0.520
429.8	0.524
430.0	0.670
430.2	0.703
430.4	0.729
430.6	0.743
430.8	0.766
431.0	0.722
431.2	0.647
431.4	0.487
431.6	0.403
431.8	0.440
432.0	0.543
432.2	0.604
432.4	0.527
432.6	0.520
432.8	0.561
433.0	0.690
433.2	0.734
433.4	0.740
433.6	0.754
433.8	0.687
434.0	0.681
434.2	0.711
434.4	0.725
434.6	0.683
434.8	0.617
435.0	0.499
435.2	0.364
435.4	0.397
435.6	0.541
435.8	0.668
436.0	0.809
436.2	0.874
436.4	0.803
436.6	0.731
436.8	0.737
437.0	0.728
437.2	0.727
437.4	0.607
437.6	0.475
437.8	0.416
438.0	0.504
438.2	0.569
438.4	0.589
438.6	0.563
438.8	0.429
439.0	0.416
439.2	0.448
439.4	0.524
439.6	0.601
439.8	0.732
440.0	0.664
440.2	0.635
440.4	0.575
440.6	0.523
440.8	0.540
441.0	0.653
441.2	0.674
441.4	0.764
441.6	0.779
441.8	0.733
442.0	0.723
442.2	0.817
442.4	0.784
442.6	0.833
442.8	0.743
443.0	0.674
443.2	0.714
443.4	0.789
443.6	0.738
443.8	0.773
444.0	0.618
444.2	0.548
444.4	0.547
444.6	0.540
444.8	0.578
445.0	0.600
445.2	0.597
445.4	0.591
445.6	0.670
445.8	0.762
446.0	0.829
446.2	0.742
446.4	0.733
446.6	0.692
446.8	0.725
447.0	0.843
447.2	0.826
447.4	0.730
447.6	0.652
447.8	0.535
448.0	0.421
448.2	0.638
448.4	0.714
448.6	0.715
448.8	0.596
449.0	0.439
449.2	0.352
449.4	0.504
449.6	0.650
449.8	0.723
450.0	0.671
450.2	0.679
450.4	0.703
450.6	0.586
450.8	0.554
451.0	0.475
451.2	0.456
451.4	0.573
451.6	0.794
451.8	0.894
452.0	0.913
452.2	0.811
452.4	0.780
452.6	0.677
452.8	0.693
453.0	0.639
453.2	0.656
453.4	0.655
453.6	0.665
453.8	0.607
454.0	0.615
454.2	0.595
454.4	0.618
454.6	0.648
454.8	0.693
455.0	0.682
455.2	0.692
455.4	0.636
455.6	0.569
455.8	0.605
456.0	0.699
456.2	0.697
456.4	0.726
456.6	0.617
456.8	0.650
457.0	0.639
457.2	0.663
457.4	0.647
457.6	0.616
457.8	0.581
458.0	0.643
458.2	0.608
458.4	0.665
458.6	0.692
458.8	0.649
459.0	0.705
459.2	0.759
459.4	0.643
459.6	0.687
459.8	0.790
460.0	0.807
460.2	0.818
460.4	0.693
460.6	0.607
460.8	0.574
461.0	0.688
461.2	0.742
461.4	0.822
461.6	0.822
461.8	0.853
462.0	0.730
462.2	0.767
462.4	0.771
462.6	0.849
462.8	0.844
463.0	0.728
463.2	0.581
463.4	0.675
463.6	0.798
463.8	0.916
464.0	0.970
464.2	0.913
464.4	0.753
464.6	0.769
464.8	0.792
465.0	0.789
465.2	0.879
465.4	0.933
465.6	1.011
465.8	1.075
466.0	0.991
466.2	0.922
466.4	0.927
466.6	0.984
466.8	1.042
467.0	1.085
467.2	1.024
467.4	1.145
467.6	1.239
467.8	1.324
468.0	1.264
468.2	1.199
468.4	1.094
468.6	1.190
468.8	1.179
469.0	1.240
469.2	1.295
469.4	1.302
469.6	1.332
469.8	1.463
470.0	1.522
470.2	1.631
470.4	1.744
470.6	1.743
470.8	1.750
471.0	1.781
471.2	1.762
471.4	1.823
471.6	1.744
471.8	1.689
472.0	1.856
472.2	1.959
472.4	2.113
472.6	2.185
472.8	1.964
473.0	1.993
473.2	2.087
473.4	2.144
473.6	2.236
473.8	2.371
474.0	2.392
474.2	2.543
474.4	2.795
474.6	2.708
474.8	2.712
475.0	2.739
475.2	2.646
475.4	2.715
475.6	3.076
475.8	3.105
476.0	3.304
476.2	3.440
476.4	3.523
476.6	3.529
476.8	3.679
477.0	3.723
477.2	3.793
477.4	4.088
477.6	4.447
477.8	4.219
478.0	4.355
478.2	4.331
478.4	4.563
478.6	4.922
478.8	5.312
479.0	5.167
479.2	5.357
479.4	5.338
479.6	5.605
479.8	5.839
480.0	6.161
480.2	6.392
480.4	6.627
480.6	6.946
480.8	7.579
481.0	7.783
481.2	8.120
481.4	8.154
481.6	8.207
481.8	8.347
482.0	8.736
482.2	8.835
482.4	9.252
482.6	9.586
482.8	10.36
483.0	10.65
483.2	11.11
483.4	11.29
483.6	11.27
483.8	11.40
484.0	12.00
484.2	12.64
484.4	13.52
484.6	13.63
484.8	14.19
485.0	14.13
485.2	14.25
485.4	14.68
485.6	15.66
485.8	15.75
486.0	16.67
486.2	16.82
486.4	16.92
486.6	17.61
486.8	19.06
487.0	20.04
487.2	20.81
487.4	21.20
487.6	21.48
487.8	21.32
488.0	21.65
488.2	22.34
488.4	23.33
488.6	24.51
488.8	25.82
489.0	26.47
489.2	27.29
489.4	28.37
489.6	28.97
489.8	29.54
490.0	29.97
490.2	31.05
490.4	32.27
490.6	34.60
490.8	35.41
491.0	36.47
491.2	37.17
491.4	37.39
491.6	38.17
491.8	39.84
492.0	41.12
492.2	42.79
492.4	43.99
492.6	44.48
492.8	45.27
493.0	46.25
493.2	48.32
493.4	49.79
493.6	51.43
493.8	52.53
494.0	53.20
494.2	54.26
494.4	55.91
494.6	57.48
494.8	59.87
495.0	61.59
495.2	62.63
495.4	62.80
495.6	63.61
495.8	64.95
496.0	67.04
496.2	69.27
496.4	72.09
496.6	73.84
496.8	76.64
497.0	78.43
497.2	80.09
497.4	81.70
497.6	83.73
497.8	84.53
498.0	86.69
498.2	87.95
498.4	90.17
498.6	91.66
498.8	93.46
499.0	94.88
499.2	97.73
499.4	101.0
499.6	104.7
499.8	106.4
500.0	108.8
500.2	110.7
500.4	112.4
500.6	114.9
500.8	117.5
501.0	119.1
501.2	121.6
501.4	123.7
501.6	126.6
501.8	128.7
502.0	131.7
502.2	134.4
502.4	137.5
502.6	138.7
502.8	141.4
503.0	142.7
503.2	145.9
503.4	148.4
503.6	150.9
503.8	152.8
504.0	156.1
504.2	157.3
504.4	160.8
504.6	164.9
504.8	168.1
505.0	170.9
505.2	174.6
505.4	176.0
505.6	179.9
505.8	185.3
506.0	187.5
506.2	188.4
506.4	189.4
506.6	191.5
506.8	194.3
507.0	198.4
507.2	201.4
507.4	205.3
507.6	208.6
507.8	211.3
508.0	214.1
508.2	216.8
508.4	218.8
508.6	222.8
508.8	226.6
509.0	229.8
509.2	233.6
509.4	235.7
509.6	237.0
509.8	238.2
510.0	240.7
510.2	245.4
510.4	249.2
510.6	252.8
510.8	256.3
511.0	258.1
511.2	260.3
511.4	263.1
511.6	266.5
511.8	268.1
512.0	272.1
512.2	274.3
512.4	277.2
512.6	281.5
512.8	285.4
513.0	286.2
513.2	289.5
513.4	291.3
513.6	295.4
513.8	300.1
514.0	302.5
514.2	302.9
514.4	307.0
514.6	309.2
514.8	312.7
515.0	317.0
515.2	319.5
515.4	321.7
515.6	324.8
515.8	325.3
516.0	329.1
516.2	332.6
516.4	337.1
516.6	340.2
516.8	338.0
517.0	337.3
517.2	338.5
517.4	341.2
517.6	345.6
517.8	350.9
518.0	352.4
518.2	355.7
518.4	358.7
518.6	364.8
518.8	367.5
519.0	371.6
519.2	371.1
519.4	372.4
519.6	372.3
519.8	375.9
520.0	379.1
520.2	382.2
520.4	382.2
520.6	384.2
520.8	386.3
521.0	391.3
521.2	397.8
521.4	402.4
521.6	403.1
521.8	402.8
522.0	403.0
522.2	404.3
522.4	404.9
522.6	408.3
522.8	411.5
523.0	414.3
523.2	415.6
523.4	415.7
523.6	414.3
523.8	415.4
524.0	419.9
524.2	422.3
524.4	424.4
524.6	426.7
524.8	428.2
525.0	429.1
525.2	432.9
525.4	431.6
525.6	432.8
525.8	433.8
526.0	435.4
526.2	438.2
526.4	440.1
526.6	439.7
526.8	439.7
527.0	441.0
527.2	443.7
527.4	445.7
527.6	445.2
527.8	446.0
528.0	446.0
528.2	448.4
528.4	450.4
528.6	452.7
528.8	452.8
529.0	454.1
529.2	456.5
529.4	457.7
529.6	457.8
529.8	459.9
530.0	459.9
530.2	460.8
530.4	462.3
530.6	463.9
530.8	465.4
531.0	467.8
531.2	467.6
531.4	469.2
531.6	470.1
531.8	471.7
532.0	473.8
532.2	473.8
532.4	471.9
532.6	471.8
532.8	471.3
533.0	470.6
533.2	470.7
533.4	472.7
533.6	475.0
533.8	477.6
534.0	479.4
534.2	477.9
534.4	478.1
534.6	478.9
534.8	476.5
535.0	475.0
535.2	474.9
535.4	473.5
535.6	475.7
535.8	476.9
536.0	475.8
536.2	474.3
536.4	477.7
536.6	478.4
536.8	478.1
537.0	480.1
537.2	482.0
537.4	482.4
537.6	483.8
537.8	481.3
538.0	476.9
538.2	474.9
538.4	476.1
538.6	478.9
538.8	480.7
539.0	482.8
539.2	483.8
539.4	478.7
539.6	476.0
539.8	472.1
540.0	469.2
540.2	471.4
540.4	475.5
540.6	476.2
540.8	478.4
541.0	477.0
541.2	476.0
541.4	476.4
541.6	474.9
541.8	473.8
542.0	475.2
542.2	474.7
542.4	477.1
542.6	478.0
542.8	476.9
543.0	473.6
543.2	472.6
543.4	471.8
543.6	474.1
543.8	475.5
544.0	477.0
544.2	477.4
544.4	477.5
544.6	477.2
544.8	474.7
545.0	472.5
545.2	470.7
545.4	469.5
545.6	468.7
545.8	469.1
546.0	468.4
546.2	468.0
546.4	468.9
546.6	468.8
546.8	470.3
547.0	471.3
547.2	470.0
547.4	465.3
547.6	463.5
547.8	462.4
548.0	465.4
548.2	465.3
548.4	463.9
548.6	462.2
548.8	460.4
549.0	459.9
549.2	461.0
549.4	459.5
549.6	461.0
549.8	461.8
550.0	461.4
550.2	459.8
550.4	457.5
550.6	456.0
550.8	455.9
551.0	455.3
551.2	454.5
551.4	453.3
551.6	453.5
551.8	454.1
552.0	454.6
552.2	455.8
552.4	454.9
552.6	451.8
552.8	449.9
553.0	448.4
553.2	445.3
553.4	444.0
553.6	440.2
553.8	437.8
554.0	437.3
554.2	438.7
554.4	437.7
554.6	439.1
554.8	436.8
555.0	437.7
555.2	436.9
555.4	437.2
555.6	436.6
555.8	434.0
556.0	432.0
556.2	431.7
556.4	430.1
556.6	427.9
556.8	428.1
557.0	428.0
557.2	428.3
557.4	429.0
557.6	427.0
557.8	422.9
558.0	422.9
558.2	422.8
558.4	421.6
558.6	420.6
558.8	417.6
559.0	418.0
559.2	419.3
559.4	421.6
559.6	421.3
559.8	417.2
560.0	414.3
560.2	413.7
560.4	413.8
560.6	415.1
560.8	414.3
561.0	411.9
561.2	410.5
561.4	409.0
561.6	407.7
561.8	403.9
562.0	403.4
562.2	401.9
562.4	400.8
562.6	400.4
562.8	399.3
563.0	396.2
563.2	396.3
563.4	395.6
563.6	395.9
563.8	394.2
564.0	393.8
564.2	392.5
564.4	391.8
564.6	390.6
564.8	389.3
565.0	388.8
565.2	388.4
565.4	387.6
565.6	384.1
565.8	379.5
566.0	376.9
566.2	378.8
566.4	379.9
566.6	382.1
566.8	380.8
567.0	378.7
567.2	375.4
567.4	373.9
567.6	372.5
567.8	371.9
568.0	369.2
568.2	370.4
568.4	367.9
568.6	366.3
568.8	365.1
569.0	364.1
569.2	361.6
569.4	362.8
569.6	360.2
569.8	360.9
570.0	359.1
570.2	356.6
570.4	351.9
570.6	349.8
570.8	348.3
571.0	350.2
571.2	350.7
571.4	350.7
571.6	348.5
571.8	349.6
572.0	350.6
572.2	349.4
572.4	348.7
572.6	347.7
572.8	344.9
573.0	340.7
573.2	339.4
573.4	338.7
573.6	338.0
573.8	338.7
574.0	338.1
574.2	335.9
574.4	334.9
574.6	333.8
574.8	332.4
575.0	331.3
575.2	328.2
575.4	327.6
575.6	324.4
575.8	322.0
576.0	321.7
576.2	321.9
576.4	320.7
576.6	319.8
576.8	317.5
577.0	314.5
577.2	314.5
577.4	315.2
577.6	314.7
577.8	314.9
578.0	314.0
578.2	312.5
578.4	313.3
578.6	312.4
578.8	309.5
579.0	309.1
579.2	307.1
579.4	307.8
579.6	307.5
579.8	305.7
580.0	304.3
580.2	300.6
580.4	296.2
580.6	295.6
580.8	294.8
581.0	294.2
581.2	294.3
581.4	292.6
581.6	291.2
581.8	290.4
582.0	289.6
582.2	288.8
582.4	286.4
582.6	286.3
582.8	287.4
583.0	285.6
583.2	284.6
583.4	283.4
583.6	280.5
583.8	277.8
584.0	277.1
584.2	274.8
584.4	274.9
584.6	274.5
584.8	274.5
585.0	273.0
585.2	272.4
585.4	271.7
585.6	270.8
585.8	268.5
586.0	266.9
586.2	265.3
586.4	264.3
586.6	263.6
586.8	264.7
587.0	263.3
587.2	262.5
587.4	260.0
587.6	259.2
587.8	258.5
588.0	258.6
588.2	257.0
588.4	257.1
588.6	254.2
588.8	253.3
589.0	252.1
589.2	251.0
589.4	250.7
589.6	251.6
589.8	250.2
590.0	249.0
590.2	246.9
590.4	245.9
590.6	243.2
590.8	241.5
591.0	239.3
591.2	237.9
591.4	237.9
591.6	238.8
591.8	238.1
592.0	237.9
592.2	235.2
592.4	232.8
592.6	231.9
592.8	232.6
593.0	233.2
593.2	234.5
593.4	233.4
593.6	230.7
593.8	227.8
594.0	226.2
594.2	224.5
594.4	223.2
594.6	222.1
594.8	221.9
595.0	221.6
595.2	221.2
595.4	221.4
595.6	220.4
595.8	218.9
596.0	219.3
596.2	217.6
596.4	215.6
596.6	213.8
596.8	212.1
597.0	210.5
597.2	210.9
597.4	211.3
597.6	212.2
597.8	211.1
598.0	210.8
598.2	209.2
598.4	207.6
598.6	206.2
598.8	206.0
599.0	204.5
599.2	204.5
599.4	202.5
599.6	201.1
599.8	199.5
600.0	198.9
600.2	199.0
600.4	197.9
600.6	195.2
600.8	193.7
601.0	193.0
601.2	193.5
601.4	194.5
601.6	193.3
601.8	191.4
602.0	189.9
602.2	187.4
602.4	186.1
602.6	185.4
602.8	184.3
603.0	182.8
603.2	181.0
603.4	180.1
603.6	180.4
603.8	181.4
604.0	183.0
604.2	182.2
604.4	179.8
604.6	179.7
604.8	178.6
605.0	176.9
605.2	176.6
605.4	175.3
605.6	175.3
605.8	174.0
606.0	173.1
606.2	171.4
606.4	170.4
606.6	169.9
606.8	169.9
607.0	168.8
607.2	167.7
607.4	166.7
607.6	165.5
607.8	165.2
608.0	164.1
608.2	164.3
608.4	162.9
608.6	161.6
608.8	160.5
609.0	161.6
609.2	162.7
609.4	164.0
609.6	162.2
609.8	159.3
610.0	157.3
610.2	156.0
610.4	155.3
610.6	155.8
610.8	156.1
611.0	155.2
611.2	154.1
611.4	152.3
611.6	150.4
611.8	150.7
612.0	150.1
612.2	150.1
612.4	149.9
612.6	148.7
612.8	147.0
613.0	145.5
613.2	142.6
613.4	142.0
613.6	140.6
613.8	141.2
614.0	142.5
614.2	142.9
614.4	142.7
614.6	141.5
614.8	137.4
615.0	136.8
615.2	137.6
615.4	137.7
615.6	138.8
615.8	138.3
616.0	135.8
616.2	134.6
616.4	134.1
616.6	133.1
616.8	133.3
617.0	131.7
617.2	131.8
617.4	131.0
617.6	129.1
617.8	127.7
618.0	127.3
618.2	127.5
618.4	128.2
618.6	127.9
618.8	126.9
619.0	125.7
619.2	124.4
619.4	123.2
619.6	122.1
619.8	121.4
620.0	121.3
620.2	121.3
620.4	119.5
620.6	119.6
620.8	119.7
621.0	120.1
621.2	120.1
621.4	119.4
621.6	117.3
621.8	116.5
622.0	115.2
622.2	114.5
622.4	114.1
622.6	113.4
622.8	112.6
623.0	111.3
623.2	110.7
623.4	110.3
623.6	109.8
623.8	109.4
624.0	108.7
624.2	108.3
624.4	109.1
624.6	108.9
624.8	109.1
625.0	109.0
625.2	107.3
625.4	106.0
625.6	104.2
625.8	101.5
626.0	101.6
626.2	102.5
626.4	102.1
626.6	102.0
626.8	101.7
627.0	101.4
627.2	101.1
627.4	100.8
627.6	99.76
627.8	98.43
628.0	97.92
628.2	98.37
628.4	97.91
628.6	96.85
628.8	96.38
629.0	95.49
629.2	94.52
629.4	94.24
629.6	93.09
629.8	92.20
630.0	93.21
630.2	93.39
630.4	93.64
630.6	92.49
630.8	89.98
631.0	90.11
631.2	90.65
631.4	90.76
631.6	90.30
631.8	87.94
632.0	87.11
632.2	87.79
632.4	88.10
632.6	88.25
632.8	87.02
633.0	85.21
633.2	84.23
633.4	83.23
633.6	82.47
633.8	81.68
634.0	81.68
634.2	80.79
634.4	79.93
634.6	80.01
634.8	80.47
635.0	81.79
635.2	82.50
635.4	81.63
635.6	80.88
635.8	79.83
636.0	79.35
636.2	78.77
636.4	77.03
636.6	76.22
636.8	76.24
637.0	76.43
637.2	76.64
637.4	76.39
637.6	75.36
637.8	74.26
638.0	73.84
638.2	74.09
638.4	73.61
638.6	73.37
638.8	72.83
639.0	72.16
639.2	71.31
639.4	71.48
639.6	70.64
639.8	70.14
640.0	70.18
640.2	70.02
640.4	69.96
640.6	69.59
640.8	69.31
641.0	68.44
641.2	68.28
641.4	67.05
641.6	67.17
641.8	66.46
642.0	66.35
642.2	65.44
642.4	64.61
642.6	64.16
642.8	64.51
643.0	64.75
643.2	64.83
643.4	64.92
643.6	64.34
643.8	63.99
644.0	63.59
644.2	63.46
644.4	62.76
644.6	62.27
644.8	61.33
645.0	59.66
645.2	58.50
645.4	59.00
645.6	59.34
645.8	59.44
646.0	59.18
646.2	57.73
646.4	56.85
646.6	57.69
646.8	58.04
647.0	57.54
647.2	57.51
647.4	55.83
647.6	54.83
647.8	54.72
648.0	53.87
648.2	52.92
648.4	52.82
648.6	52.66
648.8	52.64
649.0	52.55
649.2	51.84
649.4	51.61
649.6	50.87
649.8	50.82
650.0	50.92
650.2	51.15
650.4	52.25
650.6	53.02
650.8	52.98
651.0	51.87
651.2	51.44
651.4	50.60
651.6	49.97
651.8	48.65
652.0	48.10
652.2	47.52
652.4	48.08
652.6	48.21
652.8	47.76
653.0	47.12
653.2	46.43
653.4	46.07
653.6	46.16
653.8	46.04
654.0	46.37
654.2	45.58
654.4	45.21
654.6	45.08
654.8	44.01
655.0	43.54
655.2	43.15
655.4	42.54
655.6	43.35
655.8	44.22
656.0	43.55
656.2	43.28
656.4	42.08
656.6	41.62
656.8	40.99
657.0	40.96
657.2	40.38
657.4	40.45
657.6	40.30
657.8	40.58
658.0	40.48
658.2	40.40
658.4	39.96
658.6	40.10
658.8	39.39
659.0	39.33
659.2	38.78
659.4	37.81
659.6	37.72
659.8	38.36
660.0	37.75
660.2	37.59
660.4	36.88
660.6	36.75
660.8	36.69
661.0	37.18
661.2	36.45
661.4	35.80
661.6	35.71
661.8	36.51
662.0	36.44
662.2	36.56
662.4	36.15
662.6	35.53
662.8	35.38
663.0	35.81
663.2	35.78
663.4	34.81
663.6	34.26
663.8	33.86
664.0	33.00
664.2	33.01
664.4	32.62
664.6	31.80
664.8	31.59
665.0	32.12
665.2	32.02
665.4	31.88
665.6	32.11
665.8	31.86
666.0	31.50
666.2	31.82
666.4	31.71
666.6	30.71
666.8	31.23
667.0	31.05
667.2	30.65
667.4	31.18
667.6	30.63
667.8	29.47
668.0	29.67
668.2	29.74
668.4	29.27
668.6	29.40
668.8	28.72
669.0	28.27
669.2	28.46
669.4	28.16
669.6	27.59
669.8	27.28
670.0	27.92
670.2	28.32
670.4	28.51
670.6	27.74
670.8	27.51
671.0	27.15
671.2	27.32
671.4	26.59
671.6	25.91
671.8	25.21
672.0	25.06
672.2	24.97
672.4	25.06
672.6	24.57
672.8	24.74
673.0	24.79
673.2	25.11
673.4	25.18
673.6	25.17
673.8	25.17
674.0	25.02
674.2	24.56
674.4	24.28
674.6	23.31
674.8	22.66
675.0	23.25
675.2	23.37
675.4	23.57
675.6	23.46
675.8	22.85
676.0	22.23
676.2	22.08
676.4	22.30
676.6	22.83
676.8	22.86
677.0	22.84
677.2	22.27
677.4	21.56
677.6	21.24
677.8	21.10
678.0	21.07
678.2	21.47
678.4	21.27
678.6	20.86
678.8	20.66
679.0	20.65
679.2	20.27
679.4	20.43
679.6	20.01
679.8	19.67
680.0	20.15
680.2	20.37
680.4	19.68
680.6	19.63
680.8	19.14
681.0	19.06
681.2	19.30
681.4	18.93
681.6	18.81
681.8	18.75
682.0	19.01
682.2	19.01
682.4	18.78
682.6	17.99
682.8	18.07
683.0	17.59
683.2	17.65
683.4	17.69
683.6	17.95
683.8	17.72
684.0	18.08
684.2	17.81
684.4	17.84
684.6	17.84
684.8	17.33
685.0	16.88
685.2	16.67
685.4	16.74
685.6	17.02
685.8	16.59
686.0	15.75
686.2	15.85
686.4	15.69
686.6	15.87
686.8	16.21
687.0	16.01
687.2	16.56
687.4	17.10
687.6	17.05
687.8	16.35
688.0	15.82
688.2	15.06
688.4	15.03
688.6	14.94
688.8	14.95
689.0	14.52
689.2	14.88
689.4	15.22
689.6	15.07
689.8	15.23
690.0	15.38
690.2	15.16
690.4	15.06
690.6	14.92
690.8	14.48
691.0	14.27
691.2	14.47
691.4	14.33
691.6	13.93
691.8	13.77
692.0	13.67
692.2	13.66
692.4	13.64
692.6	13.60
692.8	13.64
693.0	13.95
693.2	14.06
693.4	14.10
693.6	13.72
693.8	13.38
694.0	12.94
694.2	12.96
694.4	12.93
694.6	13.16
694.8	13.07
695.0	12.89
695.2	12.34
695.4	12.32
695.6	12.38
695.8	12.82
696.0	12.52
696.2	12.75
696.4	12.49
696.6	12.23
696.8	11.87
697.0	11.77
697.2	11.33
697.4	11.38
697.6	11.57
697.8	11.85
698.0	12.22
698.2	12.67
698.4	12.53
698.6	11.80
698.8	11.41
699.0	11.15
699.2	10.78
699.4	10.97
699.6	11.24
699.8	11.35
700.0	11.00
700.2	10.72
700.4	10.30
700.6	10.22
700.8	10.31
701.0	10.71
701.2	10.66
701.4	11.09
701.6	10.96
701.8	11.01
702.0	10.54
702.2	10.37
702.4	10.56
702.6	10.63
702.8	10.33
703.0	10.23
703.2	9.553
703.4	9.328
703.6	9.690
703.8	9.871
704.0	9.960
704.2	9.798
704.4	9.261
704.6	9.584
704.8	9.725
705.0	10.01
705.2	10.17
705.4	10.10
705.6	9.746
705.8	9.392
706.0	8.844
706.2	8.606
706.4	8.854
706.6	9.008
