Sample:	'20211010A(EM)
File name:	B-CDS 2 1.FDS
Run date:	'10:31:24, 06/08/2023
Operator:	Administrator
Comment:	'

Instrument
Model:	F-4700 FL Spectrophotometer
Serial number:	2019-001
ROM Version:	5J24010 00

Instrument parameters
Measurement type:	Wavelength scan
Scan mode:	Emission
Data mode:	Fluorescence
EX WL:	350.0 nm
EM  Start WL:	370.0 nm
EM  End WL:	680.0 nm
Scan speed:	1200 nm/min
Delay:	0.0 s
EX Slit:	10.0 nm
EM Slit:	10.0 nm
PMT Voltage:	450 V
Response:	0.002 s
Corrected spectra:	Off
Shutter control:	On

Processing performed
Savitsky-Golay smoothed
Smoothing order:	3
Number of points:	7
Number of times:	1

Peak integration
Integration method:	Rectangular
Sensitivity:	1
Threshold:	1.000

Peaks
No.	Start(nm)	Apex(nm)	End(nm)	Height(Data)	Valley(nm)	Valley(Data)
1	370.0	490.0	491.0	774.0	491.0	768.2
2	491.0	494.2	680.0	776.6	680.0	7.700

Data points
nm	Data
370.0	1.034
370.2	1.188
370.4	1.154
370.6	1.036
370.8	0.996
371.0	1.034
371.2	1.046
371.4	1.117
371.6	1.140
371.8	1.080
372.0	1.198
372.2	1.208
372.4	1.213
372.6	1.109
372.8	1.079
373.0	0.990
373.2	0.957
373.4	0.993
373.6	1.024
373.8	1.028
374.0	1.212
374.2	1.207
374.4	1.038
374.6	1.024
374.8	1.029
375.0	1.112
375.2	1.258
375.4	1.229
375.6	1.104
375.8	1.010
376.0	1.017
376.2	1.176
376.4	1.217
376.6	1.234
376.8	1.244
377.0	1.122
377.2	1.059
377.4	1.159
377.6	1.121
377.8	1.108
378.0	1.162
378.2	1.134
378.4	1.092
378.6	1.135
378.8	1.093
379.0	1.064
379.2	1.107
379.4	1.107
379.6	1.110
379.8	1.100
380.0	1.170
380.2	1.133
380.4	1.110
380.6	1.029
380.8	1.102
381.0	1.165
381.2	1.298
381.4	1.313
381.6	1.278
381.8	1.221
382.0	1.238
382.2	1.206
382.4	1.169
382.6	1.141
382.8	1.137
383.0	1.224
383.2	1.327
383.4	1.356
383.6	1.343
383.8	1.242
384.0	1.186
384.2	1.171
384.4	1.252
384.6	1.377
384.8	1.389
385.0	1.402
385.2	1.350
385.4	1.279
385.6	1.289
385.8	1.334
386.0	1.338
386.2	1.338
386.4	1.422
386.6	1.465
386.8	1.464
387.0	1.435
387.2	1.454
387.4	1.335
387.6	1.398
387.8	1.391
388.0	1.380
388.2	1.396
388.4	1.515
388.6	1.463
388.8	1.494
389.0	1.467
389.2	1.450
389.4	1.422
389.6	1.496
389.8	1.500
390.0	1.556
390.2	1.549
390.4	1.611
390.6	1.545
390.8	1.580
391.0	1.592
391.2	1.541
391.4	1.508
391.6	1.591
391.8	1.533
392.0	1.540
392.2	1.538
392.4	1.460
392.6	1.428
392.8	1.528
393.0	1.562
393.2	1.552
393.4	1.628
393.6	1.700
393.8	1.681
394.0	1.767
394.2	1.792
394.4	1.682
394.6	1.682
394.8	1.710
395.0	1.751
395.2	1.803
395.4	1.991
395.6	2.046
395.8	2.003
396.0	1.913
396.2	1.895
396.4	1.853
396.6	1.981
396.8	2.152
397.0	2.249
397.2	2.305
397.4	2.470
397.6	2.507
397.8	2.454
398.0	2.442
398.2	2.458
398.4	2.351
398.6	2.433
398.8	2.480
399.0	2.455
399.2	2.604
399.4	2.642
399.6	2.579
399.8	2.570
400.0	2.554
400.2	2.527
400.4	2.695
400.6	2.767
400.8	2.959
401.0	2.967
401.2	2.920
401.4	2.907
401.6	2.986
401.8	3.104
402.0	3.244
402.2	3.079
402.4	3.061
402.6	3.116
402.8	3.319
403.0	3.499
403.2	3.755
403.4	3.892
403.6	3.957
403.8	4.060
404.0	3.955
404.2	3.752
404.4	3.785
404.6	3.791
404.8	3.848
405.0	4.153
405.2	4.427
405.4	4.487
405.6	4.731
405.8	4.728
406.0	4.809
406.2	5.010
406.4	5.398
406.6	5.698
406.8	5.948
407.0	6.219
407.2	6.163
407.4	6.086
407.6	6.179
407.8	6.667
408.0	6.804
408.2	7.075
408.4	7.124
408.6	7.412
408.8	7.710
409.0	8.273
409.2	8.445
409.4	8.662
409.6	8.892
409.8	9.229
410.0	9.571
410.2	9.813
410.4	10.13
410.6	10.44
410.8	10.80
411.0	10.96
411.2	11.22
411.4	11.29
411.6	11.70
411.8	12.59
412.0	13.26
412.2	13.69
412.4	13.94
412.6	13.95
412.8	14.06
413.0	14.86
413.2	15.44
413.4	16.30
413.6	17.09
413.8	17.73
414.0	18.36
414.2	18.75
414.4	19.38
414.6	19.66
414.8	20.05
415.0	20.58
415.2	21.74
415.4	22.51
415.6	23.39
415.8	24.01
416.0	24.65
416.2	25.18
416.4	26.04
416.6	26.48
416.8	27.23
417.0	28.32
417.2	29.18
417.4	30.23
417.6	31.70
417.8	32.35
418.0	33.36
418.2	34.36
418.4	34.81
418.6	35.74
418.8	36.99
419.0	37.84
419.2	39.10
419.4	40.20
419.6	41.02
419.8	42.16
420.0	43.25
420.2	44.27
420.4	45.53
420.6	47.04
420.8	47.92
421.0	49.15
421.2	50.53
421.4	51.26
421.6	53.17
421.8	55.15
422.0	56.51
422.2	57.85
422.4	58.73
422.6	59.25
422.8	60.87
423.0	63.08
423.2	64.90
423.4	66.25
423.6	67.01
423.8	68.43
424.0	70.60
424.2	73.04
424.4	74.55
424.6	75.39
424.8	76.61
425.0	77.93
425.2	80.47
425.4	82.36
425.6	83.71
425.8	84.69
426.0	86.23
426.2	87.40
426.4	89.04
426.6	90.44
426.8	92.07
427.0	93.55
427.2	95.63
427.4	98.07
427.6	99.72
427.8	101.6
428.0	103.5
428.2	104.8
428.4	106.6
428.6	108.6
428.8	109.6
429.0	110.4
429.2	111.7
429.4	113.8
429.6	117.2
429.8	120.7
430.0	123.8
430.2	125.9
430.4	127.0
430.6	126.9
430.8	128.0
431.0	129.8
431.2	132.3
431.4	135.8
431.6	138.7
431.8	139.8
432.0	140.4
432.2	142.0
432.4	142.8
432.6	144.3
432.8	146.5
433.0	148.4
433.2	149.9
433.4	152.5
433.6	154.1
433.8	155.7
434.0	158.1
434.2	160.2
434.4	162.3
434.6	164.4
434.8	165.7
435.0	168.9
435.2	170.6
435.4	172.8
435.6	174.5
435.8	175.6
436.0	176.2
436.2	179.0
436.4	179.0
436.6	180.5
436.8	182.0
437.0	183.8
437.2	185.5
437.4	188.2
437.6	189.9
437.8	191.0
438.0	192.0
438.2	193.9
438.4	195.9
438.6	199.2
438.8	202.0
439.0	204.2
439.2	205.4
439.4	206.0
439.6	207.0
439.8	208.8
440.0	210.1
440.2	211.6
440.4	213.3
440.6	215.1
440.8	218.4
441.0	221.2
441.2	222.8
441.4	223.6
441.6	223.7
441.8	224.5
442.0	226.2
442.2	229.1
442.4	231.0
442.6	233.4
442.8	234.0
443.0	235.3
443.2	236.3
443.4	238.3
443.6	240.3
443.8	242.0
444.0	243.0
444.2	243.9
444.4	246.1
444.6	248.2
444.8	251.7
445.0	255.2
445.2	257.6
445.4	258.4
445.6	260.0
445.8	261.7
446.0	264.3
446.2	267.4
446.4	270.0
446.6	271.3
446.8	272.0
447.0	273.2
447.2	273.2
447.4	272.7
447.6	274.9
447.8	278.4
448.0	282.1
448.2	285.2
448.4	285.1
448.6	284.7
448.8	285.6
449.0	288.0
449.2	291.5
449.4	293.6
449.6	296.3
449.8	300.7
450.0	304.3
450.2	305.9
450.4	306.9
450.6	306.7
450.8	307.5
451.0	309.8
451.2	312.8
451.4	316.9
451.6	320.5
451.8	322.4
452.0	324.4
452.2	325.4
452.4	325.9
452.6	328.7
452.8	331.9
453.0	333.9
453.2	338.4
453.4	341.3
453.6	343.6
453.8	345.0
454.0	346.3
454.2	347.8
454.4	351.0
454.6	353.2
454.8	356.3
455.0	359.1
455.2	361.8
455.4	365.0
455.6	367.1
455.8	368.7
456.0	371.4
456.2	373.6
456.4	375.7
456.6	378.4
456.8	379.6
457.0	384.0
457.2	389.3
457.4	392.8
457.6	395.1
457.8	397.3
458.0	397.8
458.2	401.9
458.4	404.2
458.6	406.7
458.8	410.7
459.0	413.6
459.2	416.8
459.4	421.6
459.6	423.9
459.8	426.5
460.0	430.9
460.2	432.3
460.4	435.2
460.6	437.3
460.8	440.0
461.0	443.4
461.2	447.5
461.4	452.4
461.6	456.6
461.8	457.2
462.0	460.6
462.2	462.4
462.4	464.5
462.6	468.1
462.8	470.2
463.0	472.4
463.2	477.3
463.4	481.6
463.6	484.8
463.8	485.7
464.0	486.6
464.2	487.3
464.4	490.1
464.6	495.1
464.8	500.7
465.0	504.4
465.2	509.3
465.4	512.8
465.6	515.6
465.8	517.5
466.0	520.3
466.2	522.7
466.4	527.2
466.6	531.7
466.8	537.3
467.0	539.3
467.2	541.9
467.4	544.5
467.6	544.8
467.8	546.7
468.0	551.5
468.2	554.3
468.4	559.4
468.6	564.0
468.8	564.5
469.0	568.5
469.2	572.7
469.4	577.2
469.6	580.9
469.8	581.4
470.0	583.4
470.2	587.2
470.4	589.0
470.6	592.8
470.8	595.1
471.0	596.4
471.2	600.8
471.4	604.7
471.6	606.8
471.8	611.3
472.0	615.9
472.2	619.0
472.4	619.2
472.6	619.6
472.8	623.5
473.0	627.8
473.2	634.0
473.4	635.4
473.6	634.2
473.8	635.9
474.0	641.6
474.2	645.0
474.4	648.4
474.6	647.3
474.8	646.4
475.0	650.0
475.2	654.8
475.4	658.4
475.6	661.5
475.8	666.3
476.0	670.4
476.2	674.7
476.4	675.4
476.6	675.0
476.8	674.7
477.0	675.5
477.2	677.0
477.4	681.5
477.6	684.5
477.8	687.6
478.0	690.3
478.2	690.0
478.4	691.6
478.6	694.1
478.8	696.5
479.0	698.2
479.2	702.1
479.4	703.6
479.6	704.8
479.8	706.8
480.0	707.1
480.2	708.2
480.4	712.1
480.6	715.5
480.8	717.2
481.0	719.9
481.2	720.7
481.4	721.4
481.6	723.6
481.8	726.8
482.0	729.6
482.2	731.4
482.4	732.5
482.6	731.8
482.8	732.1
483.0	734.0
483.2	737.7
483.4	740.5
483.6	744.1
483.8	744.3
484.0	744.1
484.2	743.3
484.4	744.9
484.6	745.7
484.8	747.6
485.0	749.4
485.2	751.3
485.4	753.1
485.6	753.5
485.8	754.1
486.0	755.5
486.2	756.3
486.4	760.1
486.6	764.0
486.8	763.6
487.0	763.2
487.2	763.8
487.4	761.1
487.6	763.1
487.8	765.8
488.0	767.3
488.2	768.0
488.4	768.4
488.6	767.2
488.8	766.8
489.0	767.8
489.2	768.2
489.4	770.4
489.6	771.9
489.8	773.4
490.0	774.0
490.2	771.8
490.4	771.3
490.6	771.4
490.8	769.8
491.0	768.2
491.2	768.3
491.4	769.1
491.6	771.8
491.8	773.7
492.0	773.0
492.2	771.5
492.4	769.6
492.6	771.2
492.8	770.6
493.0	771.5
493.2	773.9
493.4	775.0
493.6	774.9
493.8	776.1
494.0	776.4
494.2	776.6
494.4	776.1
494.6	773.4
494.8	771.8
495.0	772.9
495.2	773.6
495.4	773.6
495.6	771.1
495.8	767.6
496.0	765.5
496.2	766.5
496.4	766.8
496.6	768.9
496.8	770.7
497.0	768.9
497.2	765.5
497.4	763.0
497.6	761.6
497.8	760.9
498.0	760.6
498.2	758.1
498.4	755.5
498.6	754.4
498.8	754.3
499.0	755.3
499.2	756.3
499.4	756.3
499.6	755.9
499.8	756.7
500.0	753.9
500.2	753.6
500.4	752.8
500.6	750.5
500.8	749.2
501.0	747.2
501.2	744.8
501.4	744.3
501.6	744.3
501.8	743.9
502.0	743.2
502.2	739.1
502.4	737.5
502.6	736.2
502.8	734.1
503.0	732.8
503.2	730.9
503.4	728.2
503.6	727.2
503.8	727.8
504.0	723.6
504.2	721.7
504.4	722.8
504.6	723.6
504.8	725.6
505.0	725.5
505.2	721.3
505.4	718.2
505.6	717.5
505.8	716.3
506.0	715.1
506.2	711.7
506.4	708.5
506.6	707.1
506.8	706.1
507.0	706.4
507.2	705.4
507.4	704.3
507.6	699.9
507.8	698.6
508.0	697.0
508.2	695.7
508.4	693.2
508.6	692.9
508.8	690.2
509.0	689.4
509.2	688.8
509.4	688.3
509.6	685.4
509.8	682.3
510.0	679.8
510.2	677.3
510.4	676.9
510.6	677.4
510.8	675.2
511.0	670.6
511.2	668.0
511.4	665.5
511.6	665.7
511.8	667.1
512.0	666.6
512.2	664.6
512.4	660.2
512.6	656.5
512.8	655.6
513.0	656.2
513.2	655.3
513.4	654.5
513.6	650.0
513.8	646.2
514.0	644.5
514.2	644.2
514.4	641.2
514.6	639.5
514.8	637.0
515.0	634.9
515.2	634.8
515.4	633.2
515.6	628.3
515.8	624.5
516.0	622.1
516.2	623.0
516.4	625.2
516.6	624.8
516.8	622.1
517.0	617.7
517.2	613.1
517.4	609.8
517.6	607.9
517.8	606.9
518.0	608.8
518.2	608.2
518.4	607.8
518.6	606.5
518.8	603.9
519.0	599.9
519.2	597.9
519.4	595.5
519.6	593.8
519.8	593.7
520.0	591.7
520.2	589.3
520.4	586.4
520.6	585.8
520.8	583.2
521.0	583.8
521.2	583.1
521.4	581.9
521.6	576.7
521.8	572.0
522.0	570.0
522.2	569.0
522.4	569.2
522.6	568.4
522.8	566.4
523.0	565.5
523.2	566.7
523.4	564.3
523.6	561.6
523.8	560.6
524.0	559.7
524.2	560.0
524.4	560.2
524.6	555.8
524.8	552.4
525.0	549.5
525.2	545.3
525.4	543.5
525.6	544.7
525.8	543.1
526.0	542.6
526.2	540.7
526.4	540.0
526.6	539.7
526.8	540.0
527.0	537.6
527.2	534.1
527.4	530.7
527.6	528.3
527.8	526.7
528.0	525.0
528.2	525.2
528.4	524.6
528.6	523.2
528.8	522.1
529.0	520.6
529.2	517.4
529.4	515.5
529.6	511.7
529.8	510.6
530.0	510.1
530.2	508.4
530.4	507.9
530.6	506.7
530.8	505.3
531.0	504.1
531.2	502.8
531.4	498.3
531.6	497.4
531.8	497.4
532.0	497.5
532.2	496.4
532.4	495.1
532.6	490.8
532.8	488.1
533.0	486.7
533.2	484.2
533.4	483.5
533.6	482.5
533.8	481.1
534.0	479.0
534.2	477.7
534.4	475.6
534.6	476.1
534.8	477.6
535.0	474.7
535.2	472.4
535.4	470.2
535.6	468.3
535.8	466.5
536.0	466.1
536.2	463.0
536.4	462.5
536.6	461.4
536.8	459.1
537.0	457.0
537.2	456.4
537.4	455.2
537.6	453.6
537.8	452.0
538.0	448.5
538.2	447.7
538.4	446.2
538.6	442.9
538.8	441.6
539.0	439.9
539.2	440.1
539.4	439.9
539.6	437.8
539.8	434.8
540.0	433.4
540.2	431.2
540.4	430.5
540.6	429.4
540.8	426.1
541.0	423.0
541.2	422.8
541.4	421.9
541.6	420.5
541.8	420.9
542.0	418.1
542.2	416.5
542.4	415.5
542.6	413.6
542.8	412.6
543.0	411.9
543.2	410.3
543.4	407.8
543.6	405.1
543.8	402.8
544.0	402.5
544.2	400.2
544.4	398.0
544.6	395.3
544.8	393.1
545.0	391.9
545.2	389.9
545.4	387.6
545.6	386.1
545.8	384.5
546.0	382.3
546.2	382.1
546.4	378.9
546.6	378.0
546.8	376.2
547.0	374.9
547.2	372.4
547.4	372.2
547.6	370.8
547.8	369.2
548.0	367.0
548.2	365.2
548.4	361.6
548.6	362.0
548.8	360.9
549.0	360.2
549.2	359.8
549.4	357.8
549.6	355.7
549.8	354.2
550.0	350.5
550.2	348.0
550.4	346.5
550.6	344.6
550.8	344.0
551.0	342.4
551.2	340.8
551.4	339.3
551.6	338.5
551.8	336.5
552.0	334.6
552.2	331.8
552.4	330.8
552.6	329.0
552.8	328.7
553.0	326.8
553.2	325.9
553.4	324.2
553.6	323.6
553.8	321.0
554.0	319.2
554.2	315.6
554.4	314.1
554.6	312.7
554.8	311.9
555.0	310.8
555.2	309.4
555.4	307.5
555.6	305.5
555.8	304.0
556.0	302.7
556.2	302.1
556.4	301.9
556.6	301.0
556.8	299.5
557.0	297.3
557.2	295.0
557.4	292.8
557.6	291.3
557.8	289.2
558.0	288.5
558.2	287.3
558.4	286.0
558.6	283.8
558.8	282.4
559.0	279.9
559.2	279.8
559.4	279.7
559.6	278.9
559.8	276.1
560.0	274.3
560.2	271.4
560.4	269.8
560.6	268.2
560.8	268.0
561.0	266.4
561.2	266.4
561.4	265.8
561.6	264.4
561.8	262.5
562.0	262.4
562.2	259.8
562.4	258.0
562.6	257.4
562.8	256.8
563.0	254.2
563.2	253.0
563.4	250.1
563.6	249.7
563.8	249.5
564.0	249.8
564.2	248.1
564.4	246.8
564.6	245.1
564.8	243.1
565.0	239.4
565.2	237.3
565.4	236.7
565.6	237.7
565.8	237.6
566.0	235.9
566.2	233.6
566.4	232.2
566.6	231.3
566.8	230.8
567.0	230.2
567.2	227.7
567.4	226.0
567.6	224.8
567.8	224.9
568.0	223.8
568.2	223.4
568.4	221.0
568.6	220.7
568.8	219.3
569.0	220.3
569.2	219.7
569.4	217.5
569.6	215.9
569.8	214.7
570.0	213.4
570.2	212.3
570.4	212.3
570.6	210.4
570.8	209.2
571.0	207.6
571.2	206.6
571.4	204.7
571.6	203.6
571.8	203.1
572.0	203.0
572.2	202.5
572.4	202.3
572.6	200.9
572.8	197.9
573.0	196.5
573.2	196.9
573.4	197.6
573.6	197.7
573.8	196.3
574.0	194.3
574.2	192.2
574.4	190.9
574.6	189.7
574.8	188.1
575.0	186.7
575.2	186.7
575.4	186.4
575.6	185.5
575.8	185.1
576.0	184.8
576.2	183.3
576.4	182.3
576.6	180.4
576.8	178.5
577.0	178.4
577.2	178.2
577.4	178.2
577.6	177.0
577.8	176.2
578.0	174.9
578.2	174.6
578.4	172.7
578.6	171.3
578.8	170.2
579.0	170.1
579.2	169.8
579.4	170.0
579.6	169.1
579.8	168.1
580.0	167.0
580.2	165.3
580.4	164.3
580.6	163.2
580.8	162.0
581.0	161.7
581.2	161.3
581.4	161.0
581.6	161.1
581.8	160.2
582.0	158.6
582.2	157.2
582.4	155.9
582.6	155.3
582.8	154.6
583.0	155.4
583.2	154.5
583.4	153.4
583.6	151.3
583.8	149.8
584.0	149.0
584.2	149.5
584.4	148.9
584.6	148.7
584.8	147.9
585.0	147.7
585.2	147.0
585.4	146.4
585.6	144.5
585.8	142.6
586.0	142.2
586.2	141.5
586.4	141.0
586.6	140.3
586.8	139.3
587.0	138.6
587.2	138.2
587.4	137.3
587.6	136.3
587.8	135.6
588.0	134.2
588.2	133.8
588.4	133.9
588.6	133.9
588.8	134.0
589.0	133.3
589.2	131.6
589.4	130.7
589.6	129.5
589.8	128.7
590.0	128.2
590.2	126.6
590.4	126.1
590.6	126.0
590.8	126.4
591.0	126.4
591.2	124.9
591.4	122.9
591.6	120.9
591.8	120.2
592.0	121.1
592.2	121.1
592.4	119.8
592.6	118.1
592.8	117.1
593.0	116.8
593.2	117.0
593.4	116.8
593.6	115.2
593.8	114.0
594.0	113.0
594.2	113.0
594.4	112.7
594.6	111.9
594.8	111.0
595.0	111.2
595.2	110.5
595.4	110.2
595.6	109.2
595.8	108.4
596.0	108.0
596.2	108.7
596.4	108.8
596.6	108.2
596.8	107.2
597.0	106.1
597.2	104.6
597.4	102.8
597.6	101.2
597.8	99.97
598.0	100.6
598.2	101.2
598.4	101.5
598.6	100.7
598.8	100.1
599.0	97.98
599.2	98.43
599.4	97.52
599.6	96.69
599.8	95.82
600.0	95.62
600.2	94.58
600.4	95.33
600.6	94.27
600.8	94.07
601.0	93.47
601.2	93.24
601.4	92.93
601.6	92.59
601.8	91.19
602.0	90.63
602.2	90.11
602.4	89.78
602.6	88.97
602.8	88.09
603.0	87.13
603.2	86.54
603.4	86.47
603.6	86.48
603.8	86.82
604.0	87.14
604.2	86.99
604.4	86.63
604.6	84.86
604.8	83.15
605.0	82.93
605.2	82.29
605.4	81.64
605.6	80.95
605.8	80.35
606.0	80.33
606.2	80.76
606.4	80.50
606.6	79.22
606.8	77.57
607.0	77.13
607.2	77.28
607.4	76.97
607.6	76.82
607.8	76.44
608.0	75.07
608.2	74.02
608.4	73.63
608.6	73.05
608.8	72.75
609.0	73.04
609.2	72.17
609.4	71.99
609.6	71.94
609.8	71.91
610.0	72.07
610.2	71.31
610.4	69.92
610.6	69.12
610.8	68.32
611.0	68.16
611.2	69.13
611.4	68.64
611.6	67.98
611.8	67.37
612.0	66.43
612.2	65.73
612.4	65.41
612.6	64.91
612.8	64.88
613.0	64.85
613.2	64.69
613.4	64.32
613.6	63.78
613.8	63.65
614.0	63.45
614.2	63.10
614.4	62.46
614.6	61.57
614.8	61.26
615.0	61.26
615.2	61.33
615.4	60.85
615.6	60.31
615.8	59.51
616.0	58.96
616.2	58.58
616.4	58.84
616.6	58.02
616.8	58.35
617.0	58.45
617.2	57.49
617.4	56.48
617.6	56.29
617.8	55.63
618.0	55.95
618.2	56.07
618.4	55.11
618.6	54.26
618.8	53.87
619.0	54.05
619.2	54.02
619.4	54.46
619.6	54.26
619.8	53.81
620.0	52.91
620.2	52.64
620.4	51.63
620.6	50.98
620.8	50.68
621.0	50.61
621.2	50.40
621.4	50.25
621.6	49.76
621.8	48.97
622.0	48.47
622.2	47.72
622.4	47.73
622.6	47.56
622.8	47.97
623.0	48.13
623.2	48.38
623.4	47.81
623.6	47.91
623.8	47.18
624.0	46.85
624.2	46.50
624.4	46.24
624.6	46.20
624.8	45.76
625.0	45.26
625.2	44.66
625.4	44.15
625.6	44.19
625.8	44.17
626.0	43.60
626.2	44.12
626.4	43.45
626.6	42.93
626.8	43.06
627.0	42.66
627.2	42.50
627.4	42.34
627.6	41.76
627.8	40.99
628.0	40.52
628.2	40.32
628.4	40.07
628.6	39.49
628.8	39.85
629.0	39.62
629.2	39.66
629.4	39.02
629.6	38.38
629.8	38.27
630.0	38.88
630.2	38.95
630.4	38.70
630.6	38.01
630.8	37.72
631.0	37.34
631.2	36.98
631.4	36.42
631.6	35.86
631.8	35.69
632.0	35.83
632.2	35.67
632.4	35.68
632.6	35.79
632.8	35.19
633.0	34.77
633.2	34.55
633.4	34.22
633.6	34.32
633.8	34.40
634.0	33.59
634.2	32.64
634.4	32.62
634.6	32.96
634.8	33.01
635.0	33.22
635.2	32.87
635.4	31.88
635.6	31.66
635.8	31.77
636.0	31.32
636.2	31.52
636.4	31.07
636.6	30.83
636.8	30.71
637.0	30.71
637.2	30.17
637.4	29.86
637.6	29.02
637.8	29.06
638.0	29.47
638.2	29.93
638.4	29.85
638.6	29.52
638.8	28.89
639.0	28.54
639.2	28.27
639.4	28.09
639.6	28.00
639.8	27.80
640.0	27.70
640.2	27.41
640.4	26.96
640.6	26.91
640.8	27.14
641.0	27.30
641.2	27.34
641.4	26.98
641.6	26.12
641.8	25.66
642.0	25.50
642.2	25.31
642.4	25.71
642.6	25.66
642.8	25.41
643.0	25.11
643.2	25.19
643.4	25.18
643.6	25.39
643.8	25.15
644.0	24.68
644.2	24.18
644.4	23.89
644.6	23.69
644.8	23.09
645.0	23.22
645.2	23.24
645.4	23.39
645.6	23.27
645.8	22.70
646.0	22.24
646.2	22.28
646.4	21.96
646.6	22.29
646.8	22.22
647.0	21.71
647.2	21.86
647.4	21.70
647.6	21.50
647.8	21.58
648.0	21.15
648.2	20.70
648.4	20.59
648.6	20.48
648.8	20.45
649.0	20.41
649.2	20.22
649.4	20.32
649.6	20.48
649.8	20.47
650.0	20.20
650.2	19.72
650.4	19.62
650.6	19.53
650.8	19.32
651.0	18.96
651.2	19.06
651.4	18.67
651.6	18.68
651.8	18.36
652.0	18.21
652.2	18.14
652.4	18.23
652.6	18.55
652.8	18.89
653.0	18.54
653.2	18.28
653.4	18.14
653.6	18.00
653.8	18.01
654.0	18.17
654.2	17.89
654.4	17.85
654.6	17.63
654.8	17.29
655.0	16.47
655.2	16.01
655.4	15.94
655.6	16.39
655.8	16.57
656.0	16.36
656.2	16.26
656.4	16.15
656.6	15.88
656.8	16.01
657.0	15.98
657.2	15.83
657.4	15.75
657.6	15.93
657.8	15.86
658.0	15.86
658.2	15.72
658.4	15.45
658.6	15.19
658.8	15.14
659.0	15.06
659.2	14.71
659.4	14.55
659.6	14.70
659.8	14.77
660.0	14.59
660.2	14.56
660.4	14.33
660.6	14.09
660.8	14.12
661.0	13.99
661.2	13.98
661.4	13.96
661.6	13.98
661.8	14.00
662.0	13.68
662.2	13.39
662.4	13.55
662.6	13.36
662.8	13.34
663.0	13.52
663.2	13.55
