Sample:	'20211010A(EM)
File name:	B-CDS 9.FDS
Run date:	'14:31:08, 06/08/2023
Operator:	Administrator
Comment:	'

Instrument
Model:	F-4700 FL Spectrophotometer
Serial number:	2019-001
ROM Version:	5J24010 00

Instrument parameters
Measurement type:	Wavelength scan
Scan mode:	Emission
Data mode:	Fluorescence
EX WL:	350.0 nm
EM  Start WL:	370.0 nm
EM  End WL:	680.0 nm
Scan speed:	1200 nm/min
Delay:	0.0 s
EX Slit:	10.0 nm
EM Slit:	10.0 nm
PMT Voltage:	550 V
Response:	0.002 s
Corrected spectra:	Off
Shutter control:	On

Processing performed
Savitsky-Golay smoothed
Smoothing order:	3
Number of points:	7
Number of times:	1

Peak integration
Integration method:	Rectangular
Sensitivity:	1
Threshold:	1.000

Peaks
No.	Start(nm)	Apex(nm)	End(nm)	Height(Data)	Valley(nm)	Valley(Data)
1	370.0	371.4	373.8	7.957	373.8	6.770
2	373.8	374.6	378.2	8.273	378.2	6.709
3	378.2	381.4	382.8	8.949	382.8	7.206
4	382.8	385.2	386.0	8.689	386.0	7.117
5	386.0	388.4	390.6	9.426	390.6	8.341
6	390.6	393.0	393.4	10.32	393.4	8.799
7	393.4	487.0	487.8	3460	487.8	3432
8	487.8	488.8	489.6	3492	489.6	3454
9	489.6	491.6	495.8	3500	495.8	3440
10	495.8	497.0	648.4	3462	648.4	154.6
11	648.4	649.2	665.6	157.5	665.6	92.42
12	665.6	666.4	668.2	96.05	668.2	83.85
13	668.2	669.2	676.8	88.90	676.8	66.86
14	676.8	677.2	680.0	68.70	680.0	64.40

Data points
nm	Data
370.0	6.576
370.2	7.527
370.4	7.359
370.6	6.697
370.8	6.514
371.0	6.881
371.2	7.680
371.4	7.957
371.6	7.860
371.8	7.593
372.0	7.512
372.2	7.604
372.4	7.767
372.6	7.224
372.8	7.256
373.0	6.883
373.2	6.966
373.4	6.831
373.6	6.854
373.8	6.770
374.0	7.670
374.2	7.818
374.4	8.123
374.6	8.273
374.8	7.878
375.0	7.887
375.2	8.186
375.4	8.026
375.6	7.264
375.8	7.075
376.0	7.293
376.2	7.798
376.4	7.945
376.6	7.955
376.8	7.311
377.0	7.015
377.2	7.306
377.4	7.818
377.6	7.760
377.8	7.712
378.0	7.112
378.2	6.709
378.4	6.736
378.6	7.427
378.8	7.434
379.0	7.743
379.2	7.762
379.4	7.464
379.6	7.496
379.8	7.744
380.0	7.212
380.2	7.208
380.4	7.523
380.6	7.422
380.8	8.001
381.0	8.834
381.2	8.692
381.4	8.949
381.6	8.619
381.8	8.216
382.0	8.156
382.2	8.429
382.4	7.855
382.6	7.820
382.8	7.206
383.0	7.561
383.2	7.615
383.4	7.911
383.6	8.043
383.8	7.857
384.0	8.253
384.2	8.604
384.4	8.314
384.6	8.197
384.8	8.467
385.0	8.608
385.2	8.689
385.4	8.493
385.6	7.938
385.8	7.297
386.0	7.117
386.2	7.277
386.4	7.463
386.6	7.948
386.8	7.872
387.0	7.974
387.2	8.158
387.4	8.327
387.6	8.648
387.8	8.695
388.0	9.046
388.2	9.228
388.4	9.426
388.6	8.948
388.8	8.714
389.0	8.805
389.2	9.189
389.4	8.647
389.6	8.658
389.8	8.387
390.0	8.616
390.2	8.997
390.4	8.898
390.6	8.341
390.8	8.797
391.0	9.065
391.2	9.323
391.4	9.542
391.6	9.605
391.8	9.187
392.0	9.183
392.2	9.055
392.4	9.374
392.6	9.910
392.8	10.24
393.0	10.32
393.2	9.759
393.4	8.799
393.6	9.301
393.8	9.280
394.0	9.270
394.2	9.976
394.4	10.19
394.6	9.794
394.8	11.06
395.0	10.93
395.2	11.00
395.4	11.16
395.6	11.01
395.8	10.96
396.0	11.50
396.2	11.29
396.4	11.42
396.6	11.73
396.8	11.76
397.0	11.77
397.2	12.37
397.4	12.59
397.6	13.03
397.8	13.40
398.0	14.31
398.2	14.66
398.4	14.95
398.6	14.86
398.8	14.93
399.0	15.01
399.2	15.46
399.4	16.10
399.6	17.36
399.8	17.62
400.0	18.02
400.2	18.54
400.4	17.83
400.6	18.32
400.8	19.60
401.0	19.40
401.2	19.15
401.4	20.25
401.6	20.84
401.8	22.72
402.0	22.89
402.2	22.97
402.4	22.63
402.6	23.09
402.8	24.64
403.0	26.65
403.2	26.91
403.4	28.94
403.6	29.55
403.8	30.62
404.0	32.55
404.2	34.72
404.4	34.69
404.6	34.90
404.8	36.24
405.0	38.70
405.2	40.78
405.4	42.40
405.6	41.99
405.8	41.22
406.0	43.96
406.2	46.28
406.4	48.65
406.6	51.39
406.8	53.86
407.0	56.43
407.2	58.41
407.4	60.71
407.6	61.31
407.8	63.11
408.0	64.94
408.2	68.67
408.4	71.46
408.6	76.17
408.8	78.75
409.0	81.63
409.2	84.42
409.4	87.39
409.6	90.13
409.8	93.50
410.0	95.79
410.2	99.34
410.4	103.1
410.6	108.5
410.8	113.4
411.0	119.6
411.2	122.3
411.4	126.0
411.6	128.8
411.8	134.9
412.0	140.3
412.2	146.0
412.4	148.8
412.6	154.4
412.8	157.4
413.0	164.7
413.2	170.2
413.4	177.2
413.6	182.6
413.8	189.9
414.0	195.1
414.2	203.2
414.4	206.2
414.6	212.1
414.8	216.7
415.0	226.4
415.2	236.4
415.4	249.8
415.6	256.4
415.8	264.5
416.0	269.5
416.2	278.7
416.4	284.3
416.6	295.2
416.8	303.0
417.0	312.8
417.2	321.2
417.4	328.8
417.6	333.2
417.8	342.2
418.0	350.7
418.2	362.2
418.4	374.5
418.6	379.9
418.8	389.1
419.0	402.2
419.2	414.3
419.4	429.9
419.6	443.5
419.8	453.9
420.0	463.1
420.2	474.8
420.4	485.7
420.6	498.5
420.8	507.5
421.0	521.6
421.2	528.7
421.4	538.4
421.6	550.6
421.8	566.0
422.0	581.4
422.2	599.4
422.4	609.7
422.6	619.1
422.8	628.5
423.0	635.1
423.2	648.1
423.4	662.1
423.6	672.5
423.8	684.4
424.0	701.9
424.2	717.8
424.4	735.4
424.6	755.2
424.8	770.3
425.0	777.9
425.2	794.8
425.4	810.6
425.6	824.6
425.8	842.0
426.0	857.4
426.2	867.8
426.4	882.9
426.6	890.7
426.8	908.4
427.0	921.2
427.2	938.9
427.4	952.3
427.6	967.2
427.8	972.0
428.0	988.0
428.2	1004
428.4	1016
428.6	1024
428.8	1034
429.0	1047
429.2	1060
429.4	1081
429.6	1100
429.8	1110
430.0	1125
430.2	1141
430.4	1148
430.6	1162
430.8	1179
431.0	1189
431.2	1214
431.4	1233
431.6	1239
431.8	1246
432.0	1251
432.2	1259
432.4	1277
432.6	1294
432.8	1315
433.0	1326
433.2	1344
433.4	1354
433.6	1366
433.8	1373
434.0	1395
434.2	1404
434.4	1419
434.6	1428
434.8	1437
435.0	1443
435.2	1459
435.4	1469
435.6	1480
435.8	1495
436.0	1504
436.2	1514
436.4	1535
436.6	1551
436.8	1569
437.0	1584
437.2	1585
437.4	1588
437.6	1596
437.8	1607
438.0	1626
438.2	1635
438.4	1642
438.6	1654
438.8	1665
439.0	1674
439.2	1688
439.4	1688
439.6	1689
439.8	1702
440.0	1710
440.2	1721
440.4	1734
440.6	1739
440.8	1747
441.0	1754
441.2	1773
441.4	1802
441.6	1816
441.8	1826
442.0	1829
442.2	1819
442.4	1828
442.6	1836
442.8	1843
443.0	1851
443.2	1868
443.4	1876
443.6	1891
443.8	1906
444.0	1918
444.2	1920
444.4	1922
444.6	1927
444.8	1936
445.0	1952
445.2	1957
445.4	1960
445.6	1962
445.8	1979
446.0	1987
446.2	2007
446.4	2016
446.6	2020
446.8	2026
447.0	2034
447.2	2037
447.4	2046
447.6	2045
447.8	2046
448.0	2057
448.2	2069
448.4	2083
448.6	2087
448.8	2096
449.0	2099
449.2	2117
449.4	2122
449.6	2127
449.8	2132
450.0	2139
450.2	2145
450.4	2157
450.6	2159
450.8	2173
451.0	2186
451.2	2188
451.4	2195
451.6	2199
451.8	2204
452.0	2219
452.2	2225
452.4	2237
452.6	2243
452.8	2250
453.0	2252
453.2	2257
453.4	2263
453.6	2283
453.8	2291
454.0	2296
454.2	2302
454.4	2306
454.6	2318
454.8	2327
455.0	2332
455.2	2334
455.4	2352
455.6	2362
455.8	2374
456.0	2380
456.2	2384
456.4	2390
456.6	2407
456.8	2425
457.0	2442
457.2	2448
457.4	2453
457.6	2455
457.8	2459
458.0	2474
458.2	2489
458.4	2497
458.6	2505
458.8	2515
459.0	2524
459.2	2542
459.4	2546
459.6	2547
459.8	2555
460.0	2567
460.2	2579
460.4	2589
460.6	2586
460.8	2594
461.0	2603
461.2	2614
461.4	2629
461.6	2642
461.8	2658
462.0	2678
462.2	2680
462.4	2680
462.6	2687
462.8	2695
463.0	2710
463.2	2736
463.4	2750
463.6	2753
463.8	2755
464.0	2754
464.2	2751
464.4	2758
464.6	2772
464.8	2780
465.0	2798
465.2	2807
465.4	2815
465.6	2821
465.8	2833
466.0	2836
466.2	2844
466.4	2842
466.6	2847
466.8	2865
467.0	2882
467.2	2891
467.4	2900
467.6	2903
467.8	2909
468.0	2923
468.2	2944
468.4	2958
468.6	2968
468.8	2971
469.0	2971
469.2	2971
469.4	2972
469.6	2977
469.8	2985
470.0	2989
470.2	2997
470.4	3005
470.6	3006
470.8	3015
471.0	3028
471.2	3042
471.4	3051
471.6	3058
471.8	3062
472.0	3063
472.2	3072
472.4	3088
472.6	3088
472.8	3103
473.0	3105
473.2	3108
473.4	3121
473.6	3128
473.8	3134
474.0	3153
474.2	3153
474.4	3153
474.6	3151
474.8	3141
475.0	3148
475.2	3160
475.4	3171
475.6	3182
475.8	3192
476.0	3195
476.2	3211
476.4	3216
476.6	3220
476.8	3218
477.0	3217
477.2	3224
477.4	3241
477.6	3254
477.8	3259
478.0	3259
478.2	3264
478.4	3277
478.6	3281
478.8	3282
479.0	3282
479.2	3266
479.4	3268
479.6	3292
479.8	3307
480.0	3326
480.2	3340
480.4	3329
480.6	3328
480.8	3343
481.0	3345
481.2	3345
481.4	3339
481.6	3338
481.8	3342
482.0	3351
482.2	3364
482.4	3371
482.6	3383
482.8	3393
483.0	3385
483.2	3384
483.4	3387
483.6	3385
483.8	3380
484.0	3385
484.2	3388
484.4	3407
484.6	3423
484.8	3433
485.0	3434
485.2	3425
485.4	3418
485.6	3418
485.8	3422
486.0	3431
486.2	3449
486.4	3453
486.6	3451
486.8	3460
487.0	3460
487.2	3456
487.4	3450
487.6	3442
487.8	3432
488.0	3441
488.2	3444
488.4	3465
488.6	3478
488.8	3492
489.0	3480
489.2	3472
489.4	3457
489.6	3454
489.8	3462
490.0	3478
490.2	3468
490.4	3469
490.6	3456
490.8	3457
491.0	3475
491.2	3489
491.4	3491
491.6	3500
491.8	3492
492.0	3491
492.2	3484
492.4	3483
492.6	3479
492.8	3476
493.0	3467
493.2	3463
493.4	3466
493.6	3482
493.8	3478
494.0	3464
494.2	3452
494.4	3451
494.6	3451
494.8	3464
495.0	3458
495.2	3457
495.4	3458
495.6	3450
495.8	3440
496.0	3449
496.2	3452
496.4	3451
496.6	3458
496.8	3460
497.0	3462
497.2	3457
497.4	3446
497.6	3432
497.8	3428
498.0	3422
498.2	3423
498.4	3413
498.6	3410
498.8	3418
499.0	3416
499.2	3409
499.4	3406
499.6	3399
499.8	3404
500.0	3412
500.2	3410
500.4	3402
500.6	3387
500.8	3369
501.0	3363
501.2	3364
501.4	3363
501.6	3363
501.8	3362
502.0	3354
502.2	3339
502.4	3345
502.6	3335
502.8	3336
503.0	3328
503.2	3326
503.4	3311
503.6	3306
503.8	3301
504.0	3305
504.2	3292
504.4	3288
504.6	3274
504.8	3262
505.0	3268
505.2	3281
505.4	3278
505.6	3269
505.8	3256
506.0	3253
506.2	3253
506.4	3258
506.6	3248
506.8	3240
507.0	3234
507.2	3230
507.4	3226
507.6	3224
507.8	3210
508.0	3199
508.2	3195
508.4	3189
508.6	3175
508.8	3167
509.0	3162
509.2	3147
509.4	3144
509.6	3137
509.8	3128
510.0	3114
510.2	3121
510.4	3116
510.6	3115
510.8	3100
511.0	3087
511.2	3076
511.4	3071
511.6	3065
511.8	3057
512.0	3041
512.2	3039
512.4	3048
512.6	3039
512.8	3036
513.0	3024
513.2	3015
513.4	3014
513.6	3010
513.8	3000
514.0	3001
514.2	2995
514.4	2996
514.6	2990
514.8	2972
515.0	2947
515.2	2934
515.4	2931
515.6	2930
515.8	2930
516.0	2922
516.2	2908
516.4	2907
516.6	2902
516.8	2895
517.0	2887
517.2	2886
517.4	2882
517.6	2886
517.8	2872
518.0	2863
518.2	2854
518.4	2848
518.6	2841
518.8	2831
519.0	2824
519.2	2810
519.4	2816
519.6	2813
519.8	2809
520.0	2800
520.2	2787
520.4	2765
520.6	2756
520.8	2746
521.0	2744
521.2	2753
521.4	2756
521.6	2757
521.8	2751
522.0	2739
522.2	2725
522.4	2716
522.6	2714
522.8	2699
523.0	2694
523.2	2687
523.4	2678
523.6	2673
523.8	2660
524.0	2645
524.2	2634
524.4	2631
524.6	2631
524.8	2628
525.0	2617
525.2	2610
525.4	2592
525.6	2592
525.8	2581
526.0	2579
526.2	2580
526.4	2587
526.6	2576
526.8	2570
527.0	2550
527.2	2543
527.4	2546
527.6	2549
527.8	2546
528.0	2532
528.2	2522
528.4	2514
528.6	2509
528.8	2498
529.0	2485
529.2	2471
529.4	2467
529.6	2466
529.8	2453
530.0	2449
530.2	2435
530.4	2429
530.6	2431
530.8	2435
531.0	2428
531.2	2423
531.4	2418
531.6	2397
531.8	2380
532.0	2370
532.2	2357
532.4	2353
532.6	2362
532.8	2353
533.0	2341
533.2	2326
533.4	2311
533.6	2311
533.8	2312
534.0	2302
534.2	2291
534.4	2282
534.6	2280
534.8	2286
535.0	2284
535.2	2276
535.4	2269
535.6	2265
535.8	2251
536.0	2236
536.2	2226
536.4	2217
536.6	2218
536.8	2218
537.0	2209
537.2	2200
537.4	2188
537.6	2182
537.8	2185
538.0	2183
538.2	2182
538.4	2173
538.6	2154
538.8	2144
539.0	2139
539.2	2134
539.4	2134
539.6	2130
539.8	2128
540.0	2126
540.2	2122
540.4	2109
540.6	2088
540.8	2074
541.0	2062
541.2	2059
541.4	2053
541.6	2043
541.8	2038
542.0	2041
542.2	2043
542.4	2045
542.6	2031
542.8	2011
543.0	2007
543.2	2011
543.4	2009
543.6	2005
543.8	1995
544.0	1978
544.2	1968
544.4	1964
544.6	1950
544.8	1935
545.0	1931
545.2	1921
545.4	1912
545.6	1914
545.8	1915
546.0	1912
546.2	1909
546.4	1895
546.6	1893
546.8	1891
547.0	1883
547.2	1868
547.4	1854
547.6	1847
547.8	1852
548.0	1843
548.2	1835
548.4	1820
548.6	1808
548.8	1800
549.0	1795
549.2	1791
549.4	1792
549.6	1788
549.8	1782
550.0	1765
550.2	1758
550.4	1755
550.6	1748
550.8	1747
551.0	1745
551.2	1735
551.4	1741
551.6	1739
551.8	1725
552.0	1718
552.2	1710
552.4	1702
552.6	1706
552.8	1704
553.0	1691
553.2	1682
553.4	1675
553.6	1660
553.8	1649
554.0	1632
554.2	1633
554.4	1626
554.6	1631
554.8	1630
555.0	1623
555.2	1608
555.4	1605
555.6	1593
555.8	1588
556.0	1589
556.2	1587
556.4	1580
556.6	1568
556.8	1557
557.0	1544
557.2	1538
557.4	1533
557.6	1533
557.8	1530
558.0	1524
558.2	1517
558.4	1506
558.6	1497
558.8	1495
559.0	1486
559.2	1481
559.4	1472
559.6	1466
559.8	1462
560.0	1461
560.2	1447
560.4	1441
560.6	1436
560.8	1432
561.0	1437
561.2	1438
561.4	1435
561.6	1432
561.8	1429
562.0	1413
562.2	1398
562.4	1383
562.6	1373
562.8	1372
563.0	1377
563.2	1370
563.4	1363
563.6	1356
563.8	1351
564.0	1352
564.2	1349
564.4	1335
564.6	1328
564.8	1321
565.0	1318
565.2	1320
565.4	1319
565.6	1312
565.8	1304
566.0	1296
566.2	1286
566.4	1279
566.6	1272
566.8	1272
567.0	1269
567.2	1262
567.4	1256
567.6	1255
567.8	1252
568.0	1250
568.2	1241
568.4	1229
568.6	1219
568.8	1212
569.0	1210
569.2	1212
569.4	1208
569.6	1206
569.8	1196
570.0	1187
570.2	1181
570.4	1178
570.6	1173
570.8	1170
571.0	1165
571.2	1164
571.4	1160
571.6	1154
571.8	1153
572.0	1148
572.2	1141
572.4	1137
572.6	1131
572.8	1123
573.0	1115
573.2	1111
573.4	1107
573.6	1106
573.8	1103
574.0	1105
574.2	1097
574.4	1096
574.6	1090
574.8	1085
575.0	1074
575.2	1067
575.4	1053
575.6	1048
575.8	1042
576.0	1042
576.2	1046
576.4	1047
576.6	1044
576.8	1043
577.0	1032
577.2	1019
577.4	1015
577.6	1010
577.8	1010
578.0	1011
578.2	1009
578.4	1002
578.6	995.6
578.8	991.6
579.0	984.9
579.2	971.1
579.4	968.0
579.6	962.4
579.8	962.9
580.0	965.5
580.2	961.3
580.4	951.1
580.6	944.6
580.8	941.2
581.0	940.0
581.2	935.5
581.4	927.8
581.6	924.4
581.8	923.9
582.0	930.8
582.2	930.4
582.4	919.4
582.6	908.7
582.8	903.6
583.0	901.5
583.2	901.7
583.4	895.8
583.6	885.9
583.8	882.1
584.0	881.6
584.2	877.6
584.4	872.6
584.6	867.5
584.8	863.3
585.0	855.0
585.2	853.5
585.4	851.7
585.6	850.2
585.8	848.5
586.0	844.7
586.2	835.5
586.4	829.6
586.6	829.6
586.8	830.4
587.0	825.9
587.2	822.6
587.4	819.9
587.6	812.5
587.8	812.6
588.0	811.5
588.2	803.8
588.4	800.2
588.6	794.5
588.8	788.0
589.0	783.4
589.2	778.3
589.4	772.7
589.6	773.1
589.8	769.1
590.0	767.2
590.2	761.4
590.4	756.2
590.6	752.5
590.8	750.6
591.0	746.3
591.2	743.9
591.4	744.8
591.6	740.9
591.8	735.7
592.0	733.7
592.2	727.6
592.4	726.6
592.6	727.1
592.8	719.0
593.0	716.0
593.2	717.1
593.4	709.5
593.6	707.4
593.8	705.8
594.0	700.0
594.2	701.8
594.4	702.0
594.6	694.2
594.8	688.4
595.0	685.1
595.2	677.3
595.4	675.1
595.6	671.1
595.8	664.0
596.0	662.8
596.2	659.1
596.4	657.1
596.6	657.2
596.8	651.9
597.0	647.9
597.2	647.1
597.4	644.4
597.6	642.1
597.8	640.7
598.0	633.0
598.2	625.8
598.4	620.2
598.6	618.6
598.8	611.6
599.0	611.6
599.2	609.1
599.4	604.2
599.6	603.0
599.8	601.0
600.0	600.8
600.2	599.5
600.4	597.0
600.6	588.6
600.8	586.7
601.0	583.8
601.2	585.3
601.4	584.4
601.6	581.8
601.8	575.5
602.0	576.6
602.2	575.7
602.4	571.2
602.6	569.2
602.8	564.7
603.0	560.4
603.2	561.0
603.4	558.1
603.6	553.1
603.8	550.1
604.0	546.4
604.2	543.2
604.4	541.2
604.6	540.8
604.8	540.7
605.0	539.0
605.2	536.6
605.4	533.2
605.6	527.4
605.8	525.3
606.0	517.1
606.2	511.1
606.4	507.7
606.6	504.2
606.8	501.1
607.0	501.4
607.2	499.4
607.4	499.9
607.6	499.7
607.8	498.5
608.0	494.3
608.2	492.3
608.4	490.9
608.6	486.4
608.8	485.5
609.0	486.7
609.2	483.0
609.4	482.5
609.6	475.8
609.8	468.5
610.0	465.9
610.2	463.9
610.4	463.7
610.6	469.3
610.8	468.1
611.0	466.9
611.2	461.3
611.4	452.5
611.6	448.0
611.8	449.8
612.0	444.8
612.2	439.4
612.4	438.1
612.6	435.1
612.8	433.7
613.0	436.7
613.2	431.8
613.4	426.1
613.6	425.1
613.8	423.4
614.0	417.7
614.2	414.7
614.4	413.3
614.6	413.6
614.8	413.7
615.0	410.4
615.2	407.1
615.4	405.1
615.6	407.7
615.8	407.2
616.0	403.4
616.2	395.0
616.4	388.5
616.6	388.2
616.8	390.6
617.0	391.1
617.2	387.5
617.4	381.9
617.6	374.6
617.8	373.8
618.0	376.2
618.2	378.2
618.4	376.3
618.6	371.6
618.8	369.5
619.0	368.1
619.2	369.8
619.4	368.9
619.6	364.1
619.8	358.9
620.0	356.4
620.2	354.7
620.4	352.4
620.6	350.9
620.8	349.1
621.0	350.5
621.2	351.5
621.4	351.3
621.6	344.9
621.8	335.8
622.0	329.2
622.2	331.3
622.4	336.0
622.6	340.9
622.8	340.6
623.0	337.3
623.2	331.6
623.4	330.3
623.6	329.5
623.8	330.3
624.0	329.5
624.2	326.8
624.4	323.9
624.6	319.9
624.8	315.0
625.0	309.2
625.2	307.7
625.4	303.8
625.6	305.2
625.8	307.9
626.0	305.4
626.2	302.3
626.4	302.7
626.6	297.6
626.8	293.4
627.0	291.3
627.2	288.9
627.4	287.1
627.6	287.4
627.8	285.9
628.0	284.7
628.2	282.6
628.4	286.6
628.6	285.2
628.8	283.6
629.0	281.7
629.2	278.2
629.4	272.8
629.6	269.4
629.8	265.1
630.0	265.3
630.2	263.9
630.4	265.7
630.6	265.4
630.8	263.5
631.0	261.9
631.2	263.8
631.4	258.1
631.6	256.9
631.8	255.9
632.0	256.1
632.2	256.3
632.4	259.8
632.6	259.1
632.8	254.5
633.0	251.9
633.2	249.9
633.4	246.7
633.6	248.0
633.8	249.8
634.0	244.8
634.2	241.7
634.4	240.9
634.6	237.7
634.8	237.9
635.0	237.1
635.2	234.3
635.4	232.3
635.6	232.8
635.8	230.5
636.0	228.1
636.2	225.1
636.4	224.1
636.6	222.1
636.8	221.6
637.0	219.0
637.2	217.5
637.4	217.4
637.6	215.6
637.8	212.2
638.0	211.3
638.2	208.8
638.4	208.3
638.6	208.0
638.8	205.5
639.0	204.7
639.2	207.5
639.4	207.1
639.6	207.0
639.8	205.4
640.0	203.1
640.2	201.7
640.4	200.8
640.6	200.7
640.8	198.8
641.0	194.3
641.2	192.0
641.4	192.2
641.6	192.9
641.8	195.8
642.0	192.8
642.2	190.3
642.4	190.4
642.6	190.5
642.8	191.0
643.0	189.3
643.2	184.6
643.4	181.3
643.6	181.9
643.8	182.6
644.0	183.3
644.2	181.2
644.4	177.9
644.6	175.7
644.8	176.9
645.0	177.4
645.2	176.7
645.4	175.9
645.6	173.6
645.8	172.0
646.0	171.7
646.2	169.2
646.4	165.2
646.6	165.4
646.8	166.3
647.0	165.0
647.2	165.3
647.4	164.6
647.6	161.5
647.8	161.3
648.0	160.1
648.2	156.1
648.4	154.6
648.6	156.3
648.8	155.8
649.0	156.3
649.2	157.5
649.4	156.7
649.6	156.8
649.8	156.9
650.0	153.4
650.2	151.2
650.4	151.9
650.6	151.6
650.8	150.5
651.0	148.6
651.2	146.1
651.4	145.8
651.6	146.3
651.8	146.2
652.0	145.7
652.2	143.3
652.4	142.0
652.6	141.9
652.8	140.2
653.0	139.2
653.2	137.9
653.4	136.4
653.6	133.6
653.8	133.1
654.0	133.0
654.2	134.1
654.4	134.3
654.6	135.4
654.8	132.1
655.0	131.8
655.2	130.1
655.4	127.4
655.6	125.1
655.8	125.1
656.0	125.2
656.2	126.7
656.4	124.6
656.6	123.2
656.8	122.3
657.0	122.7
657.2	122.9
657.4	122.0
657.6	119.2
657.8	116.5
658.0	115.0
658.2	115.2
658.4	115.4
658.6	115.8
658.8	114.3
659.0	112.0
659.2	111.8
659.4	110.8
659.6	111.7
659.8	112.0
660.0	111.7
660.2	112.6
660.4	113.4
660.6	109.9
660.8	108.1
661.0	106.4
661.2	105.1
661.4	105.0
661.6	106.1
661.8	105.3
662.0	106.7
662.2	106.1
662.4	104.3
662.6	101.2
662.8	100.1
663.0	99.78
663.2	101.3
663.4	101.1
663.6	102.4
663.8	99.35
664.0	97.78
664.2	97.95
664.4	97.44
664.6	96.68
664.8	96.85
665.0	94.23
665.2	92.99
665.4	93.94
665.6	92.42
665.8	92.59
666.0	93.78
666.2	95.19
666.4	96.05
666.6	94.92
666.8	92.16
667.0	90.55
667.2	89.24
667.4	88.43
667.6	87.74
