Sample:	'20211010A(EM)
File name:	300.FDS
Run date:	'16:51:19, 03/23/2023
Operator:	Administrator
Comment:	'

Instrument
Model:	F-4700 FL Spectrophotometer
Serial number:	2019-001
ROM Version:	5J24010 00

Instrument parameters
Measurement type:	Wavelength scan
Scan mode:	Emission
Data mode:	Fluorescence
EX WL:	410.0 nm
EM  Start WL:	420.0 nm
EM  End WL:	820.0 nm
Scan speed:	1200 nm/min
Delay:	0.0 s
EX Slit:	10.0 nm
EM Slit:	10.0 nm
PMT Voltage:	410 V
Response:	0.002 s
Corrected spectra:	Off
Shutter control:	On

Processing performed
Savitsky-Golay smoothed
Smoothing order:	3
Number of points:	7
Number of times:	1

Peak integration
Integration method:	Rectangular
Sensitivity:	1
Threshold:	1.000

Peaks
No.	Start(nm)	Apex(nm)	End(nm)	Height(Data)	Valley(nm)	Valley(Data)
1	429.6	532.4	535.8	7621	535.8	7577
2	535.8	536.8	795.8	7584	795.8	3.811

Data points
nm	Data
420.0	1373
420.2	1268
420.4	1174
420.6	1089
420.8	1011
421.0	939.4
421.2	872.2
421.4	805.2
421.6	745.0
421.8	687.9
422.0	634.8
422.2	583.2
422.4	535.9
422.6	490.6
422.8	449.0
423.0	410.1
423.2	375.2
423.4	341.2
423.6	311.2
423.8	282.1
424.0	255.2
424.2	230.0
424.4	207.6
424.6	186.2
424.8	167.3
425.0	149.5
425.2	134.0
425.4	120.2
425.6	107.9
425.8	96.62
426.0	86.38
426.2	77.27
426.4	69.50
426.6	63.04
426.8	57.59
427.0	52.28
427.2	47.74
427.4	43.69
427.6	40.07
427.8	37.46
428.0	35.23
428.2	33.36
428.4	32.06
428.6	31.02
428.8	30.10
429.0	29.50
429.2	28.82
429.4	28.40
429.6	28.20
429.8	28.35
430.0	28.58
430.2	28.92
430.4	29.18
430.6	29.16
430.8	29.21
431.0	29.49
431.2	29.76
431.4	30.00
431.6	30.12
431.8	30.25
432.0	30.61
432.2	30.86
432.4	31.13
432.6	31.39
432.8	31.54
433.0	32.00
433.2	32.37
433.4	32.58
433.6	32.74
433.8	32.93
434.0	33.08
434.2	33.68
434.4	34.07
434.6	34.62
434.8	34.94
435.0	35.31
435.2	35.56
435.4	35.80
435.6	36.04
435.8	36.48
436.0	36.79
436.2	37.33
436.4	37.89
436.6	38.25
436.8	38.71
437.0	39.30
437.2	39.66
437.4	40.02
437.6	40.35
437.8	40.90
438.0	41.16
438.2	41.68
438.4	42.28
438.6	42.80
438.8	43.43
439.0	44.09
439.2	44.57
439.4	45.02
439.6	45.57
439.8	46.29
440.0	46.97
440.2	47.44
440.4	48.25
440.6	48.89
440.8	49.63
441.0	50.58
441.2	51.16
441.4	51.82
441.6	52.40
441.8	53.18
442.0	53.91
442.2	54.77
442.4	55.68
442.6	56.45
442.8	57.23
443.0	58.32
443.2	59.23
443.4	60.00
443.6	60.70
443.8	61.54
444.0	62.50
444.2	63.33
444.4	64.29
444.6	65.05
444.8	65.95
445.0	67.38
445.2	68.72
445.4	69.71
445.6	70.57
445.8	71.32
446.0	72.14
446.2	73.12
446.4	74.57
446.6	75.80
446.8	76.83
447.0	78.09
447.2	79.15
447.4	80.26
447.6	82.00
447.8	83.09
448.0	84.30
448.2	85.57
448.4	86.56
448.6	87.96
448.8	89.69
449.0	90.78
449.2	92.23
449.4	93.32
449.6	94.75
449.8	96.61
450.0	98.17
450.2	99.51
450.4	101.1
450.6	102.6
450.8	104.2
451.0	105.9
451.2	106.9
451.4	108.3
451.6	110.2
451.8	112.3
452.0	114.6
452.2	116.9
452.4	118.8
452.6	120.6
452.8	121.8
453.0	123.2
453.2	125.2
453.4	127.2
453.6	129.4
453.8	131.2
454.0	133.2
454.2	135.5
454.4	137.9
454.6	140.2
454.8	142.2
455.0	144.0
455.2	146.5
455.4	149.2
455.6	151.7
455.8	154.1
456.0	156.4
456.2	159.0
456.4	161.7
456.6	164.9
456.8	167.5
457.0	170.3
457.2	173.1
457.4	176.0
457.6	179.1
457.8	182.3
458.0	185.1
458.2	188.2
458.4	191.4
458.6	194.8
458.8	198.3
459.0	202.0
459.2	205.5
459.4	209.0
459.6	213.0
459.8	217.8
460.0	222.5
460.2	226.8
460.4	230.6
460.6	235.5
460.8	239.9
461.0	245.7
461.2	251.0
461.4	256.2
461.6	260.9
461.8	266.0
462.0	271.2
462.2	276.5
462.4	281.7
462.6	287.9
462.8	293.5
463.0	299.1
463.2	305.4
463.4	311.5
463.6	317.7
463.8	324.3
464.0	330.5
464.2	337.8
464.4	344.8
464.6	352.9
464.8	359.8
465.0	366.7
465.2	373.2
465.4	381.4
465.6	388.9
465.8	397.6
466.0	406.4
466.2	415.7
466.4	424.7
466.6	434.3
466.8	442.3
467.0	450.6
467.2	459.1
467.4	468.1
467.6	478.3
467.8	488.6
468.0	498.3
468.2	509.0
468.4	518.7
468.6	529.8
468.8	540.9
469.0	552.3
469.2	563.6
469.4	575.7
469.6	587.9
469.8	600.5
470.0	613.3
470.2	626.4
470.4	638.3
470.6	650.6
470.8	662.5
471.0	676.2
471.2	691.5
471.4	706.6
471.6	719.9
471.8	734.8
472.0	748.1
472.2	764.0
472.4	778.9
472.6	793.9
472.8	807.8
473.0	823.2
473.2	837.8
473.4	854.0
473.6	869.5
473.8	886.4
474.0	903.3
474.2	920.7
474.4	937.1
474.6	955.7
474.8	974.0
475.0	993.9
475.2	1012
475.4	1031
475.6	1049
475.8	1069
476.0	1089
476.2	1109
476.4	1127
476.6	1146
476.8	1164
477.0	1185
477.2	1206
477.4	1227
477.6	1248
477.8	1268
478.0	1289
478.2	1310
478.4	1330
478.6	1352
478.8	1375
479.0	1399
479.2	1422
479.4	1446
479.6	1468
479.8	1492
480.0	1514
480.2	1539
480.4	1563
480.6	1589
480.8	1613
481.0	1638
481.2	1661
481.4	1687
481.6	1712
481.8	1738
482.0	1766
482.2	1792
482.4	1818
482.6	1844
482.8	1869
483.0	1895
483.2	1920
483.4	1947
483.6	1974
483.8	2002
484.0	2031
484.2	2059
484.4	2087
484.6	2117
484.8	2145
485.0	2173
485.2	2203
485.4	2230
485.6	2260
485.8	2290
486.0	2319
486.2	2348
486.4	2377
486.6	2408
486.8	2439
487.0	2473
487.2	2502
487.4	2533
487.6	2562
487.8	2592
488.0	2620
488.2	2651
488.4	2679
488.6	2710
488.8	2741
489.0	2771
489.2	2801
489.4	2832
489.6	2862
489.8	2894
490.0	2928
490.2	2962
490.4	2996
490.6	3030
490.8	3063
491.0	3098
491.2	3132
491.4	3165
491.6	3195
491.8	3230
492.0	3265
492.2	3300
492.4	3329
492.6	3360
492.8	3388
493.0	3418
493.2	3448
493.4	3485
493.6	3517
493.8	3554
494.0	3587
494.2	3619
494.4	3649
494.6	3682
494.8	3715
495.0	3750
495.2	3784
495.4	3822
495.6	3854
495.8	3889
496.0	3924
496.2	3959
496.4	3994
496.6	4027
496.8	4057
497.0	4090
497.2	4124
497.4	4158
497.6	4190
497.8	4223
498.0	4255
498.2	4285
498.4	4317
498.6	4347
498.8	4374
499.0	4405
499.2	4437
499.4	4470
499.6	4504
499.8	4542
500.0	4578
500.2	4612
500.4	4647
500.6	4681
500.8	4709
501.0	4743
501.2	4776
501.4	4812
501.6	4849
501.8	4885
502.0	4913
502.2	4943
502.4	4969
502.6	4998
502.8	5028
503.0	5059
503.2	5089
503.4	5120
503.6	5150
503.8	5181
504.0	5212
504.2	5244
504.4	5276
504.6	5305
504.8	5333
505.0	5357
505.2	5384
505.4	5412
505.6	5448
505.8	5484
506.0	5515
506.2	5547
506.4	5577
506.6	5604
506.8	5637
507.0	5667
507.2	5694
507.4	5724
507.6	5751
507.8	5779
508.0	5807
508.2	5834
508.4	5862
508.6	5890
508.8	5915
509.0	5939
509.2	5964
509.4	5989
509.6	6015
509.8	6040
510.0	6064
510.2	6091
510.4	6116
510.6	6145
510.8	6172
511.0	6198
511.2	6226
511.4	6253
511.6	6280
511.8	6308
512.0	6333
512.2	6360
512.4	6386
512.6	6409
512.8	6429
513.0	6450
513.2	6471
513.4	6493
513.6	6515
513.8	6536
514.0	6554
514.2	6577
514.4	6594
514.6	6616
514.8	6634
515.0	6652
515.2	6666
515.4	6688
515.6	6710
515.8	6738
516.0	6758
516.2	6781
516.4	6799
516.6	6823
516.8	6841
517.0	6865
517.2	6880
517.4	6896
517.6	6911
517.8	6935
518.0	6949
518.2	6971
518.4	6981
518.6	6997
518.8	7009
519.0	7029
519.2	7043
519.4	7056
519.6	7065
519.8	7084
520.0	7098
520.2	7114
520.4	7130
520.6	7146
520.8	7159
521.0	7177
521.2	7193
521.4	7205
521.6	7218
521.8	7233
522.0	7249
522.2	7270
522.4	7289
522.6	7298
522.8	7305
523.0	7312
523.2	7317
523.4	7327
523.6	7342
523.8	7351
524.0	7361
524.2	7370
524.4	7374
524.6	7380
524.8	7385
525.0	7396
525.2	7403
525.4	7412
525.6	7427
525.8	7440
526.0	7452
526.2	7469
526.4	7477
526.6	7484
526.8	7490
527.0	7495
527.2	7497
527.4	7502
527.6	7514
527.8	7526
528.0	7534
528.2	7542
528.4	7543
528.6	7545
528.8	7547
529.0	7552
529.2	7552
529.4	7555
529.6	7553
529.8	7550
530.0	7550
530.2	7555
530.4	7561
530.6	7572
530.8	7578
531.0	7583
531.2	7587
531.4	7588
531.6	7593
531.8	7598
532.0	7609
532.2	7619
532.4	7621
532.6	7616
532.8	7610
533.0	7605
533.2	7609
533.4	7608
533.6	7607
533.8	7602
534.0	7599
534.2	7595
534.4	7597
534.6	7596
534.8	7593
535.0	7591
535.2	7585
535.4	7579
535.6	7578
535.8	7577
536.0	7579
536.2	7580
536.4	7580
536.6	7584
536.8	7584
537.0	7583
537.2	7583
537.4	7577
537.6	7577
537.8	7578
538.0	7578
538.2	7566
538.4	7555
538.6	7542
538.8	7539
539.0	7541
539.2	7538
539.4	7530
539.6	7525
539.8	7520
540.0	7518
540.2	7512
540.4	7500
540.6	7493
540.8	7484
541.0	7480
541.2	7475
541.4	7470
541.6	7461
541.8	7458
542.0	7456
542.2	7455
542.4	7453
542.6	7447
542.8	7439
543.0	7433
543.2	7423
543.4	7414
543.6	7401
543.8	7388
544.0	7378
544.2	7369
544.4	7357
544.6	7344
544.8	7331
545.0	7317
545.2	7305
545.4	7297
545.6	7287
545.8	7279
546.0	7272
546.2	7262
546.4	7256
546.6	7245
546.8	7236
547.0	7230
547.2	7220
547.4	7215
547.6	7208
547.8	7200
548.0	7190
548.2	7183
548.4	7170
548.6	7156
548.8	7144
549.0	7131
549.2	7114
549.4	7101
549.6	7086
549.8	7069
550.0	7053
550.2	7036
550.4	7020
550.6	7010
550.8	6998
551.0	6983
551.2	6969
551.4	6954
551.6	6941
551.8	6941
552.0	6931
552.2	6920
552.4	6909
552.6	6894
552.8	6878
553.0	6864
553.2	6849
553.4	6840
553.6	6828
553.8	6817
554.0	6803
554.2	6783
554.4	6766
554.6	6747
554.8	6729
555.0	6709
555.2	6694
555.4	6677
555.6	6659
555.8	6644
556.0	6631
556.2	6620
556.4	6610
556.6	6594
556.8	6576
557.0	6558
557.2	6541
557.4	6529
557.6	6517
557.8	6508
558.0	6491
558.2	6473
558.4	6455
558.6	6439
558.8	6424
559.0	6408
559.2	6388
559.4	6369
559.6	6349
559.8	6331
560.0	6311
560.2	6292
560.4	6274
560.6	6254
560.8	6238
561.0	6219
561.2	6202
561.4	6187
561.6	6171
561.8	6159
562.0	6146
562.2	6131
562.4	6114
562.6	6095
562.8	6077
563.0	6062
563.2	6044
563.4	6027
563.6	6006
563.8	5987
564.0	5971
564.2	5954
564.4	5933
564.6	5911
564.8	5884
565.0	5856
565.2	5840
565.4	5823
565.6	5804
565.8	5790
566.0	5771
566.2	5750
566.4	5736
566.6	5717
566.8	5698
567.0	5683
567.2	5666
567.4	5649
567.6	5638
567.8	5624
568.0	5611
568.2	5595
568.4	5574
568.6	5551
568.8	5531
569.0	5508
569.2	5489
569.4	5470
569.6	5451
569.8	5428
570.0	5406
570.2	5383
570.4	5361
570.6	5344
570.8	5327
571.0	5307
571.2	5287
571.4	5269
571.6	5251
571.8	5230
572.0	5211
572.2	5192
572.4	5174
572.6	5164
572.8	5153
573.0	5135
573.2	5120
573.4	5098
573.6	5079
573.8	5059
574.0	5039
574.2	5016
574.4	4995
574.6	4975
574.8	4958
575.0	4939
575.2	4920
575.4	4898
575.6	4878
575.8	4858
576.0	4839
576.2	4819
576.4	4799
576.6	4784
576.8	4764
577.0	4749
577.2	4734
577.4	4713
577.6	4696
577.8	4681
578.0	4664
578.2	4650
578.4	4633
578.6	4614
578.8	4595
579.0	4574
579.2	4553
579.4	4532
579.6	4516
579.8	4495
580.0	4478
580.2	4459
580.4	4439
580.6	4421
580.8	4403
581.0	4384
581.2	4365
581.4	4344
581.6	4326
581.8	4307
582.0	4291
582.2	4275
582.4	4256
582.6	4237
582.8	4224
583.0	4212
583.2	4201
583.4	4184
583.6	4168
583.8	4147
584.0	4130
584.2	4111
584.4	4092
584.6	4072
584.8	4053
585.0	4035
585.2	4017
585.4	3999
585.6	3981
585.8	3961
586.0	3942
586.2	3926
586.4	3910
586.6	3895
586.8	3878
587.0	3863
587.2	3845
587.4	3826
587.6	3810
587.8	3793
588.0	3780
588.2	3770
588.4	3756
588.6	3739
588.8	3722
589.0	3702
589.2	3683
589.4	3665
589.6	3649
589.8	3631
590.0	3616
590.2	3596
590.4	3579
590.6	3560
590.8	3542
591.0	3522
591.2	3506
591.4	3487
591.6	3473
591.8	3459
592.0	3446
592.2	3431
592.4	3418
592.6	3404
592.8	3389
593.0	3374
593.2	3360
593.4	3344
593.6	3328
593.8	3314
594.0	3301
594.2	3288
594.4	3274
594.6	3258
594.8	3242
595.0	3226
595.2	3209
595.4	3190
595.6	3172
595.8	3154
596.0	3138
596.2	3123
596.4	3108
596.6	3093
596.8	3079
597.0	3065
597.2	3050
597.4	3039
597.6	3025
597.8	3010
598.0	2995
598.2	2980
598.4	2968
598.6	2956
598.8	2945
599.0	2930
599.2	2916
599.4	2901
599.6	2887
599.8	2874
600.0	2860
600.2	2845
600.4	2828
600.6	2810
600.8	2793
601.0	2777
601.2	2763
601.4	2749
601.6	2738
601.8	2728
602.0	2714
602.2	2697
602.4	2686
602.6	2672
602.8	2659
603.0	2646
603.2	2632
603.4	2617
603.6	2609
603.8	2599
604.0	2588
604.2	2574
604.4	2560
604.6	2546
604.8	2532
605.0	2517
605.2	2502
605.4	2488
605.6	2472
605.8	2459
606.0	2445
606.2	2430
606.4	2416
606.6	2402
606.8	2390
607.0	2378
607.2	2367
607.4	2357
607.6	2344
607.8	2335
608.0	2325
608.2	2313
608.4	2302
608.6	2289
608.8	2275
609.0	2264
609.2	2250
609.4	2241
609.6	2230
609.8	2217
610.0	2204
610.2	2190
610.4	2174
610.6	2162
610.8	2150
611.0	2138
611.2	2126
611.4	2113
611.6	2100
611.8	2086
612.0	2076
612.2	2063
612.4	2051
612.6	2039
612.8	2028
613.0	2018
613.2	2009
613.4	1999
613.6	1987
613.8	1977
614.0	1966
614.2	1955
614.4	1944
614.6	1933
614.8	1922
615.0	1911
615.2	1901
615.4	1888
615.6	1876
615.8	1865
616.0	1854
616.2	1843
616.4	1832
616.6	1821
616.8	1811
617.0	1800
617.2	1790
617.4	1781
617.6	1771
617.8	1760
618.0	1749
618.2	1739
618.4	1729
618.6	1721
618.8	1709
619.0	1697
619.2	1687
619.4	1679
619.6	1669
619.8	1660
620.0	1647
620.2	1638
620.4	1628
620.6	1619
620.8	1608
621.0	1597
621.2	1586
621.4	1575
621.6	1565
621.8	1554
622.0	1545
622.2	1537
622.4	1528
622.6	1518
622.8	1509
623.0	1500
623.2	1492
623.4	1483
623.6	1476
623.8	1468
624.0	1460
624.2	1451
624.4	1442
624.6	1434
624.8	1425
625.0	1416
625.2	1407
625.4	1396
625.6	1386
625.8	1378
626.0	1367
626.2	1359
626.4	1350
626.6	1340
626.8	1332
627.0	1322
627.2	1313
627.4	1305
627.6	1296
627.8	1290
628.0	1282
628.2	1274
628.4	1266
628.6	1257
628.8	1249
629.0	1241
629.2	1234
629.4	1227
629.6	1220
629.8	1213
630.0	1207
630.2	1197
630.4	1188
630.6	1179
630.8	1172
631.0	1165
631.2	1159
631.4	1150
631.6	1142
631.8	1134
632.0	1125
632.2	1117
632.4	1110
632.6	1103
632.8	1097
633.0	1090
633.2	1084
633.4	1077
633.6	1071
633.8	1065
634.0	1058
634.2	1051
634.4	1044
634.6	1038
634.8	1032
635.0	1025
635.2	1019
635.4	1012
635.6	1005
635.8	998.3
636.0	992.6
636.2	986.3
636.4	979.4
636.6	971.8
636.8	964.8
637.0	957.1
637.2	951.0
637.4	945.6
637.6	939.0
637.8	931.9
638.0	924.8
638.2	918.7
638.4	911.8
638.6	907.2
638.8	902.2
639.0	896.7
639.2	891.2
639.4	884.9
639.6	878.9
639.8	875.1
640.0	869.4
640.2	862.3
640.4	855.3
640.6	847.6
640.8	841.3
641.0	836.8
641.2	830.3
641.4	824.1
641.6	819.6
641.8	814.7
642.0	810.4
642.2	804.9
642.4	797.8
642.6	791.6
642.8	786.0
643.0	780.5
643.2	776.2
643.4	771.0
643.6	765.7
643.8	761.3
644.0	755.4
644.2	749.2
644.4	744.2
644.6	739.8
644.8	735.7
645.0	732.0
645.2	726.8
645.4	720.2
645.6	713.7
645.8	707.8
646.0	703.4
646.2	699.4
646.4	695.3
646.6	691.1
646.8	686.1
647.0	680.9
647.2	675.1
647.4	670.8
647.6	667.5
647.8	663.4
648.0	659.4
648.2	654.6
648.4	648.7
648.6	644.2
648.8	640.1
649.0	635.2
649.2	631.2
649.4	628.3
649.6	624.7
649.8	620.4
650.0	616.0
650.2	610.1
650.4	605.5
650.6	600.9
650.8	596.2
651.0	591.8
651.2	588.3
651.4	583.7
651.6	580.8
651.8	576.9
652.0	572.6
652.2	567.5
652.4	562.9
652.6	557.2
652.8	554.2
653.0	552.2
653.2	548.5
653.4	544.7
653.6	540.1
653.8	535.3
654.0	532.0
654.2	528.8
654.4	525.3
654.6	521.8
654.8	517.8
655.0	514.3
655.2	510.8
655.4	507.7
655.6	505.1
655.8	500.8
656.0	497.0
656.2	492.3
656.4	488.7
656.6	485.4
656.8	481.9
657.0	478.3
657.2	474.8
657.4	471.2
657.6	467.6
657.8	463.8
658.0	460.1
658.2	456.9
658.4	453.9
658.6	450.9
658.8	447.9
659.0	445.7
659.2	443.2
659.4	439.8
659.6	436.7
659.8	432.8
660.0	429.3
660.2	426.0
660.4	422.8
660.6	420.0
660.8	417.5
661.0	414.5
661.2	411.1
661.4	407.7
661.6	404.3
661.8	401.5
662.0	398.6
662.2	395.4
662.4	392.9
662.6	389.7
662.8	387.0
663.0	384.3
663.2	381.8
663.4	379.2
663.6	377.1
663.8	373.8
664.0	370.5
664.2	367.4
664.4	364.9
664.6	362.9
664.8	360.6
665.0	357.8
665.2	355.2
665.4	353.0
665.6	350.9
665.8	348.7
666.0	345.8
666.2	342.2
666.4	338.8
666.6	335.7
666.8	333.7
667.0	331.8
667.2	330.1
667.4	327.9
667.6	324.9
667.8	321.6
668.0	319.2
668.2	316.7
668.4	314.4
668.6	312.9
668.8	311.0
669.0	308.7
669.2	307.1
669.4	305.1
669.6	302.9
669.8	301.0
670.0	298.2
670.2	295.4
670.4	293.0
670.6	290.0
670.8	287.7
671.0	285.2
671.2	283.2
671.4	281.6
671.6	279.5
671.8	277.1
672.0	275.0
672.2	272.7
672.4	270.6
672.6	269.0
672.8	267.2
673.0	264.9
673.2	263.4
673.4	261.6
673.6	259.7
673.8	257.8
674.0	255.3
674.2	252.2
674.4	250.4
674.6	249.1
674.8	248.0
675.0	246.6
675.2	244.7
675.4	242.5
675.6	240.2
675.8	238.4
676.0	236.9
676.2	235.2
676.4	233.6
676.6	231.9
676.8	229.8
677.0	227.6
677.2	226.2
677.4	224.0
677.6	222.2
677.8	220.8
678.0	219.0
678.2	217.2
678.4	215.7
678.6	213.9
678.8	212.4
679.0	211.0
679.2	209.7
679.4	208.2
679.6	206.7
679.8	205.2
680.0	204.2
680.2	202.4
680.4	200.5
680.6	198.4
680.8	196.8
681.0	195.2
681.2	194.3
681.4	192.7
681.6	191.3
681.8	189.9
682.0	188.3
682.2	186.7
682.4	185.0
682.6	183.4
682.8	182.3
683.0	181.2
683.2	179.7
683.4	178.2
683.6	176.5
683.8	174.7
684.0	173.9
684.2	172.8
684.4	171.3
684.6	170.3
684.8	168.9
685.0	167.3
685.2	166.5
685.4	165.0
685.6	163.5
685.8	162.5
686.0	161.2
686.2	159.9
686.4	158.6
686.6	157.2
686.8	155.9
687.0	154.7
687.2	153.5
687.4	152.2
687.6	151.4
687.8	150.2
688.0	149.2
688.2	148.2
688.4	147.1
688.6	145.6
688.8	144.5
689.0	143.6
689.2	142.4
689.4	140.9
689.6	140.0
689.8	138.8
690.0	137.6
690.2	137.1
690.4	136.2
690.6	135.3
690.8	135.0
691.0	134.0
691.2	132.8
691.4	131.5
691.6	130.4
691.8	129.4
692.0	128.6
692.2	127.2
692.4	126.1
692.6	125.0
692.8	124.1
693.0	123.2
693.2	122.3
693.4	121.1
693.6	120.4
693.8	119.8
694.0	118.9
694.2	117.9
694.4	117.1
694.6	116.2
694.8	115.7
695.0	115.2
695.2	114.4
695.4	113.2
695.6	112.5
695.8	111.6
696.0	111.2
696.2	110.7
696.4	109.9
696.6	108.5
696.8	107.5
697.0	106.5
697.2	106.3
697.4	105.8
697.6	105.1
697.8	103.9
698.0	102.9
698.2	102.2
698.4	101.5
698.6	101.0
698.8	100.6
699.0	99.69
699.2	99.02
699.4	98.41
699.6	97.66
699.8	97.28
700.0	96.69
700.2	95.59
700.4	95.00
700.6	94.28
700.8	93.29
701.0	92.82
701.2	92.61
701.4	92.18
701.6	92.09
701.8	91.79
702.0	90.53
702.2	89.21
702.4	88.51
702.6	87.61
702.8	87.27
703.0	87.15
703.2	86.67
703.4	85.92
703.6	85.51
703.8	84.59
704.0	83.84
704.2	83.17
704.4	82.54
704.6	81.89
704.8	81.46
705.0	81.00
705.2	80.35
705.4	80.09
705.6	79.79
705.8	79.37
706.0	78.48
706.2	77.79
706.4	76.83
706.6	76.40
706.8	76.22
707.0	76.27
707.2	75.93
707.4	75.39
707.6	74.72
707.8	74.02
708.0	73.23
708.2	72.41
708.4	71.98
708.6	71.84
708.8	71.57
709.0	71.14
709.2	70.37
709.4	69.48
709.6	69.03
709.8	68.98
710.0	68.70
710.2	67.93
710.4	67.30
710.6	66.57
710.8	66.43
711.0	66.18
711.2	65.97
711.4	65.24
711.6	64.76
711.8	64.05
712.0	63.70
712.2	63.08
712.4	62.99
712.6	62.54
712.8	62.20
713.0	61.77
713.2	61.02
713.4	60.32
713.6	60.23
713.8	59.72
714.0	59.29
714.2	58.95
714.4	58.35
714.6	57.89
714.8	57.39
715.0	56.84
715.2	56.84
715.4	56.52
715.6	56.01
715.8	55.60
716.0	54.93
716.2	54.20
716.4	54.11
716.6	53.53
716.8	52.91
717.0	52.60
717.2	52.32
717.4	51.81
717.6	51.58
717.8	51.20
718.0	50.59
718.2	50.42
718.4	50.20
718.6	49.82
718.8	49.38
719.0	48.89
719.2	48.27
719.4	48.07
719.6	47.74
719.8	47.27
720.0	46.81
720.2	46.33
720.4	45.95
720.6	45.90
720.8	46.11
721.0	45.89
721.2	45.75
721.4	45.41
721.6	44.77
721.8	43.98
722.0	43.35
722.2	42.58
722.4	42.27
722.6	42.31
722.8	42.31
723.0	41.98
723.2	41.64
723.4	41.28
723.6	40.77
723.8	40.42
724.0	40.01
724.2	39.61
724.4	39.31
724.6	39.00
724.8	38.56
725.0	38.28
725.2	38.14
725.4	37.93
725.6	37.71
725.8	37.34
