Sample:	'20211010A(EM)
File name:	YUAN S2-.FDS
Run date:	'16:56:59, 03/23/2023
Operator:	Administrator
Comment:	'

Instrument
Model:	F-4700 FL Spectrophotometer
Serial number:	2019-001
ROM Version:	5J24010 00

Instrument parameters
Measurement type:	Wavelength scan
Scan mode:	Emission
Data mode:	Fluorescence
EX WL:	410.0 nm
EM  Start WL:	420.0 nm
EM  End WL:	820.0 nm
Scan speed:	1200 nm/min
Delay:	0.0 s
EX Slit:	10.0 nm
EM Slit:	10.0 nm
PMT Voltage:	410 V
Response:	0.002 s
Corrected spectra:	Off
Shutter control:	On

Processing performed
Savitsky-Golay smoothed
Smoothing order:	3
Number of points:	7
Number of times:	1

Peak integration
Integration method:	Rectangular
Sensitivity:	1
Threshold:	1.000

Peaks
No.	Start(nm)	Apex(nm)	End(nm)	Height(Data)	Valley(nm)	Valley(Data)
1	429.8	535.4	793.2	4357	793.2	2.815

Data points
nm	Data
420.0	1853
420.2	1752
420.4	1636
420.6	1516
420.8	1405
421.0	1304
421.2	1211
421.4	1122
421.6	1039
421.8	957.5
422.0	884.6
422.2	812.6
422.4	747.2
422.6	684.3
422.8	626.2
423.0	571.9
423.2	523.7
423.4	476.9
423.6	435.5
423.8	394.4
424.0	357.8
424.2	322.9
424.4	291.9
424.6	261.9
424.8	236.5
425.0	212.1
425.2	191.3
425.4	171.7
425.6	153.9
425.8	137.2
426.0	123.0
426.2	110.1
426.4	98.96
426.6	89.40
426.8	80.96
427.0	73.62
427.2	67.05
427.4	61.52
427.6	56.66
427.8	52.60
428.0	49.17
428.2	46.44
428.4	44.03
428.6	42.23
428.8	40.88
429.0	39.98
429.2	39.28
429.4	38.90
429.6	38.58
429.8	38.46
430.0	38.48
430.2	38.64
430.4	38.94
430.6	39.38
430.8	39.57
431.0	39.62
431.2	40.00
431.4	40.46
431.6	40.88
431.8	41.18
432.0	41.20
432.2	41.31
432.4	41.51
432.6	41.63
432.8	41.92
433.0	42.18
433.2	42.42
433.4	43.11
433.6	43.63
433.8	43.74
434.0	44.15
434.2	44.28
434.4	44.75
434.6	45.52
434.8	46.19
435.0	46.35
435.2	46.34
435.4	46.39
435.6	46.62
435.8	46.90
436.0	47.47
436.2	47.77
436.4	48.06
436.6	48.69
436.8	48.93
437.0	49.11
437.2	49.58
437.4	49.90
437.6	50.46
437.8	51.21
438.0	51.52
438.2	51.69
438.4	51.65
438.6	51.76
438.8	52.22
439.0	52.94
439.2	53.52
439.4	54.09
439.6	54.56
439.8	54.89
440.0	55.33
440.2	55.62
440.4	56.00
440.6	56.15
440.8	56.79
441.0	57.24
441.2	57.96
441.4	58.52
441.6	59.16
441.8	59.46
442.0	59.81
442.2	60.31
442.4	60.65
442.6	61.19
442.8	61.61
443.0	62.19
443.2	62.58
443.4	63.39
443.6	63.59
443.8	63.88
444.0	64.36
444.2	64.64
444.4	65.05
444.6	65.86
444.8	66.45
445.0	66.98
445.2	67.64
445.4	68.25
445.6	68.90
445.8	69.90
446.0	70.62
446.2	71.44
446.4	72.01
446.6	72.88
446.8	73.46
447.0	73.82
447.2	74.21
447.4	74.96
447.6	76.20
447.8	77.37
448.0	78.05
448.2	78.23
448.4	78.63
448.6	79.29
448.8	80.32
449.0	81.23
449.2	82.18
449.4	83.08
449.6	83.45
449.8	84.11
450.0	84.72
450.2	85.46
450.4	86.56
450.6	87.59
450.8	88.24
451.0	89.37
451.2	90.61
451.4	91.37
451.6	92.17
451.8	93.04
452.0	93.75
452.2	94.98
452.4	96.18
452.6	97.17
452.8	98.40
453.0	99.44
453.2	100.4
453.4	101.5
453.6	102.6
453.8	104.0
454.0	105.1
454.2	105.9
454.4	107.0
454.6	107.9
454.8	109.4
455.0	111.1
455.2	112.7
455.4	114.4
455.6	115.7
455.8	117.0
456.0	118.3
456.2	119.4
456.4	120.6
456.6	122.3
456.8	124.4
457.0	127.0
457.2	128.6
457.4	129.6
457.6	130.3
457.8	131.6
458.0	133.7
458.2	135.7
458.4	137.5
458.6	139.3
458.8	141.3
459.0	143.9
459.2	146.4
459.4	148.8
459.6	150.7
459.8	153.0
460.0	155.0
460.2	157.4
460.4	159.8
460.6	162.6
460.8	165.0
461.0	168.2
461.2	170.6
461.4	173.0
461.6	175.2
461.8	177.9
462.0	180.9
462.2	183.9
462.4	186.6
462.6	190.0
462.8	193.4
463.0	197.1
463.2	200.3
463.4	203.5
463.6	206.5
463.8	209.8
464.0	213.5
464.2	217.8
464.4	221.9
464.6	226.4
464.8	230.0
465.0	233.4
465.2	237.5
465.4	241.9
465.6	246.1
465.8	250.7
466.0	255.5
466.2	260.0
466.4	265.3
466.6	269.0
466.8	273.0
467.0	277.8
467.2	282.9
467.4	288.0
467.6	293.6
467.8	298.4
468.0	303.7
468.2	309.9
468.4	315.9
468.6	321.3
468.8	326.7
469.0	332.6
469.2	338.3
469.4	345.5
469.6	352.7
469.8	359.4
470.0	366.3
470.2	373.0
470.4	379.5
470.6	386.2
470.8	393.6
471.0	401.5
471.2	409.0
471.4	416.5
471.6	423.7
471.8	430.8
472.0	438.3
472.2	446.8
472.4	454.7
472.6	462.7
472.8	470.4
473.0	478.0
473.2	485.5
473.4	494.6
473.6	503.3
473.8	513.0
474.0	523.2
474.2	533.1
474.4	542.0
474.6	551.6
474.8	559.9
475.0	569.8
475.2	579.9
475.4	590.6
475.6	600.5
475.8	611.6
476.0	622.0
476.2	632.5
476.4	642.9
476.6	653.4
476.8	663.7
477.0	674.4
477.2	684.6
477.4	696.3
477.6	707.4
477.8	719.0
478.0	730.8
478.2	741.2
478.4	752.1
478.6	764.0
478.8	776.0
479.0	789.7
479.2	805.4
479.4	817.9
479.6	831.3
479.8	842.5
480.0	855.1
480.2	868.0
480.4	883.4
480.6	896.1
480.8	909.8
481.0	921.9
481.2	933.8
481.4	946.1
481.6	960.9
481.8	975.8
482.0	991.1
482.2	1005
482.4	1016
482.6	1030
482.8	1046
483.0	1062
483.2	1076
483.4	1090
483.6	1102
483.8	1118
484.0	1134
484.2	1151
484.4	1166
484.6	1182
484.8	1198
485.0	1214
485.2	1230
485.4	1247
485.6	1263
485.8	1280
486.0	1296
486.2	1309
486.4	1325
486.6	1341
486.8	1357
487.0	1376
487.2	1394
487.4	1410
487.6	1425
487.8	1438
488.0	1452
488.2	1470
488.4	1487
488.6	1505
488.8	1521
489.0	1540
489.2	1558
489.4	1578
489.6	1596
489.8	1614
490.0	1630
490.2	1649
490.4	1669
490.6	1689
490.8	1708
491.0	1724
491.2	1739
491.4	1756
491.6	1773
491.8	1793
492.0	1811
492.2	1827
492.4	1842
492.6	1858
492.8	1875
493.0	1896
493.2	1915
493.4	1937
493.6	1956
493.8	1975
494.0	1992
494.2	2011
494.4	2028
494.6	2049
494.8	2070
495.0	2090
495.2	2107
495.4	2124
495.6	2141
495.8	2159
496.0	2176
496.2	2195
496.4	2212
496.6	2232
496.8	2251
497.0	2268
497.2	2287
497.4	2305
497.6	2323
497.8	2340
498.0	2361
498.2	2380
498.4	2399
498.6	2419
498.8	2438
499.0	2455
499.2	2475
499.4	2494
499.6	2514
499.8	2535
500.0	2555
500.2	2574
500.4	2593
500.6	2612
500.8	2629
501.0	2647
501.2	2664
501.4	2681
501.6	2696
501.8	2713
502.0	2729
502.2	2746
502.4	2762
502.6	2781
502.8	2798
503.0	2817
503.2	2837
503.4	2854
503.6	2873
503.8	2893
504.0	2909
504.2	2926
504.4	2945
504.6	2961
504.8	2979
505.0	3000
505.2	3017
505.4	3034
505.6	3051
505.8	3071
506.0	3088
506.2	3109
506.4	3121
506.6	3132
506.8	3143
507.0	3158
507.2	3176
507.4	3194
507.6	3210
507.8	3226
508.0	3240
508.2	3256
508.4	3273
508.6	3289
508.8	3305
509.0	3321
509.2	3336
509.4	3356
509.6	3375
509.8	3393
510.0	3409
510.2	3423
510.4	3435
510.6	3451
510.8	3465
511.0	3481
511.2	3494
511.4	3510
511.6	3524
511.8	3541
512.0	3555
512.2	3566
512.4	3576
512.6	3589
512.8	3600
513.0	3614
513.2	3626
513.4	3640
513.6	3657
513.8	3671
514.0	3686
514.2	3699
514.4	3713
514.6	3725
514.8	3738
515.0	3750
515.2	3764
515.4	3778
515.6	3795
515.8	3805
516.0	3813
516.2	3824
516.4	3837
516.6	3847
516.8	3858
517.0	3865
517.2	3873
517.4	3883
517.6	3898
517.8	3906
518.0	3919
518.2	3929
518.4	3943
518.6	3951
518.8	3960
519.0	3970
519.2	3979
519.4	3990
519.6	4001
519.8	4011
520.0	4021
520.2	4030
520.4	4035
520.6	4044
520.8	4052
521.0	4065
521.2	4075
521.4	4082
521.6	4088
521.8	4093
522.0	4099
522.2	4106
522.4	4114
522.6	4125
522.8	4133
523.0	4140
523.2	4146
523.4	4152
523.6	4159
523.8	4169
524.0	4179
524.2	4186
524.4	4195
524.6	4201
524.8	4207
525.0	4217
525.2	4227
525.4	4235
525.6	4238
525.8	4234
526.0	4234
526.2	4235
526.4	4243
526.6	4251
526.8	4255
527.0	4256
527.2	4259
527.4	4261
527.6	4267
527.8	4273
528.0	4281
528.2	4283
528.4	4285
528.6	4289
528.8	4294
529.0	4300
529.2	4307
529.4	4313
529.6	4314
529.8	4316
530.0	4321
530.2	4324
530.4	4331
530.6	4336
530.8	4338
531.0	4336
531.2	4337
531.4	4339
531.6	4342
531.8	4343
532.0	4344
532.2	4339
532.4	4340
532.6	4339
532.8	4342
533.0	4345
533.2	4349
533.4	4347
533.6	4347
533.8	4346
534.0	4346
534.2	4348
534.4	4349
534.6	4352
534.8	4354
535.0	4357
535.2	4355
535.4	4357
535.6	4354
535.8	4354
536.0	4352
536.2	4351
536.4	4349
536.6	4348
536.8	4348
537.0	4346
537.2	4345
537.4	4345
537.6	4345
537.8	4345
538.0	4343
538.2	4339
538.4	4337
538.6	4335
538.8	4335
539.0	4335
539.2	4331
539.4	4331
539.6	4327
539.8	4325
540.0	4325
540.2	4326
540.4	4320
540.6	4316
540.8	4310
541.0	4304
541.2	4302
541.4	4301
541.6	4297
541.8	4292
542.0	4289
542.2	4286
542.4	4283
542.6	4279
542.8	4278
543.0	4271
543.2	4272
543.4	4272
543.6	4269
543.8	4265
544.0	4261
544.2	4254
544.4	4250
544.6	4246
544.8	4239
545.0	4234
545.2	4231
545.4	4229
545.6	4223
545.8	4215
546.0	4205
546.2	4198
546.4	4192
546.6	4190
546.8	4185
547.0	4176
547.2	4168
547.4	4161
547.6	4158
547.8	4153
548.0	4147
548.2	4138
548.4	4130
548.6	4126
548.8	4126
549.0	4120
549.2	4117
549.4	4109
549.6	4103
549.8	4100
550.0	4095
550.2	4087
550.4	4080
550.6	4075
550.8	4068
551.0	4061
551.2	4054
551.4	4043
551.6	4033
551.8	4025
552.0	4015
552.2	4007
552.4	3999
552.6	3992
552.8	3986
553.0	3977
553.2	3970
553.4	3961
553.6	3956
553.8	3948
554.0	3942
554.2	3939
554.4	3931
554.6	3923
554.8	3916
555.0	3906
555.2	3898
555.4	3890
555.6	3883
555.8	3872
556.0	3861
556.2	3854
556.4	3849
556.6	3841
556.8	3832
557.0	3821
557.2	3812
557.4	3803
557.6	3795
557.8	3784
558.0	3773
558.2	3764
558.4	3757
558.6	3750
558.8	3740
559.0	3729
559.2	3717
559.4	3705
559.6	3697
559.8	3688
560.0	3683
560.2	3676
560.4	3669
560.6	3659
560.8	3647
561.0	3636
561.2	3628
561.4	3619
561.6	3611
561.8	3599
562.0	3589
562.2	3578
562.4	3570
562.6	3561
562.8	3549
563.0	3536
563.2	3526
563.4	3516
563.6	3509
563.8	3499
564.0	3490
564.2	3480
564.4	3472
564.6	3465
564.8	3456
565.0	3444
565.2	3433
565.4	3421
565.6	3413
565.8	3401
566.0	3392
566.2	3382
566.4	3368
566.6	3356
566.8	3345
567.0	3334
567.2	3323
567.4	3314
567.6	3301
567.8	3291
568.0	3282
568.2	3274
568.4	3265
568.6	3255
568.8	3242
569.0	3231
569.2	3222
569.4	3214
569.6	3209
569.8	3200
570.0	3189
570.2	3177
570.4	3165
570.6	3154
570.8	3142
571.0	3128
571.2	3113
571.4	3103
571.6	3095
571.8	3086
572.0	3077
572.2	3065
572.4	3052
572.6	3041
572.8	3032
573.0	3021
573.2	3010
573.4	2997
573.6	2985
573.8	2973
574.0	2967
574.2	2957
574.4	2947
574.6	2938
574.8	2932
575.0	2922
575.2	2911
575.4	2898
575.6	2885
575.8	2875
576.0	2867
576.2	2854
576.4	2840
576.6	2826
576.8	2813
577.0	2803
577.2	2795
577.4	2787
577.6	2778
577.8	2768
578.0	2756
578.2	2744
578.4	2735
578.6	2724
578.8	2714
579.0	2707
579.2	2697
579.4	2687
579.6	2678
579.8	2665
580.0	2653
580.2	2645
580.4	2636
580.6	2624
580.8	2613
581.0	2601
581.2	2589
581.4	2579
581.6	2568
581.8	2555
582.0	2545
582.2	2533
582.4	2521
582.6	2513
582.8	2504
583.0	2497
583.2	2490
583.4	2479
583.6	2467
583.8	2457
584.0	2448
584.2	2439
584.4	2430
584.6	2420
584.8	2411
585.0	2402
585.2	2391
585.4	2379
585.6	2371
585.8	2360
586.0	2347
586.2	2337
586.4	2327
586.6	2318
586.8	2310
587.0	2302
587.2	2289
587.4	2277
587.6	2264
587.8	2254
588.0	2245
588.2	2238
588.4	2230
588.6	2221
588.8	2212
589.0	2204
589.2	2194
589.4	2185
589.6	2174
589.8	2164
590.0	2154
590.2	2143
590.4	2134
590.6	2126
590.8	2115
591.0	2106
591.2	2096
591.4	2086
591.6	2076
591.8	2067
592.0	2058
592.2	2050
592.4	2039
592.6	2028
592.8	2020
593.0	2011
593.2	2003
593.4	1995
593.6	1984
593.8	1978
594.0	1970
594.2	1962
594.4	1953
594.6	1944
594.8	1935
595.0	1928
595.2	1918
595.4	1908
595.6	1899
595.8	1890
596.0	1879
596.2	1870
596.4	1861
596.6	1852
596.8	1845
597.0	1837
597.2	1829
597.4	1821
597.6	1814
597.8	1805
598.0	1797
598.2	1789
598.4	1781
598.6	1773
598.8	1766
599.0	1757
599.2	1748
599.4	1739
599.6	1730
599.8	1721
600.0	1713
600.2	1705
600.4	1695
600.6	1688
600.8	1678
601.0	1670
601.2	1663
601.4	1655
601.6	1647
601.8	1639
602.0	1630
602.2	1623
602.4	1614
602.6	1606
602.8	1599
603.0	1590
603.2	1582
603.4	1574
603.6	1566
603.8	1559
604.0	1552
604.2	1544
604.4	1536
604.6	1528
604.8	1520
605.0	1512
605.2	1506
605.4	1498
605.6	1490
605.8	1482
606.0	1474
606.2	1465
606.4	1457
606.6	1450
606.8	1443
607.0	1435
607.2	1427
607.4	1420
607.6	1412
607.8	1406
608.0	1400
608.2	1393
608.4	1387
608.6	1380
608.8	1373
609.0	1366
609.2	1361
609.4	1354
609.6	1346
609.8	1336
610.0	1328
610.2	1319
610.4	1313
610.6	1306
610.8	1300
611.0	1293
611.2	1285
611.4	1276
611.6	1269
611.8	1262
612.0	1257
612.2	1251
612.4	1243
612.6	1236
612.8	1229
613.0	1222
613.2	1216
613.4	1211
613.6	1204
613.8	1198
614.0	1192
614.2	1185
614.4	1178
614.6	1172
614.8	1165
615.0	1160
615.2	1153
615.4	1144
615.6	1139
615.8	1132
616.0	1126
616.2	1120
616.4	1112
616.6	1105
616.8	1098
617.0	1092
617.2	1086
617.4	1080
617.6	1073
617.8	1067
618.0	1061
618.2	1055
618.4	1049
618.6	1044
618.8	1038
619.0	1032
619.2	1025
619.4	1019
619.6	1013
619.8	1007
620.0	1003
620.2	997.4
620.4	990.9
620.6	986.3
620.8	979.9
621.0	972.6
621.2	966.2
621.4	959.5
621.6	955.4
621.8	950.7
622.0	945.5
622.2	938.9
622.4	932.0
622.6	925.0
622.8	920.0
623.0	914.0
623.2	909.4
623.4	904.4
623.6	899.3
623.8	892.7
624.0	887.2
624.2	880.7
624.4	876.5
624.6	871.6
624.8	867.2
625.0	862.5
625.2	858.4
625.4	853.5
625.6	848.7
625.8	843.1
626.0	836.9
626.2	830.0
626.4	824.5
626.6	819.4
626.8	814.8
627.0	810.8
627.2	805.4
627.4	799.7
627.6	794.0
627.8	788.9
628.0	783.3
628.2	778.2
628.4	773.6
628.6	769.5
628.8	764.8
629.0	760.2
629.2	754.4
629.4	749.3
629.6	744.7
629.8	740.1
630.0	736.0
630.2	731.5
630.4	727.6
630.6	723.1
630.8	719.0
631.0	713.5
631.2	708.9
631.4	704.7
631.6	700.5
631.8	694.9
632.0	689.4
632.2	683.2
632.4	679.7
632.6	677.4
632.8	674.8
633.0	670.5
633.2	665.6
633.4	660.2
633.6	656.6
633.8	652.4
634.0	648.3
634.2	643.3
634.4	639.4
634.6	635.7
634.8	632.3
635.0	628.3
635.2	624.6
635.4	619.8
635.6	615.8
635.8	612.1
636.0	607.7
636.2	603.3
636.4	600.0
636.6	596.0
636.8	592.5
637.0	588.8
637.2	584.1
637.4	578.2
637.6	574.0
637.8	570.4
638.0	567.4
638.2	565.0
638.4	561.5
638.6	557.2
638.8	554.0
639.0	550.2
639.2	546.9
639.4	544.4
639.6	541.7
639.8	538.7
640.0	535.5
640.2	531.6
640.4	527.8
640.6	523.6
640.8	520.1
641.0	515.8
641.2	512.1
641.4	508.7
641.6	505.6
641.8	502.4
642.0	499.9
642.2	496.0
642.4	492.3
642.6	488.2
642.8	484.8
643.0	481.0
643.2	478.9
643.4	475.6
643.6	472.4
643.8	469.7
644.0	467.5
644.2	464.4
644.4	462.4
644.6	459.8
644.8	456.3
645.0	452.9
645.2	450.0
645.4	446.0
645.6	442.6
645.8	439.4
646.0	435.8
646.2	432.9
646.4	430.4
646.6	426.6
646.8	423.2
647.0	419.4
647.2	416.6
647.4	413.9
647.6	411.9
647.8	409.1
648.0	406.8
648.2	403.4
648.4	401.3
648.6	398.2
648.8	396.1
649.0	393.6
649.2	391.9
649.4	388.4
649.6	386.1
649.8	383.0
650.0	380.9
650.2	377.4
650.4	374.5
650.6	372.0
650.8	369.9
651.0	367.8
651.2	365.8
651.4	362.5
651.6	359.8
651.8	357.5
652.0	354.7
652.2	352.2
652.4	349.5
652.6	347.1
652.8	345.2
653.0	341.8
653.2	338.9
653.4	336.4
653.6	334.2
653.8	332.6
654.0	331.3
654.2	328.8
654.4	326.6
654.6	324.8
654.8	322.5
655.0	319.9
655.2	317.0
655.4	314.2
655.6	311.8
655.8	310.6
656.0	308.6
656.2	306.3
656.4	304.0
656.6	302.3
656.8	300.2
657.0	298.5
657.2	295.9
657.4	293.0
657.6	290.9
657.8	289.2
658.0	286.6
658.2	284.6
658.4	282.0
658.6	280.0
658.8	278.6
659.0	276.9
659.2	274.7
659.4	273.4
659.6	271.6
659.8	270.1
660.0	267.9
660.2	265.4
660.4	263.0
660.6	261.3
660.8	259.4
661.0	257.0
661.2	255.3
661.4	252.9
661.6	250.8
661.8	249.5
662.0	247.9
662.2	245.9
662.4	245.1
662.6	243.5
662.8	241.5
663.0	239.6
663.2	238.0
663.4	236.0
663.6	234.4
663.8	232.8
664.0	231.0
664.2	228.6
664.4	227.1
664.6	225.6
664.8	225.1
665.0	224.5
665.2	223.0
665.4	220.0
665.6	218.2
665.8	216.0
666.0	214.9
666.2	213.1
666.4	211.4
666.6	209.2
666.8	208.4
667.0	207.7
667.2	206.6
667.4	204.8
667.6	203.3
667.8	201.6
668.0	200.1
668.2	198.7
668.4	197.2
668.6	195.9
668.8	193.7
669.0	192.2
669.2	190.4
669.4	188.3
669.6	187.9
669.8	187.3
670.0	186.0
670.2	184.9
670.4	183.2
670.6	181.2
670.8	179.7
671.0	178.4
671.2	177.2
671.4	176.3
671.6	175.1
671.8	173.7
672.0	172.5
672.2	170.9
672.4	169.0
672.6	167.6
672.8	166.0
673.0	165.1
673.2	164.6
673.4	163.8
673.6	162.8
673.8	161.2
674.0	159.6
674.2	158.2
674.4	157.1
674.6	156.4
674.8	155.6
675.0	154.4
675.2	153.3
675.4	151.7
675.6	150.2
675.8	148.9
676.0	147.5
676.2	146.6
676.4	145.8
676.6	144.8
676.8	143.8
677.0	142.7
677.2	141.3
677.4	140.3
677.6	139.1
677.8	138.1
678.0	137.3
678.2	136.0
678.4	134.5
678.6	133.8
678.8	132.9
679.0	132.6
679.2	132.2
679.4	131.4
679.6	130.8
679.8	129.7
680.0	128.6
680.2	127.5
680.4	126.3
680.6	124.7
680.8	123.6
681.0	122.1
681.2	121.2
681.4	120.8
681.6	120.1
681.8	119.1
682.0	118.3
682.2	117.3
682.4	116.2
682.6	115.5
682.8	114.7
683.0	114.2
683.2	113.7
683.4	112.7
683.6	111.7
683.8	110.7
684.0	110.0
684.2	109.0
684.4	108.2
684.6	107.2
684.8	106.6
685.0	106.1
685.2	105.0
685.4	104.0
685.6	103.0
685.8	102.4
686.0	101.9
686.2	101.5
686.4	100.5
686.6	99.31
686.8	98.16
687.0	97.37
687.2	96.56
687.4	96.11
687.6	95.66
687.8	94.86
688.0	93.97
688.2	93.22
688.4	92.63
688.6	91.83
688.8	91.23
689.0	90.29
689.2	89.57
689.4	88.89
689.6	88.43
689.8	87.65
690.0	86.96
690.2	86.25
690.4	85.90
690.6	85.37
690.8	85.05
691.0	84.37
691.2	83.41
691.4	82.96
691.6	82.20
691.8	81.44
692.0	80.99
692.2	80.66
692.4	80.05
692.6	79.66
692.8	79.11
693.0	78.40
693.2	77.97
693.4	77.70
693.6	77.06
693.8	76.06
694.0	75.29
694.2	74.73
694.4	74.39
694.6	74.09
694.8	73.56
695.0	72.66
695.2	72.08
695.4	71.60
695.6	70.86
695.8	70.63
696.0	69.96
696.2	69.52
696.4	68.98
696.6	68.45
696.8	67.94
697.0	67.99
697.2	67.76
697.4	67.23
697.6	66.67
697.8	66.04
698.0	65.37
698.2	64.73
698.4	64.54
698.6	64.07
698.8	64.01
699.0	63.60
699.2	63.31
699.4	62.62
699.6	62.23
699.8	61.86
700.0	61.35
700.2	60.89
700.4	60.68
700.6	60.20
700.8	59.66
701.0	59.27
701.2	58.81
701.4	58.41
701.6	58.04
701.8	57.75
702.0	57.27
702.2	57.13
702.4	56.72
702.6	56.29
702.8	55.62
703.0	55.12
703.2	54.75
703.4	54.57
703.6	54.26
703.8	54.35
704.0	53.97
704.2	53.51
704.4	53.18
704.6	52.49
704.8	52.11
705.0	51.80
705.2	51.38
705.4	50.97
705.6	50.73
705.8	50.42
706.0	50.43
706.2	49.92
706.4	49.45
706.6	48.73
706.8	48.21
707.0	47.83
707.2	47.68
707.4	47.68
707.6	47.62
707.8	47.43
708.0	47.15
708.2	46.79
708.4	46.39
708.6	46.09
708.8	45.58
709.0	45.30
709.2	44.74
709.4	44.69
709.6	44.52
709.8	44.23
710.0	43.91
710.2	43.65
710.4	43.17
710.6	43.16
710.8	42.80
711.0	42.23
711.2	41.84
711.4	41.29
711.6	40.87
711.8	40.64
712.0	40.33
712.2	40.07
712.4	39.90
712.6	39.59
712.8	39.15
713.0	38.98
713.2	38.89
713.4	38.97
713.6	38.88
713.8	38.54
714.0	38.06
714.2	37.78
714.4	37.55
714.6	37.34
714.8	37.08
715.0	36.63
715.2	36.37
715.4	36.13
715.6	35.94
715.8	35.45
716.0	35.08
716.2	34.55
716.4	34.38
716.6	34.28
716.8	34.02
717.0	33.77
717.2	33.51
717.4	32.90
717.6	32.58
717.8	32.35
718.0	32.04
718.2	32.14
718.4	31.96
718.6	31.52
718.8	31.29
719.0	31.30
719.2	31.12
719.4	31.09
719.6	30.84
719.8	30.34
720.0	30.08
720.2	30.06
720.4	29.75
720.6	29.55
720.8	29.17
721.0	28.79
721.2	28.59
721.4	28.49
721.6	28.27
721.8	27.92
722.0	27.46
722.2	27.49
722.4	27.40
722.6	27.44
722.8	27.28
723.0	26.92
723.2	26.67
723.4	26.65
723.6	26.35
723.8	25.99
724.0	25.59
724.2	25.31
724.4	25.16
724.6	25.14
