Sample:	'20211010A(EM)
File name:	B-NI 2 200.FDS
Run date:	'11:01:43, 06/20/2023
Operator:	Administrator
Comment:	'

Instrument
Model:	F-4700 FL Spectrophotometer
Serial number:	2019-001
ROM Version:	5J24010 00

Instrument parameters
Measurement type:	Wavelength scan
Scan mode:	Emission
Data mode:	Fluorescence
EX WL:	350.0 nm
EM  Start WL:	370.0 nm
EM  End WL:	700.0 nm
Scan speed:	1200 nm/min
Delay:	0.0 s
EX Slit:	10.0 nm
EM Slit:	10.0 nm
PMT Voltage:	312 V
Response:	0.002 s
Corrected spectra:	Off
Shutter control:	On

Processing performed
Savitsky-Golay smoothed
Smoothing order:	3
Number of points:	7
Number of times:	1

Peak integration
Integration method:	Rectangular
Sensitivity:	1
Threshold:	1.000

Peaks
No.	Start(nm)	Apex(nm)	End(nm)	Height(Data)	Valley(nm)	Valley(Data)
1	370.0	438.6	439.6	4214	439.6	4200
2	439.6	440.4	700.0	4214	700.0	2.470

Data points
nm	Data
370.0	13.74
370.2	13.90
370.4	14.14
370.6	14.47
370.8	14.89
371.0	15.25
371.2	15.56
371.4	16.03
371.6	16.46
371.8	16.86
372.0	17.26
372.2	17.71
372.4	18.22
372.6	18.68
372.8	19.23
373.0	19.66
373.2	20.08
373.4	20.61
373.6	21.29
373.8	21.91
374.0	22.57
374.2	23.14
374.4	23.67
374.6	24.26
374.8	24.88
375.0	25.61
375.2	26.49
375.4	27.30
375.6	28.18
375.8	28.98
376.0	29.76
376.2	30.78
376.4	31.90
376.6	32.77
376.8	33.79
377.0	34.80
377.2	35.81
377.4	36.83
377.6	37.69
377.8	38.60
378.0	39.70
378.2	41.03
378.4	42.51
378.6	43.79
378.8	45.08
379.0	46.69
379.2	48.22
379.4	49.46
379.6	50.95
379.8	52.45
380.0	54.05
380.2	55.85
380.4	57.79
380.6	59.46
380.8	61.24
381.0	63.40
381.2	65.45
381.4	67.59
381.6	70.05
381.8	72.32
382.0	74.20
382.2	76.43
382.4	78.55
382.6	81.18
382.8	84.08
383.0	86.99
383.2	89.69
383.4	92.57
383.6	95.30
383.8	98.29
384.0	101.5
384.2	104.6
384.4	108.0
384.6	111.7
384.8	115.4
385.0	119.4
385.2	123.4
385.4	127.1
385.6	131.0
385.8	135.0
386.0	139.5
386.2	144.5
386.4	149.3
386.6	153.9
386.8	158.4
387.0	162.8
387.2	167.9
387.4	173.1
387.6	179.3
387.8	185.1
388.0	190.9
388.2	196.3
388.4	201.7
388.6	207.3
388.8	213.8
389.0	220.3
389.2	228.0
389.4	235.1
389.6	241.8
389.8	249.1
390.0	256.3
390.2	264.0
390.4	272.7
390.6	281.6
390.8	289.8
391.0	299.0
391.2	307.4
391.4	315.6
391.6	323.1
391.8	331.6
392.0	340.4
392.2	350.3
392.4	360.1
392.6	370.9
392.8	380.9
393.0	391.5
393.2	402.5
393.4	414.2
393.6	425.8
393.8	438.0
394.0	449.1
394.2	460.2
394.4	471.6
394.6	483.8
394.8	496.8
395.0	509.7
395.2	523.2
395.4	537.5
395.6	551.7
395.8	566.0
396.0	580.6
396.2	595.2
396.4	609.4
396.6	624.7
396.8	639.3
397.0	654.5
397.2	669.4
397.4	686.0
397.6	701.9
397.8	718.3
398.0	733.4
398.2	750.1
398.4	766.0
398.6	783.0
398.8	801.7
399.0	819.8
399.2	838.5
399.4	858.0
399.6	877.0
399.8	897.0
400.0	917.4
400.2	937.1
400.4	958.4
400.6	978.5
400.8	998.3
401.0	1019
401.2	1041
401.4	1059
401.6	1079
401.8	1098
402.0	1119
402.2	1141
402.4	1166
402.6	1187
402.8	1208
403.0	1228
403.2	1248
403.4	1271
403.6	1294
403.8	1317
404.0	1339
404.2	1363
404.4	1387
404.6	1412
404.8	1435
405.0	1457
405.2	1477
405.4	1500
405.6	1526
405.8	1551
406.0	1576
406.2	1601
406.4	1625
406.6	1649
406.8	1671
407.0	1695
407.2	1716
407.4	1740
407.6	1763
407.8	1786
408.0	1809
408.2	1839
408.4	1865
408.6	1892
408.8	1919
409.0	1943
409.2	1967
409.4	1991
409.6	2014
409.8	2037
410.0	2063
410.2	2088
410.4	2116
410.6	2139
410.8	2161
411.0	2183
411.2	2207
411.4	2234
411.6	2259
411.8	2284
412.0	2309
412.2	2331
412.4	2353
412.6	2377
412.8	2400
413.0	2427
413.2	2453
413.4	2475
413.6	2497
413.8	2520
414.0	2542
414.2	2569
414.4	2594
414.6	2615
414.8	2637
415.0	2665
415.2	2685
415.4	2712
415.6	2736
415.8	2753
416.0	2776
416.2	2798
416.4	2816
416.6	2839
416.8	2860
417.0	2881
417.2	2903
417.4	2922
417.6	2943
417.8	2965
418.0	2981
418.2	3005
418.4	3029
418.6	3050
418.8	3074
419.0	3095
419.2	3107
419.4	3126
419.6	3145
419.8	3159
420.0	3182
420.2	3210
420.4	3237
420.6	3258
420.8	3271
421.0	3281
421.2	3301
421.4	3329
421.6	3356
421.8	3380
422.0	3397
422.2	3409
422.4	3423
422.6	3434
422.8	3441
423.0	3455
423.2	3473
423.4	3494
423.6	3515
423.8	3534
424.0	3548
424.2	3560
424.4	3576
424.6	3594
424.8	3610
425.0	3624
425.2	3641
425.4	3651
425.6	3665
425.8	3680
426.0	3694
426.2	3709
426.4	3727
426.6	3741
426.8	3755
427.0	3764
427.2	3775
427.4	3791
427.6	3801
427.8	3816
428.0	3829
428.2	3842
428.4	3854
428.6	3865
428.8	3870
429.0	3880
429.2	3892
429.4	3910
429.6	3927
429.8	3939
430.0	3947
430.2	3948
430.4	3950
430.6	3959
430.8	3971
431.0	3983
431.2	4000
431.4	4011
431.6	4025
431.8	4034
432.0	4040
432.2	4046
432.4	4061
432.6	4069
432.8	4078
433.0	4082
433.2	4087
433.4	4095
433.6	4103
433.8	4112
434.0	4120
434.2	4122
434.4	4123
434.6	4126
434.8	4130
435.0	4143
435.2	4154
435.4	4157
435.6	4159
435.8	4162
436.0	4165
436.2	4169
436.4	4175
436.6	4176
436.8	4177
437.0	4180
437.2	4181
437.4	4182
437.6	4187
437.8	4193
438.0	4202
438.2	4209
438.4	4213
438.6	4214
438.8	4209
439.0	4206
439.2	4205
439.4	4201
439.6	4200
439.8	4203
440.0	4207
440.2	4212
440.4	4214
440.6	4211
440.8	4209
441.0	4205
441.2	4205
441.4	4208
441.6	4205
441.8	4207
442.0	4208
442.2	4206
442.4	4208
442.6	4205
442.8	4200
443.0	4197
443.2	4187
443.4	4178
443.6	4176
443.8	4175
444.0	4176
444.2	4175
444.4	4169
444.6	4164
444.8	4160
445.0	4161
445.2	4152
445.4	4148
445.6	4144
445.8	4143
446.0	4141
446.2	4140
446.4	4133
446.6	4129
446.8	4121
447.0	4120
447.2	4112
447.4	4103
447.6	4094
447.8	4088
448.0	4079
448.2	4080
448.4	4076
448.6	4069
448.8	4061
449.0	4056
449.2	4046
449.4	4037
449.6	4028
449.8	4018
450.0	4014
450.2	4012
450.4	4008
450.6	4000
450.8	3993
451.0	3985
451.2	3984
451.4	3977
451.6	3966
451.8	3953
452.0	3944
452.2	3931
452.4	3929
452.6	3919
452.8	3912
453.0	3899
453.2	3889
453.4	3884
453.6	3877
453.8	3869
454.0	3862
454.2	3854
454.4	3850
454.6	3851
454.8	3838
455.0	3830
455.2	3819
455.4	3809
455.6	3800
455.8	3794
456.0	3781
456.2	3777
456.4	3766
456.6	3749
456.8	3736
457.0	3726
457.2	3715
457.4	3711
457.6	3699
457.8	3688
458.0	3672
458.2	3664
458.4	3655
458.6	3650
458.8	3639
459.0	3638
459.2	3622
459.4	3608
459.6	3598
459.8	3585
460.0	3569
460.2	3561
460.4	3549
460.6	3540
460.8	3534
461.0	3518
461.2	3504
461.4	3490
461.6	3482
461.8	3477
462.0	3471
462.2	3460
462.4	3453
462.6	3446
462.8	3433
463.0	3417
463.2	3401
463.4	3388
463.6	3375
463.8	3367
464.0	3352
464.2	3340
464.4	3330
464.6	3321
464.8	3313
465.0	3305
465.2	3294
465.4	3283
465.6	3269
465.8	3254
466.0	3241
466.2	3229
466.4	3221
466.6	3213
466.8	3200
467.0	3182
467.2	3167
467.4	3158
467.6	3149
467.8	3142
468.0	3129
468.2	3112
468.4	3097
468.6	3090
468.8	3080
469.0	3071
469.2	3057
469.4	3041
469.6	3026
469.8	3015
470.0	3009
470.2	3001
470.4	2989
470.6	2971
470.8	2953
471.0	2939
471.2	2928
471.4	2916
471.6	2903
471.8	2891
472.0	2883
472.2	2877
472.4	2863
472.6	2851
472.8	2840
473.0	2829
473.2	2823
473.4	2814
473.6	2799
473.8	2785
474.0	2774
474.2	2763
474.4	2758
474.6	2745
474.8	2735
475.0	2720
475.2	2705
475.4	2692
475.6	2677
475.8	2658
476.0	2648
476.2	2638
476.4	2629
476.6	2621
476.8	2612
477.0	2603
477.2	2597
477.4	2583
477.6	2568
477.8	2557
478.0	2545
478.2	2538
478.4	2529
478.6	2511
478.8	2498
479.0	2486
479.2	2474
479.4	2466
479.6	2459
479.8	2448
480.0	2438
480.2	2424
480.4	2412
480.6	2401
480.8	2394
481.0	2389
481.2	2379
481.4	2370
481.6	2359
481.8	2347
482.0	2334
482.2	2327
482.4	2318
482.6	2307
482.8	2292
483.0	2279
483.2	2270
483.4	2263
483.6	2257
483.8	2247
484.0	2237
484.2	2225
484.4	2218
484.6	2208
484.8	2199
485.0	2192
485.2	2180
485.4	2165
485.6	2151
485.8	2140
486.0	2133
486.2	2127
486.4	2120
486.6	2111
486.8	2101
487.0	2092
487.2	2084
487.4	2073
487.6	2067
487.8	2053
488.0	2041
488.2	2030
488.4	2020
488.6	2010
488.8	2002
489.0	1993
489.2	1985
489.4	1976
489.6	1965
489.8	1952
490.0	1944
490.2	1935
490.4	1928
490.6	1920
490.8	1912
491.0	1901
491.2	1890
491.4	1880
491.6	1873
491.8	1862
492.0	1853
492.2	1844
492.4	1833
492.6	1823
492.8	1814
493.0	1802
493.2	1795
493.4	1786
493.6	1779
493.8	1769
494.0	1759
494.2	1749
494.4	1740
494.6	1728
494.8	1719
495.0	1709
495.2	1700
495.4	1694
495.6	1689
495.8	1680
496.0	1672
496.2	1662
496.4	1654
496.6	1646
496.8	1638
497.0	1626
497.2	1617
497.4	1608
497.6	1600
497.8	1590
498.0	1582
498.2	1574
498.4	1567
498.6	1557
498.8	1549
499.0	1540
499.2	1533
499.4	1525
499.6	1516
499.8	1503
500.0	1492
500.2	1484
500.4	1475
500.6	1468
500.8	1460
501.0	1451
501.2	1441
501.4	1433
501.6	1425
501.8	1420
502.0	1415
502.2	1409
502.4	1400
502.6	1393
502.8	1384
503.0	1377
503.2	1368
503.4	1360
503.6	1351
503.8	1342
504.0	1334
504.2	1324
504.4	1315
504.6	1309
504.8	1303
505.0	1298
505.2	1291
505.4	1283
505.6	1276
505.8	1268
506.0	1261
506.2	1252
506.4	1244
506.6	1236
506.8	1230
507.0	1222
507.2	1218
507.4	1211
507.6	1205
507.8	1196
508.0	1189
508.2	1181
508.4	1172
508.6	1163
508.8	1156
509.0	1149
509.2	1143
509.4	1138
509.6	1133
509.8	1128
510.0	1123
510.2	1117
510.4	1110
510.6	1101
510.8	1092
511.0	1082
511.2	1075
511.4	1070
511.6	1067
511.8	1063
512.0	1055
512.2	1048
512.4	1040
512.6	1033
512.8	1025
513.0	1020
513.2	1013
513.4	1005
513.6	999.1
513.8	994.3
514.0	989.3
514.2	984.8
514.4	977.5
514.6	968.1
514.8	962.1
515.0	956.8
515.2	951.9
515.4	947.1
515.6	942.2
515.8	936.6
516.0	930.9
516.2	924.1
516.4	916.9
516.6	911.1
516.8	903.6
517.0	898.3
517.2	894.1
517.4	890.2
517.6	885.5
517.8	880.7
518.0	872.8
518.2	866.2
518.4	861.2
518.6	857.5
518.8	854.0
519.0	849.9
519.2	844.2
519.4	837.6
519.6	832.2
519.8	827.0
520.0	823.3
520.2	817.9
520.4	810.9
520.6	804.2
520.8	798.0
521.0	792.8
521.2	787.1
521.4	782.4
521.6	778.0
521.8	773.9
522.0	768.4
522.2	765.3
522.4	760.0
522.6	757.1
522.8	754.1
523.0	748.4
523.2	742.5
523.4	737.1
523.6	731.3
523.8	726.8
524.0	722.1
524.2	716.6
524.4	712.6
524.6	708.1
524.8	704.3
525.0	700.0
525.2	696.0
525.4	692.9
525.6	689.4
525.8	685.5
526.0	679.1
526.2	673.0
526.4	667.3
526.6	663.7
526.8	659.8
527.0	655.3
527.2	650.0
527.4	646.4
527.6	642.5
527.8	639.8
528.0	635.2
528.2	630.4
528.4	626.9
528.6	624.1
528.8	620.6
529.0	618.1
529.2	612.8
529.4	607.7
529.6	603.3
529.8	598.9
530.0	593.6
530.2	590.0
530.4	586.0
530.6	583.1
530.8	580.8
531.0	577.5
531.2	573.9
531.4	570.3
531.6	566.8
531.8	562.4
532.0	557.8
532.2	554.2
532.4	551.6
532.6	548.9
532.8	546.1
533.0	541.9
533.2	536.8
533.4	532.2
533.6	527.9
533.8	523.6
534.0	520.3
534.2	517.7
534.4	514.5
534.6	511.2
534.8	508.3
535.0	504.0
535.2	500.3
535.4	497.5
535.6	495.1
535.8	492.2
536.0	490.1
536.2	486.9
536.4	483.9
536.6	480.6
536.8	476.8
537.0	473.6
537.2	471.1
537.4	467.3
537.6	463.7
537.8	458.7
538.0	454.3
538.2	452.4
538.4	451.6
538.6	449.4
538.8	448.1
539.0	444.4
539.2	440.2
539.4	437.7
539.6	435.9
539.8	433.4
540.0	431.7
540.2	428.4
540.4	423.4
540.6	419.6
540.8	416.0
541.0	413.7
541.2	411.3
541.4	408.7
541.6	406.1
541.8	403.6
542.0	399.9
542.2	396.9
542.4	393.9
542.6	391.0
542.8	389.0
543.0	387.3
543.2	384.9
543.4	382.2
543.6	379.6
543.8	377.0
544.0	374.0
544.2	371.5
544.4	369.4
544.6	366.8
544.8	364.8
545.0	362.1
545.2	359.8
545.4	357.0
545.6	354.5
545.8	352.6
546.0	351.2
546.2	347.7
546.4	345.2
546.6	342.0
546.8	339.4
547.0	337.4
547.2	335.3
547.4	332.8
547.6	330.5
547.8	328.1
548.0	326.2
548.2	323.8
548.4	322.0
548.6	320.4
548.8	318.1
549.0	316.2
549.2	314.0
549.4	311.5
549.6	309.0
549.8	306.5
550.0	304.0
550.2	302.0
550.4	300.2
550.6	299.0
550.8	297.6
551.0	296.7
551.2	294.6
551.4	291.7
551.6	289.1
551.8	287.2
552.0	285.2
552.2	283.3
552.4	280.4
552.6	278.1
552.8	276.6
553.0	275.2
553.2	273.3
553.4	271.2
553.6	268.8
553.8	266.9
554.0	265.8
554.2	264.8
554.4	263.3
554.6	262.2
554.8	260.7
555.0	258.4
555.2	256.1
555.4	253.9
555.6	251.2
555.8	249.2
556.0	247.4
556.2	245.9
556.4	244.6
556.6	243.2
556.8	241.5
557.0	239.6
557.2	238.1
557.4	236.9
557.6	235.2
557.8	233.8
558.0	232.0
558.2	230.5
558.4	229.3
558.6	228.0
558.8	226.1
559.0	224.4
559.2	222.4
559.4	220.8
559.6	219.4
559.8	217.9
560.0	216.9
560.2	215.1
560.4	213.2
560.6	211.2
560.8	210.0
561.0	208.4
561.2	207.2
561.4	205.8
561.6	203.9
561.8	202.2
562.0	201.1
562.2	199.9
562.4	198.7
562.6	197.4
562.8	195.7
563.0	194.9
563.2	193.7
563.4	192.9
563.6	191.9
563.8	190.4
564.0	188.1
564.2	186.5
564.4	184.8
564.6	183.5
564.8	182.7
565.0	181.9
565.2	180.5
565.4	179.3
565.6	177.9
565.8	176.6
566.0	176.0
566.2	174.7
566.4	173.9
566.6	172.6
566.8	170.8
567.0	169.7
567.2	168.5
567.4	167.2
567.6	166.5
567.8	165.4
568.0	164.6
568.2	163.7
568.4	162.4
568.6	160.6
568.8	159.3
569.0	158.0
569.2	157.3
569.4	156.0
569.6	155.2
569.8	153.7
570.0	152.8
570.2	151.7
570.4	150.8
570.6	149.6
570.8	148.9
571.0	148.1
571.2	147.4
571.4	146.1
571.6	145.4
571.8	144.3
572.0	143.0
572.2	141.8
572.4	140.4
572.6	139.5
572.8	138.9
573.0	137.9
573.2	136.7
573.4	135.5
573.6	134.1
573.8	133.5
574.0	132.8
574.2	132.4
574.4	131.5
574.6	130.6
574.8	129.3
575.0	128.7
575.2	128.0
575.4	127.9
575.6	127.0
575.8	125.9
576.0	124.6
576.2	123.6
576.4	122.3
576.6	121.2
576.8	120.2
577.0	119.3
577.2	118.6
577.4	117.7
577.6	116.8
577.8	116.0
578.0	115.2
578.2	114.7
578.4	114.3
578.6	113.7
578.8	113.1
579.0	112.1
579.2	111.1
579.4	110.3
579.6	109.6
579.8	109.1
580.0	108.7
580.2	108.0
580.4	107.3
580.6	106.3
580.8	105.1
581.0	104.2
581.2	103.6
581.4	102.8
581.6	102.3
581.8	101.8
582.0	101.1
582.2	100.1
582.4	99.22
582.6	98.21
582.8	97.82
583.0	97.50
583.2	96.81
583.4	95.83
583.6	95.26
583.8	94.55
584.0	94.19
584.2	93.43
584.4	92.65
584.6	91.41
584.8	90.79
585.0	89.94
585.2	89.74
585.4	89.19
585.6	88.93
585.8	88.34
586.0	88.12
586.2	87.53
586.4	86.92
586.6	85.90
586.8	85.16
587.0	84.56
587.2	84.52
587.4	83.73
587.6	82.88
587.8	81.67
588.0	81.21
588.2	80.90
588.4	81.08
588.6	80.73
588.8	80.29
589.0	79.33
589.2	78.80
589.4	77.94
589.6	77.60
589.8	77.03
590.0	76.37
590.2	75.92
590.4	75.71
590.6	75.13
590.8	74.86
591.0	74.02
591.2	73.03
591.4	72.53
591.6	72.13
591.8	71.55
592.0	71.40
592.2	71.14
592.4	70.59
592.6	70.11
592.8	69.55
593.0	68.92
593.2	68.52
593.4	68.29
593.6	67.83
593.8	67.50
594.0	67.02
594.2	66.67
594.4	66.17
594.6	65.31
594.8	64.57
595.0	64.27
595.2	63.92
595.4	63.69
595.6	63.33
595.8	62.65
596.0	62.10
596.2	61.78
596.4	61.53
596.6	61.15
596.8	60.91
597.0	60.36
597.2	59.73
597.4	59.24
597.6	58.70
597.8	58.29
598.0	58.26
598.2	57.97
598.4	57.68
598.6	57.32
598.8	56.60
599.0	55.96
599.2	55.69
599.4	55.30
599.6	54.76
599.8	54.34
600.0	53.94
600.2	53.72
600.4	53.53
600.6	53.26
600.8	52.75
601.0	52.21
601.2	51.96
601.4	51.85
601.6	51.67
601.8	51.52
602.0	51.08
602.2	50.50
602.4	50.12
602.6	49.85
602.8	49.57
603.0	49.40
603.2	48.94
603.4	48.42
603.6	48.07
603.8	47.71
604.0	47.28
604.2	47.06
604.4	46.57
604.6	46.27
604.8	45.94
605.0	45.69
605.2	45.38
605.4	45.27
605.6	45.08
605.8	44.83
606.0	44.27
606.2	43.85
606.4	43.41
606.6	43.00
606.8	42.78
607.0	42.49
607.2	42.19
607.4	42.10
607.6	41.87
607.8	41.44
608.0	41.15
608.2	40.80
608.4	40.47
608.6	40.25
608.8	40.02
609.0	39.75
609.2	39.49
609.4	39.12
609.6	38.83
609.8	38.56
610.0	38.38
610.2	38.27
610.4	38.10
610.6	37.72
610.8	37.22
611.0	36.85
611.2	36.68
611.4	36.67
611.6	36.63
611.8	36.42
612.0	36.03
612.2	35.69
612.4	35.47
612.6	35.09
612.8	34.84
613.0	34.56
613.2	34.45
613.4	34.19
613.6	34.09
613.8	33.78
614.0	33.45
614.2	33.15
614.4	32.98
614.6	32.72
614.8	32.56
615.0	32.19
615.2	31.91
615.4	31.74
615.6	31.56
615.8	31.45
616.0	31.18
616.2	30.89
616.4	30.81
616.6	30.60
616.8	30.26
617.0	29.95
617.2	29.54
617.4	29.40
617.6	29.30
617.8	29.22
618.0	28.99
618.2	28.82
618.4	28.44
618.6	28.27
618.8	28.04
619.0	27.97
619.2	27.82
619.4	27.63
619.6	27.37
619.8	27.17
620.0	26.93
620.2	26.75
620.4	26.59
620.6	26.52
620.8	26.40
621.0	26.28
621.2	26.08
621.4	25.71
621.6	25.34
621.8	25.03
622.0	24.76
622.2	24.59
622.4	24.54
622.6	24.43
622.8	24.30
623.0	24.14
623.2	24.08
623.4	23.83
623.6	23.68
623.8	23.35
624.0	23.19
624.2	23.08
624.4	23.11
624.6	23.07
624.8	23.06
625.0	22.78
625.2	22.53
625.4	22.28
625.6	22.18
625.8	22.02
626.0	21.81
626.2	21.68
626.4	21.38
626.6	21.31
626.8	21.28
627.0	21.23
627.2	21.08
627.4	21.03
627.6	20.78
627.8	20.51
628.0	20.35
628.2	20.26
628.4	20.16
628.6	20.18
628.8	19.99
629.0	19.65
629.2	19.42
629.4	19.28
629.6	19.11
629.8	19.04
630.0	18.73
630.2	18.61
630.4	18.63
630.6	18.63
630.8	18.60
631.0	18.58
631.2	18.26
631.4	18.03
631.6	17.84
631.8	17.58
632.0	17.50
632.2	17.49
632.4	17.49
632.6	17.36
632.8	17.29
633.0	17.08
633.2	16.85
633.4	16.64
633.6	16.50
633.8	16.33
634.0	16.42
634.2	16.35
634.4	16.16
634.6	15.99
634.8	15.73
635.0	15.60
635.2	15.72
635.4	15.71
635.6	15.52
635.8	15.40
636.0	15.27
636.2	15.24
636.4	15.22
636.6	15.16
636.8	14.97
637.0	14.88
637.2	14.82
637.4	14.76
637.6	14.56
637.8	14.33
638.0	14.08
638.2	13.95
638.4	13.93
638.6	13.95
638.8	13.91
639.0	13.73
639.2	13.50
639.4	13.39
639.6	13.36
639.8	13.34
640.0	13.29
640.2	13.21
640.4	13.08
640.6	12.97
640.8	12.90
641.0	12.81
641.2	12.72
641.4	12.65
641.6	12.55
641.8	12.32
642.0	12.25
642.2	12.12
642.4	12.07
642.6	12.08
642.8	12.05
643.0	12.01
643.2	12.01
643.4	11.84
643.6	11.70
643.8	11.59
644.0	11.48
644.2	11.56
644.4	11.46
644.6	11.39
644.8	11.29
645.0	11.12
645.2	11.01
645.4	10.97
645.6	10.84
645.8	10.81
646.0	10.68
646.2	10.62
646.4	10.53
646.6	10.45
646.8	10.43
647.0	10.41
647.2	10.28
647.4	10.24
647.6	10.15
647.8	10.11
648.0	10.11
648.2	10.07
648.4	9.995
648.6	9.864
648.8	9.701
649.0	9.560
649.2	9.545
649.4	9.491
649.6	9.558
649.8	9.511
650.0	9.341
650.2	9.246
650.4	9.204
650.6	9.136
650.8	9.106
651.0	9.049
651.2	8.950
651.4	8.933
651.6	8.922
651.8	8.868
652.0	8.743
652.2	8.651
652.4	8.588
652.6	8.553
652.8	8.576
653.0	8.503
653.2	8.421
653.4	8.312
653.6	8.217
653.8	8.153
654.0	8.054
654.2	8.004
654.4	7.924
654.6	7.942
654.8	7.960
655.0	7.949
655.2	7.911
655.4	7.801
655.6	7.745
655.8	7.660
656.0	7.584
656.2	7.514
656.4	7.416
656.6	7.264
656.8	7.333
657.0	7.367
657.2	7.451
657.4	7.495
657.6	7.378
657.8	7.291
658.0	7.202
658.2	7.196
658.4	7.035
658.6	6.892
658.8	6.799
659.0	6.821
659.2	6.810
659.4	6.862
659.6	6.791
659.8	6.732
660.0	6.684
660.2	6.631
660.4	6.540
660.6	6.455
660.8	6.428
661.0	6.455
661.2	6.453
661.4	6.445
661.6	6.427
661.8	6.352
662.0	6.233
662.2	6.193
662.4	6.085
662.6	6.089
662.8	6.105
663.0	6.070
663.2	6.056
663.4	5.989
663.6	5.848
663.8	5.828
664.0	5.830
664.2	5.736
664.4	5.755
664.6	5.689
664.8	5.694
665.0	5.699
665.2	5.779
665.4	5.748
665.6	5.704
665.8	5.649
666.0	5.646
666.2	5.555
666.4	5.481
666.6	5.335
666.8	5.227
667.0	5.158
667.2	5.225
667.4	5.290
667.6	5.370
667.8	5.328
668.0	5.248
668.2	5.107
668.4	5.052
668.6	5.023
668.8	5.039
669.0	5.045
669.2	5.001
669.4	4.970
669.6	4.899
669.8	4.932
670.0	4.837
670.2	4.797
670.4	4.748
670.6	4.679
670.8	4.647
671.0	4.677
671.2	4.620
671.4	4.630
671.6	4.611
671.8	4.586
