Sample:	'20211010A(EM)
File name:	G-NI 1.FDS
Run date:	'16:26:43, 06/19/2023
Operator:	Administrator
Comment:	'

Instrument
Model:	F-4700 FL Spectrophotometer
Serial number:	2019-001
ROM Version:	5J24010 00

Instrument parameters
Measurement type:	Wavelength scan
Scan mode:	Emission
Data mode:	Fluorescence
EX WL:	400.0 nm
EM  Start WL:	420.0 nm
EM  End WL:	800.0 nm
Scan speed:	1200 nm/min
Delay:	0.0 s
EX Slit:	10.0 nm
EM Slit:	10.0 nm
PMT Voltage:	500 V
Response:	0.002 s
Corrected spectra:	Off
Shutter control:	On

Processing performed
Savitsky-Golay smoothed
Smoothing order:	3
Number of points:	7
Number of times:	1

Peak integration
Integration method:	Rectangular
Sensitivity:	1
Threshold:	1.000

Peaks
No.	Start(nm)	Apex(nm)	End(nm)	Height(Data)	Valley(nm)	Valley(Data)
1	420.0	531.2	532.2	338.5	532.2	335.7
2	532.2	534.6	535.2	347.4	535.2	344.6
3	535.2	536.0	537.0	348.9	537.0	346.0
4	537.0	538.4	539.2	351.9	539.2	344.3
5	539.2	540.8	541.8	352.7	541.8	345.5
6	541.8	543.2	545.2	348.6	545.2	341.1
7	545.2	545.8	547.4	344.6	547.4	338.6
8	547.4	547.8	551.8	341.3	551.8	324.9
9	551.8	552.6	620.8	328.2	620.8	83.17
10	620.8	621.6	629.4	85.82	629.4	65.13
11	629.4	630.2	636.8	68.20	636.8	52.42
12	636.8	637.8	647.4	53.81	647.4	38.29
13	647.4	648.0	661.8	39.75	661.8	24.07
14	661.8	662.6	664.0	25.45	664.0	21.52
15	664.0	664.8	665.8	22.98	665.8	20.70
16	665.8	667.2	770.8	21.77	770.8	0.667

Data points
nm	Data
420.0	0.494
420.2	0.297
420.4	0.397
420.6	0.619
420.8	0.678
421.0	0.589
421.2	0.533
421.4	0.451
421.6	0.484
421.8	0.526
422.0	0.365
422.2	0.336
422.4	0.316
422.6	0.406
422.8	0.558
423.0	0.608
423.2	0.449
423.4	0.453
423.6	0.354
423.8	0.332
424.0	0.423
424.2	0.600
424.4	0.544
424.6	0.643
424.8	0.697
425.0	0.688
425.2	0.691
425.4	0.662
425.6	0.524
425.8	0.509
426.0	0.445
426.2	0.502
426.4	0.562
426.6	0.542
426.8	0.527
427.0	0.427
427.2	0.325
427.4	0.484
427.6	0.607
427.8	0.690
428.0	0.665
428.2	0.588
428.4	0.491
428.6	0.467
428.8	0.467
429.0	0.480
429.2	0.481
429.4	0.577
429.6	0.516
429.8	0.400
430.0	0.323
430.2	0.269
430.4	0.334
430.6	0.480
430.8	0.536
431.0	0.448
431.2	0.418
431.4	0.444
431.6	0.429
431.8	0.485
432.0	0.552
432.2	0.561
432.4	0.538
432.6	0.551
432.8	0.448
433.0	0.397
433.2	0.482
433.4	0.608
433.6	0.602
433.8	0.582
434.0	0.462
434.2	0.371
434.4	0.420
434.6	0.459
434.8	0.556
435.0	0.672
435.2	0.699
435.4	0.621
435.6	0.535
435.8	0.444
436.0	0.427
436.2	0.502
436.4	0.471
436.6	0.403
436.8	0.392
437.0	0.416
437.2	0.397
437.4	0.448
437.6	0.385
437.8	0.437
438.0	0.490
438.2	0.493
438.4	0.543
438.6	0.576
438.8	0.502
439.0	0.518
439.2	0.559
439.4	0.449
439.6	0.473
439.8	0.471
440.0	0.579
440.2	0.647
440.4	0.700
440.6	0.552
440.8	0.409
441.0	0.405
441.2	0.568
441.4	0.590
441.6	0.605
441.8	0.577
442.0	0.482
442.2	0.460
442.4	0.376
442.6	0.386
442.8	0.377
443.0	0.459
443.2	0.508
443.4	0.500
443.6	0.411
443.8	0.471
444.0	0.468
444.2	0.565
444.4	0.533
444.6	0.559
444.8	0.547
445.0	0.478
445.2	0.492
445.4	0.556
445.6	0.463
445.8	0.499
446.0	0.456
446.2	0.474
446.4	0.456
446.6	0.460
446.8	0.386
447.0	0.441
447.2	0.332
447.4	0.433
447.6	0.439
447.8	0.441
448.0	0.499
448.2	0.576
448.4	0.450
448.6	0.510
448.8	0.495
449.0	0.538
449.2	0.596
449.4	0.525
449.6	0.427
449.8	0.384
450.0	0.296
450.2	0.367
450.4	0.554
450.6	0.621
450.8	0.706
451.0	0.649
451.2	0.531
451.4	0.412
451.6	0.409
451.8	0.410
452.0	0.480
452.2	0.443
452.4	0.421
452.6	0.379
452.8	0.434
453.0	0.536
453.2	0.630
453.4	0.601
453.6	0.582
453.8	0.489
454.0	0.401
454.2	0.388
454.4	0.452
454.6	0.528
454.8	0.540
455.0	0.461
455.2	0.322
455.4	0.336
455.6	0.399
455.8	0.480
456.0	0.461
456.2	0.462
456.4	0.455
456.6	0.496
456.8	0.496
457.0	0.456
457.2	0.365
457.4	0.477
457.6	0.468
457.8	0.529
458.0	0.545
458.2	0.545
458.4	0.486
458.6	0.584
458.8	0.550
459.0	0.556
459.2	0.556
459.4	0.620
459.6	0.697
459.8	0.733
460.0	0.611
460.2	0.516
460.4	0.561
460.6	0.603
460.8	0.652
461.0	0.675
461.2	0.534
461.4	0.456
461.6	0.477
461.8	0.423
462.0	0.344
462.2	0.420
462.4	0.490
462.6	0.565
462.8	0.691
463.0	0.766
463.2	0.756
463.4	0.682
463.6	0.605
463.8	0.524
464.0	0.557
464.2	0.564
464.4	0.595
464.6	0.570
464.8	0.594
465.0	0.693
465.2	0.817
465.4	0.894
465.6	0.853
465.8	0.809
466.0	0.680
466.2	0.655
466.4	0.739
466.6	0.799
466.8	0.750
467.0	0.739
467.2	0.659
467.4	0.662
467.6	0.783
467.8	0.853
468.0	0.834
468.2	0.894
468.4	0.813
468.6	0.831
468.8	0.820
469.0	0.890
469.2	0.901
469.4	1.022
469.6	0.950
469.8	0.853
470.0	0.798
470.2	0.809
470.4	0.830
470.6	0.958
470.8	1.075
471.0	1.143
471.2	1.308
471.4	1.347
471.6	1.285
471.8	1.256
472.0	1.348
472.2	1.407
472.4	1.373
472.6	1.346
472.8	1.336
473.0	1.374
473.2	1.404
473.4	1.587
473.6	1.506
473.8	1.547
474.0	1.697
474.2	1.796
474.4	1.798
474.6	2.027
474.8	1.832
475.0	1.633
475.2	1.552
475.4	1.567
475.6	1.715
475.8	1.990
476.0	2.048
476.2	2.046
476.4	2.013
476.6	2.108
476.8	2.308
477.0	2.547
477.2	2.633
477.4	2.617
477.6	2.759
477.8	2.909
478.0	3.113
478.2	3.327
478.4	3.360
478.6	3.301
478.8	3.175
479.0	3.229
479.2	3.271
479.4	3.495
479.6	3.706
479.8	3.735
480.0	3.821
480.2	4.168
480.4	4.235
480.6	4.243
480.8	4.263
481.0	4.271
481.2	4.380
481.4	4.613
481.6	4.725
481.8	4.775
482.0	4.918
482.2	5.410
482.4	5.647
482.6	6.114
482.8	6.438
483.0	6.674
483.2	6.591
483.4	6.641
483.6	6.901
483.8	7.048
484.0	7.193
484.2	7.738
484.4	8.248
484.6	8.648
484.8	9.217
485.0	9.439
485.2	9.602
485.4	9.912
485.6	10.35
485.8	10.63
486.0	11.20
486.2	11.52
486.4	11.63
486.6	11.88
486.8	12.47
487.0	12.97
487.2	13.79
487.4	14.24
487.6	14.13
487.8	14.44
488.0	14.56
488.2	14.77
488.4	15.18
488.6	16.14
488.8	16.70
489.0	17.36
489.2	17.47
489.4	18.02
489.6	18.45
489.8	19.54
490.0	20.09
490.2	21.00
490.4	22.15
490.6	22.84
490.8	23.53
491.0	24.18
491.2	24.03
491.4	25.14
491.6	25.99
491.8	26.42
492.0	26.94
492.2	27.49
492.4	28.62
492.6	30.20
492.8	31.56
493.0	32.29
493.2	32.52
493.4	33.05
493.6	34.31
493.8	35.93
494.0	37.32
494.2	37.54
494.4	37.96
494.6	38.66
494.8	40.07
495.0	42.04
495.2	43.29
495.4	44.29
495.6	45.33
495.8	46.07
496.0	47.38
496.2	48.27
496.4	49.64
496.6	50.64
496.8	51.54
497.0	52.83
497.2	53.43
497.4	54.25
497.6	56.36
497.8	57.66
498.0	59.37
498.2	60.87
498.4	61.77
498.6	63.34
498.8	64.70
499.0	65.83
499.2	67.95
499.4	68.94
499.6	71.04
499.8	73.76
500.0	74.20
500.2	75.50
500.4	77.03
500.6	78.83
500.8	81.31
501.0	83.56
501.2	84.53
501.4	85.47
501.6	86.45
501.8	88.18
502.0	89.56
502.2	91.77
502.4	93.01
502.6	96.01
502.8	98.35
503.0	101.0
503.2	102.3
503.4	103.8
503.6	105.3
503.8	109.0
504.0	110.7
504.2	113.3
504.4	112.8
504.6	114.1
504.8	116.7
505.0	119.5
505.2	122.9
505.4	124.9
505.6	124.4
505.8	126.3
506.0	127.9
506.2	129.8
506.4	133.3
506.6	135.4
506.8	138.2
507.0	140.4
507.2	143.6
507.4	146.1
507.6	149.0
507.8	150.7
508.0	152.4
508.2	153.8
508.4	155.4
508.6	156.5
508.8	158.5
509.0	161.1
509.2	164.9
509.4	168.7
509.6	170.3
509.8	170.5
510.0	172.4
510.2	175.2
510.4	178.9
510.6	181.6
510.8	183.4
511.0	183.3
511.2	186.2
511.4	188.5
511.6	190.9
511.8	191.4
512.0	193.6
512.2	194.6
512.4	197.4
512.6	200.6
512.8	202.2
513.0	204.3
513.2	206.6
513.4	210.6
513.6	212.0
513.8	213.3
514.0	214.1
514.2	217.3
514.4	220.3
514.6	226.2
514.8	228.1
515.0	228.6
515.2	229.4
515.4	230.1
515.6	232.4
515.8	236.3
516.0	238.4
516.2	238.7
516.4	238.3
516.6	239.7
516.8	242.2
517.0	245.6
517.2	248.0
517.4	248.9
517.6	249.9
517.8	253.0
518.0	253.8
518.2	256.6
518.4	259.1
518.6	260.0
518.8	261.2
519.0	264.5
519.2	265.0
519.4	265.9
519.6	267.8
519.8	268.4
520.0	270.8
520.2	275.7
520.4	278.1
520.6	278.9
520.8	280.4
521.0	280.6
521.2	283.4
521.4	285.8
521.6	286.5
521.8	289.5
522.0	290.1
522.2	290.6
522.4	293.3
522.6	294.6
522.8	296.0
523.0	298.1
523.2	299.8
523.4	300.3
523.6	302.0
523.8	301.9
524.0	303.7
524.2	305.5
524.4	309.0
524.6	309.9
524.8	310.5
525.0	309.2
525.2	311.4
525.4	313.6
525.6	314.2
525.8	314.4
526.0	313.7
526.2	314.4
526.4	318.4
526.6	320.3
526.8	321.0
527.0	322.5
527.2	321.4
527.4	322.0
527.6	323.1
527.8	323.9
528.0	325.2
528.2	326.3
528.4	327.5
528.6	328.7
528.8	330.0
529.0	331.1
529.2	330.2
529.4	328.4
529.6	330.1
529.8	331.5
530.0	333.8
530.2	334.9
530.4	335.8
530.6	335.6
530.8	337.9
531.0	336.9
531.2	338.5
531.4	337.8
531.6	338.1
531.8	337.8
532.0	336.9
532.2	335.7
532.4	337.4
532.6	339.1
532.8	343.2
533.0	346.7
533.2	346.7
533.4	347.2
533.6	343.6
533.8	343.0
534.0	343.9
534.2	345.6
534.4	346.3
534.6	347.4
534.8	346.1
535.0	345.7
535.2	344.6
535.4	345.0
535.6	345.3
535.8	347.2
536.0	348.9
536.2	348.7
536.4	347.7
536.6	347.0
536.8	346.3
537.0	346.0
537.2	347.9
537.4	347.8
537.6	348.2
537.8	349.4
538.0	349.6
538.2	350.7
538.4	351.9
538.6	350.8
538.8	348.2
539.0	344.4
539.2	344.3
539.4	345.0
539.6	347.3
539.8	347.5
540.0	348.4
540.2	347.1
540.4	350.7
540.6	350.8
540.8	352.7
541.0	350.6
541.2	349.7
541.4	347.6
541.6	346.7
541.8	345.5
542.0	346.1
542.2	347.1
542.4	348.2
542.6	348.2
542.8	347.9
543.0	348.2
543.2	348.6
543.4	348.5
543.6	348.4
543.8	347.7
544.0	345.7
544.2	344.5
544.4	343.9
544.6	343.7
544.8	342.7
545.0	342.0
545.2	341.1
545.4	342.6
545.6	341.8
545.8	344.6
546.0	344.3
546.2	342.3
546.4	342.6
546.6	342.4
546.8	338.8
547.0	338.6
547.2	339.0
547.4	338.6
547.6	340.3
547.8	341.3
548.0	341.0
548.2	339.9
548.4	339.6
548.6	337.1
548.8	333.5
549.0	331.9
549.2	332.0
549.4	333.7
549.6	335.6
549.8	335.6
550.0	334.9
550.2	331.9
550.4	330.6
550.6	329.9
550.8	330.4
551.0	328.7
551.2	329.3
551.4	327.4
551.6	325.8
551.8	324.9
552.0	325.2
552.2	325.4
552.4	327.3
552.6	328.2
552.8	326.4
553.0	325.8
553.2	324.8
553.4	324.3
553.6	324.4
553.8	322.6
554.0	320.8
554.2	320.2
554.4	321.6
554.6	320.1
554.8	321.2
555.0	320.7
555.2	319.9
555.4	318.6
555.6	318.4
555.8	314.7
556.0	314.6
556.2	315.9
556.4	315.4
556.6	315.3
556.8	314.2
557.0	312.0
557.2	312.5
557.4	313.2
557.6	313.8
557.8	313.4
558.0	310.7
558.2	306.7
558.4	306.2
558.6	304.8
558.8	305.6
559.0	305.2
559.2	305.9
559.4	304.3
559.6	304.6
559.8	303.9
560.0	303.1
560.2	300.8
560.4	299.0
560.6	297.2
560.8	294.7
561.0	294.0
561.2	294.9
561.4	296.2
561.6	296.5
561.8	296.2
562.0	295.4
562.2	292.9
562.4	291.4
562.6	290.2
562.8	290.2
563.0	289.4
563.2	288.9
563.4	286.2
563.6	284.5
563.8	282.8
564.0	282.7
564.2	283.1
564.4	283.2
564.6	282.1
564.8	280.8
565.0	279.7
565.2	277.0
565.4	277.6
565.6	279.6
565.8	280.0
566.0	279.3
566.2	278.6
566.4	276.2
566.6	274.6
566.8	273.1
567.0	271.6
567.2	270.7
567.4	270.9
567.6	272.1
567.8	272.3
568.0	270.2
568.2	269.5
568.4	269.0
568.6	267.6
568.8	267.9
569.0	266.5
569.2	264.0
569.4	264.0
569.6	263.3
569.8	260.7
570.0	260.1
570.2	258.4
570.4	259.9
570.6	259.8
570.8	258.9
571.0	256.6
571.2	256.7
571.4	255.7
571.6	255.5
571.8	254.2
572.0	253.2
572.2	251.7
572.4	250.6
572.6	250.3
572.8	249.8
573.0	250.4
573.2	251.6
573.4	251.9
573.6	250.5
573.8	249.9
574.0	246.9
574.2	243.8
574.4	242.0
574.6	240.9
574.8	239.6
575.0	240.8
575.2	240.5
575.4	240.7
575.6	240.1
575.8	238.7
576.0	236.7
576.2	235.2
576.4	232.8
576.6	231.8
576.8	230.0
577.0	228.7
577.2	228.2
577.4	228.0
577.6	225.5
577.8	226.1
578.0	225.5
578.2	224.9
578.4	225.2
578.6	226.8
578.8	225.9
579.0	225.8
579.2	224.4
579.4	221.5
579.6	220.4
579.8	220.4
580.0	219.5
580.2	218.9
580.4	217.7
580.6	216.9
580.8	216.1
581.0	214.7
581.2	212.4
581.4	212.8
581.6	210.8
581.8	211.5
582.0	211.3
582.2	210.0
582.4	208.6
582.6	208.3
582.8	207.5
583.0	207.9
583.2	208.3
583.4	206.6
583.6	204.9
583.8	203.5
584.0	201.5
584.2	201.9
584.4	200.1
584.6	198.5
584.8	199.3
585.0	200.0
585.2	198.8
585.4	200.4
585.6	198.1
585.8	194.7
586.0	194.2
586.2	191.6
586.4	190.3
586.6	190.5
586.8	190.7
587.0	190.0
587.2	190.8
587.4	189.3
587.6	187.1
587.8	185.1
588.0	184.0
588.2	183.8
588.4	183.5
588.6	183.5
588.8	183.1
589.0	183.0
589.2	181.9
589.4	180.6
589.6	178.0
589.8	176.8
590.0	177.5
590.2	178.0
590.4	177.4
590.6	176.6
590.8	175.2
591.0	172.4
591.2	171.6
591.4	169.9
591.6	169.7
591.8	170.6
592.0	171.8
592.2	170.5
592.4	169.0
592.6	167.0
592.8	166.6
593.0	166.7
593.2	167.3
593.4	167.1
593.6	165.1
593.8	164.3
594.0	163.9
594.2	162.9
594.4	162.1
594.6	161.8
594.8	160.6
595.0	159.7
595.2	159.2
595.4	157.3
595.6	156.4
595.8	155.7
596.0	154.8
596.2	154.2
596.4	153.9
596.6	154.2
596.8	152.9
597.0	152.0
597.2	152.0
597.4	150.8
597.6	150.5
597.8	150.4
598.0	148.5
598.2	148.6
598.4	149.2
598.6	148.3
598.8	148.2
599.0	146.8
599.2	146.3
599.4	146.8
599.6	145.6
599.8	143.7
600.0	141.0
600.2	138.3
600.4	137.3
600.6	140.0
600.8	140.0
601.0	139.6
601.2	139.1
601.4	137.7
601.6	136.3
601.8	136.9
602.0	135.0
602.2	133.9
602.4	133.5
602.6	133.0
602.8	132.2
603.0	131.3
603.2	132.1
603.4	132.7
603.6	133.7
603.8	133.3
604.0	131.2
604.2	129.3
604.4	129.6
604.6	128.4
604.8	127.6
605.0	125.4
605.2	122.9
605.4	122.8
605.6	123.6
605.8	122.3
606.0	122.4
606.2	122.7
606.4	121.9
606.6	122.6
606.8	122.5
607.0	120.6
607.2	119.9
607.4	119.7
607.6	119.0
607.8	118.2
608.0	118.1
608.2	117.3
608.4	116.7
608.6	116.0
608.8	116.3
609.0	115.0
609.2	115.8
609.4	115.4
609.6	115.3
609.8	114.6
610.0	114.6
610.2	112.2
610.4	111.6
610.6	110.3
610.8	109.3
611.0	109.8
611.2	109.9
611.4	108.2
611.6	107.8
611.8	106.3
612.0	106.1
612.2	107.4
612.4	107.7
612.6	106.4
612.8	105.7
613.0	103.6
613.2	103.3
613.4	103.7
613.6	104.7
613.8	103.7
614.0	104.1
614.2	102.3
614.4	100.6
614.6	98.71
614.8	97.49
615.0	96.52
615.2	98.72
615.4	99.25
615.6	99.18
615.8	99.29
616.0	97.67
616.2	96.32
616.4	97.01
616.6	95.87
616.8	95.15
617.0	94.59
617.2	93.72
617.4	92.68
617.6	93.12
617.8	92.16
618.0	92.18
618.2	90.75
618.4	91.31
618.6	91.56
618.8	90.80
619.0	89.55
619.2	89.33
619.4	87.58
619.6	88.26
619.8	88.83
620.0	87.78
620.2	86.49
620.4	85.66
620.6	83.67
620.8	83.17
621.0	83.51
621.2	84.10
621.4	84.98
621.6	85.82
621.8	84.66
622.0	83.27
622.2	81.87
622.4	81.15
622.6	81.02
622.8	81.40
623.0	81.63
623.2	82.47
623.4	82.44
623.6	81.52
623.8	80.06
624.0	78.17
624.2	76.79
624.4	76.62
624.6	76.67
624.8	75.85
625.0	75.58
625.2	75.53
625.4	75.53
625.6	75.76
625.8	75.49
626.0	73.50
626.2	72.51
626.4	72.33
626.6	72.96
626.8	72.27
627.0	71.23
627.2	69.47
627.4	69.00
627.6	69.76
627.8	71.02
628.0	70.25
628.2	70.38
628.4	69.84
628.6	69.06
628.8	68.00
629.0	67.48
629.2	65.67
629.4	65.13
629.6	65.26
629.8	66.91
630.0	67.87
630.2	68.20
630.4	66.80
630.6	65.54
630.8	64.71
631.0	64.71
631.2	63.80
631.4	62.86
631.6	62.28
631.8	62.34
632.0	62.64
632.2	62.26
632.4	61.25
632.6	61.28
632.8	60.58
633.0	59.69
633.2	58.84
633.4	58.87
633.6	58.64
633.8	60.02
634.0	59.89
634.2	59.54
634.4	58.18
634.6	57.71
634.8	56.74
635.0	56.47
635.2	56.14
635.4	56.18
635.6	55.72
635.8	55.62
636.0	55.50
636.2	53.97
636.4	53.43
636.6	52.73
636.8	52.42
637.0	52.71
637.2	52.89
637.4	52.45
637.6	52.97
637.8	53.81
638.0	53.71
638.2	52.78
638.4	50.79
638.6	50.20
638.8	50.09
639.0	50.50
639.2	50.26
639.4	49.65
639.6	49.24
639.8	49.49
640.0	49.33
640.2	48.48
640.4	48.82
640.6	48.85
640.8	48.73
641.0	48.09
641.2	47.57
641.4	46.79
641.6	46.83
641.8	45.87
642.0	45.21
642.2	44.83
642.4	44.86
642.6	44.91
642.8	45.15
643.0	44.99
643.2	45.59
643.4	45.45
643.6	45.31
643.8	43.97
644.0	42.32
644.2	41.70
644.4	41.94
644.6	42.56
644.8	43.50
645.0	43.37
645.2	42.30
645.4	42.05
645.6	41.44
645.8	41.18
646.0	40.96
646.2	40.79
646.4	40.77
646.6	40.42
646.8	39.86
647.0	38.90
647.2	38.58
647.4	38.29
647.6	38.76
647.8	39.37
648.0	39.75
648.2	39.39
648.4	39.18
648.6	38.54
648.8	38.13
649.0	37.86
649.2	37.04
649.4	36.56
649.6	37.07
649.8	36.95
650.0	36.61
650.2	36.41
650.4	35.99
650.6	35.60
650.8	36.26
651.0	36.28
651.2	35.58
651.4	34.99
651.6	34.20
651.8	33.56
652.0	33.54
652.2	33.89
652.4	33.57
652.6	33.16
652.8	32.59
653.0	32.34
653.2	31.99
653.4	32.14
653.6	31.73
653.8	32.40
654.0	32.68
654.2	32.09
654.4	31.60
654.6	30.99
654.8	30.48
655.0	30.40
655.2	29.98
655.4	29.48
655.6	30.06
655.8	30.25
656.0	30.52
656.2	29.88
656.4	29.33
656.6	29.19
656.8	28.92
657.0	28.50
657.2	27.93
657.4	28.17
657.6	28.40
657.8	28.83
658.0	28.10
658.2	27.94
658.4	27.32
658.6	27.53
658.8	27.40
659.0	27.45
659.2	27.27
659.4	26.76
659.6	25.93
659.8	25.72
660.0	25.66
660.2	25.68
660.4	26.13
660.6	25.45
660.8	25.11
661.0	25.06
661.2	24.78
661.4	24.78
661.6	24.76
661.8	24.07
662.0	24.11
662.2	24.61
662.4	25.34
662.6	25.45
662.8	24.88
663.0	24.26
663.2	23.74
663.4	23.14
663.6	22.84
663.8	22.08
664.0	21.52
664.2	21.67
664.4	22.26
664.6	22.69
664.8	22.98
665.0	22.72
665.2	22.14
665.4	21.02
665.6	20.86
665.8	20.70
666.0	21.51
666.2	21.70
666.4	21.57
666.6	21.27
666.8	21.38
667.0	21.33
667.2	21.77
667.4	21.28
667.6	20.60
667.8	20.20
668.0	20.09
668.2	20.44
668.4	20.61
668.6	20.68
668.8	20.27
669.0	19.35
669.2	19.27
669.4	19.13
669.6	19.18
669.8	19.21
670.0	18.83
670.2	18.57
670.4	18.59
670.6	18.32
670.8	18.85
671.0	18.75
671.2	18.71
671.4	18.97
671.6	18.58
671.8	17.90
672.0	17.76
672.2	17.36
672.4	17.41
672.6	17.85
672.8	18.10
673.0	17.98
673.2	17.63
673.4	17.17
673.6	16.65
673.8	16.23
674.0	16.38
674.2	16.62
674.4	16.63
674.6	16.58
674.8	15.95
675.0	15.64
675.2	15.34
675.4	15.14
675.6	15.38
675.8	15.42
676.0	15.24
676.2	15.52
676.4	15.52
676.6	15.49
676.8	15.40
677.0	15.13
677.2	14.78
677.4	14.68
677.6	14.86
677.8	14.84
678.0	14.37
678.2	14.45
678.4	14.23
678.6	14.15
678.8	14.25
679.0	14.12
679.2	13.65
679.4	13.75
679.6	13.82
679.8	13.62
680.0	13.77
680.2	13.51
680.4	13.07
680.6	13.02
680.8	12.99
681.0	12.66
681.2	12.60
681.4	13.04
681.6	13.08
681.8	13.06
682.0	12.92
682.2	12.51
682.4	12.25
682.6	12.88
682.8	12.99
683.0	12.95
683.2	12.89
683.4	12.45
683.6	12.17
683.8	11.94
684.0	11.94
684.2	11.89
684.4	11.75
684.6	11.79
684.8	11.82
685.0	11.73
685.2	11.58
685.4	11.32
685.6	11.01
685.8	10.97
686.0	11.01
686.2	11.10
686.4	11.13
686.6	11.13
686.8	10.76
687.0	10.67
687.2	10.43
687.4	10.20
687.6	10.20
687.8	10.30
688.0	10.08
688.2	10.36
688.4	10.40
688.6	10.21
688.8	9.817
689.0	9.911
689.2	10.06
689.4	9.983
689.6	9.823
689.8	9.796
690.0	9.778
690.2	10.23
690.4	10.29
690.6	10.09
690.8	9.591
691.0	9.094
691.2	9.163
691.4	9.174
691.6	9.160
691.8	9.473
692.0	9.372
692.2	9.029
692.4	9.060
692.6	8.596
692.8	8.793
693.0	9.180
693.2	8.936
693.4	9.141
693.6	8.858
693.8	8.510
694.0	8.667
694.2	8.848
694.4	8.417
694.6	8.787
694.8	8.549
695.0	8.489
695.2	8.338
695.4	8.170
695.6	7.948
695.8	8.161
696.0	8.011
696.2	7.904
696.4	8.126
696.6	8.233
696.8	8.258
697.0	8.260
697.2	8.084
697.4	7.872
697.6	8.121
697.8	7.962
698.0	8.032
698.2	7.828
698.4	7.841
698.6	7.698
698.8	7.738
699.0	7.812
699.2	8.014
699.4	7.823
699.6	7.698
699.8	7.343
700.0	7.044
700.2	6.965
700.4	6.886
700.6	6.771
700.8	7.227
701.0	7.496
701.2	7.407
701.4	7.250
701.6	6.899
701.8	6.414
702.0	6.719
702.2	6.700
702.4	7.061
702.6	7.263
702.8	7.166
703.0	7.043
703.2	7.016
703.4	6.796
703.6	6.964
703.8	6.812
704.0	6.699
704.2	6.751
704.4	6.754
704.6	6.876
704.8	6.873
