Sample:	'20211010A(EM)
File name:	G-NI 4 400.FDS
Run date:	'16:44:32, 06/19/2023
Operator:	Administrator
Comment:	'

Instrument
Model:	F-4700 FL Spectrophotometer
Serial number:	2019-001
ROM Version:	5J24010 00

Instrument parameters
Measurement type:	Wavelength scan
Scan mode:	Emission
Data mode:	Fluorescence
EX WL:	400.0 nm
EM  Start WL:	420.0 nm
EM  End WL:	800.0 nm
Scan speed:	1200 nm/min
Delay:	0.0 s
EX Slit:	10.0 nm
EM Slit:	10.0 nm
PMT Voltage:	500 V
Response:	0.002 s
Corrected spectra:	Off
Shutter control:	On

Processing performed
Savitsky-Golay smoothed
Smoothing order:	3
Number of points:	7
Number of times:	1

Peak integration
Integration method:	Rectangular
Sensitivity:	1
Threshold:	1.000

Peaks
No.	Start(nm)	Apex(nm)	End(nm)	Height(Data)	Valley(nm)	Valley(Data)
1	420.0	544.6	545.2	4043	545.2	4025
2	545.2	547.0	547.6	4049	547.6	4024
3	547.6	549.6	700.4	4053	700.4	93.50
4	700.4	701.2	738.0	95.65	738.0	25.38
5	738.0	738.6	751.0	26.54	751.0	15.92
6	751.0	751.6	756.4	17.54	756.4	13.73
7	756.4	757.2	768.0	15.07	768.0	8.587
8	768.0	768.6	781.0	9.663	781.0	5.862
9	781.0	781.8	789.8	7.158	789.8	5.716

Data points
nm	Data
420.0	1.693
420.2	1.885
420.4	1.918
420.6	1.864
420.8	1.844
421.0	1.792
421.2	1.822
421.4	1.960
421.6	2.091
421.8	2.064
422.0	2.070
422.2	1.951
422.4	1.925
422.6	2.066
422.8	2.049
423.0	2.017
423.2	1.999
423.4	1.794
423.6	1.859
423.8	2.017
424.0	2.048
424.2	2.103
424.4	2.130
424.6	1.858
424.8	1.806
425.0	1.769
425.2	1.692
425.4	1.679
425.6	1.749
425.8	1.713
426.0	1.885
426.2	2.041
426.4	2.182
426.6	2.171
426.8	2.087
427.0	1.968
427.2	1.958
427.4	1.922
427.6	1.946
427.8	1.987
428.0	1.949
428.2	2.011
428.4	2.138
428.6	2.017
428.8	1.889
429.0	1.809
429.2	1.721
429.4	1.852
429.6	1.951
429.8	1.936
430.0	2.025
430.2	1.896
430.4	1.831
430.6	1.770
430.8	1.744
431.0	1.734
431.2	2.056
431.4	2.218
431.6	2.362
431.8	2.269
432.0	2.172
432.2	1.892
432.4	1.908
432.6	1.819
432.8	1.838
433.0	1.853
433.2	1.916
433.4	1.784
433.6	1.715
433.8	1.608
434.0	1.648
434.2	1.729
434.4	1.846
434.6	2.017
434.8	2.070
435.0	2.007
435.2	1.974
435.4	1.839
435.6	1.846
435.8	2.095
436.0	2.169
436.2	2.205
436.4	2.235
436.6	2.253
436.8	2.338
437.0	2.370
437.2	2.351
437.4	2.322
437.6	2.261
437.8	2.314
438.0	2.376
438.2	2.178
438.4	2.025
438.6	2.141
438.8	2.062
439.0	2.155
439.2	2.286
439.4	2.232
439.6	2.152
439.8	2.240
440.0	2.257
440.2	2.367
440.4	2.434
440.6	2.368
440.8	2.383
441.0	2.303
441.2	2.308
441.4	2.368
441.6	2.327
441.8	2.228
442.0	2.320
442.2	2.363
442.4	2.351
442.6	2.432
442.8	2.419
443.0	2.403
443.2	2.480
443.4	2.476
443.6	2.526
443.8	2.463
444.0	2.476
444.2	2.410
444.4	2.476
444.6	2.455
444.8	2.401
445.0	2.424
445.2	2.642
445.4	2.605
445.6	2.585
445.8	2.693
446.0	2.609
446.2	2.592
446.4	2.672
446.6	2.695
446.8	2.743
447.0	2.877
447.2	2.877
447.4	2.864
447.6	2.769
447.8	2.672
448.0	2.480
448.2	2.565
448.4	2.748
448.6	3.118
448.8	3.297
449.0	3.320
449.2	3.240
449.4	3.251
449.6	3.154
449.8	3.147
450.0	3.118
450.2	3.167
450.4	3.136
450.6	3.161
450.8	3.095
451.0	3.196
451.2	3.387
451.4	3.292
451.6	3.152
451.8	3.273
452.0	3.432
452.2	3.442
452.4	3.428
452.6	3.211
452.8	3.157
453.0	3.365
453.2	3.544
453.4	3.690
453.6	3.699
453.8	3.747
454.0	3.942
454.2	4.126
454.4	3.906
454.6	4.057
454.8	3.954
455.0	3.949
455.2	4.181
455.4	4.251
455.6	4.273
455.8	4.439
456.0	4.296
456.2	4.234
456.4	4.248
456.6	4.115
456.8	4.410
457.0	4.474
457.2	4.619
457.4	4.949
457.6	4.968
457.8	4.881
458.0	4.816
458.2	4.548
458.4	4.669
458.6	4.832
458.8	4.751
459.0	4.723
459.2	4.859
459.4	5.097
459.6	5.448
459.8	5.590
460.0	5.531
460.2	5.450
460.4	5.873
460.6	6.420
460.8	6.550
461.0	6.365
461.2	6.019
461.4	5.933
461.6	6.221
461.8	6.801
462.0	6.817
462.2	6.789
462.4	6.782
462.6	7.127
462.8	7.331
463.0	7.437
463.2	7.485
463.4	7.457
463.6	7.712
463.8	8.163
464.0	8.207
464.2	8.189
464.4	8.126
464.6	8.014
464.8	8.292
465.0	8.703
465.2	8.981
465.4	9.362
465.6	9.832
465.8	10.21
466.0	10.48
466.2	10.30
466.4	10.33
466.6	10.27
466.8	10.71
467.0	11.07
467.2	11.52
467.4	11.61
467.6	12.00
467.8	12.51
468.0	13.25
468.2	13.32
468.4	13.49
468.6	13.32
468.8	13.05
469.0	13.43
469.2	14.09
469.4	14.85
469.6	15.16
469.8	15.60
470.0	15.36
470.2	15.47
470.4	15.74
470.6	16.80
470.8	17.58
471.0	18.85
471.2	19.15
471.4	19.46
471.6	20.00
471.8	20.41
472.0	20.50
472.2	21.13
472.4	21.52
472.6	22.11
472.8	23.04
473.0	23.83
473.2	24.29
473.4	24.94
473.6	25.32
473.8	26.02
474.0	26.46
474.2	27.55
474.4	28.69
474.6	29.79
474.8	30.95
475.0	32.21
475.2	33.03
475.4	33.53
475.6	34.26
475.8	34.90
476.0	35.76
476.2	36.83
476.4	38.06
476.6	39.04
476.8	40.36
477.0	42.04
477.2	43.31
477.4	44.44
477.6	45.19
477.8	46.03
478.0	47.76
478.2	50.08
478.4	51.70
478.6	53.90
478.8	55.19
479.0	56.20
479.2	57.83
479.4	58.10
479.6	59.79
479.8	62.40
480.0	64.34
480.2	66.55
480.4	68.95
480.6	69.59
480.8	71.77
481.0	72.97
481.2	74.39
481.4	76.90
481.6	79.46
481.8	81.79
482.0	84.51
482.2	86.50
482.4	88.60
482.6	90.50
482.8	92.12
483.0	95.29
483.2	97.94
483.4	101.2
483.6	105.1
483.8	108.5
484.0	111.3
484.2	114.9
484.4	115.8
484.6	117.3
484.8	121.3
485.0	124.4
485.2	127.9
485.4	133.2
485.6	138.4
485.8	144.0
486.0	148.2
486.2	151.0
486.4	153.3
486.6	157.2
486.8	161.7
487.0	166.5
487.2	169.9
487.4	174.3
487.6	177.0
487.8	181.2
488.0	185.8
488.2	189.9
488.4	195.5
488.6	201.0
488.8	205.9
489.0	211.1
489.2	215.9
489.4	220.8
489.6	227.2
489.8	232.1
490.0	239.4
490.2	245.9
490.4	250.3
490.6	257.6
490.8	262.2
491.0	266.6
491.2	273.2
491.4	280.1
491.6	286.5
491.8	294.7
492.0	299.9
492.2	307.8
492.4	315.9
492.6	325.5
492.8	335.0
493.0	340.7
493.2	346.4
493.4	353.8
493.6	360.9
493.8	370.7
494.0	381.8
494.2	389.6
494.4	398.4
494.6	407.0
494.8	416.0
495.0	424.5
495.2	433.1
495.4	440.5
495.6	451.3
495.8	462.4
496.0	476.6
496.2	487.0
496.4	492.4
496.6	499.2
496.8	509.5
497.0	519.5
497.2	531.0
497.4	542.7
497.6	550.9
497.8	563.9
498.0	576.6
498.2	588.1
498.4	598.5
498.6	612.0
498.8	619.8
499.0	629.1
499.2	640.5
499.4	653.6
499.6	670.5
499.8	688.3
500.0	698.5
500.2	710.3
500.4	723.9
500.6	736.5
500.8	749.5
501.0	764.6
501.2	780.5
501.4	795.5
501.6	809.4
501.8	822.0
502.0	829.5
502.2	842.2
502.4	859.1
502.6	871.2
502.8	885.4
503.0	899.2
503.2	912.9
503.4	933.6
503.6	948.8
503.8	963.5
504.0	978.6
504.2	995.7
504.4	1012
504.6	1030
504.8	1044
505.0	1061
505.2	1074
505.4	1093
505.6	1108
505.8	1123
506.0	1145
506.2	1163
506.4	1180
506.6	1198
506.8	1214
507.0	1231
507.2	1249
507.4	1261
507.6	1279
507.8	1296
508.0	1311
508.2	1332
508.4	1347
508.6	1365
508.8	1380
509.0	1396
509.2	1416
509.4	1435
509.6	1453
509.8	1476
510.0	1495
510.2	1519
510.4	1545
510.6	1564
510.8	1584
511.0	1599
511.2	1615
511.4	1632
511.6	1644
511.8	1661
512.0	1681
512.2	1703
512.4	1729
512.6	1752
512.8	1768
513.0	1788
513.2	1807
513.4	1828
513.6	1850
513.8	1872
514.0	1890
514.2	1911
514.4	1927
514.6	1944
514.8	1964
515.0	1987
515.2	2009
515.4	2033
515.6	2050
515.8	2067
516.0	2089
516.2	2114
516.4	2136
516.6	2157
516.8	2172
517.0	2190
517.2	2212
517.4	2230
517.6	2252
517.8	2274
518.0	2294
518.2	2317
518.4	2340
518.6	2357
518.8	2376
519.0	2393
519.2	2407
519.4	2425
519.6	2446
519.8	2470
520.0	2499
520.2	2525
520.4	2546
520.6	2564
520.8	2580
521.0	2596
521.2	2619
521.4	2637
521.6	2652
521.8	2670
522.0	2693
522.2	2712
522.4	2731
522.6	2739
522.8	2748
523.0	2767
523.2	2797
523.4	2828
523.6	2852
523.8	2868
524.0	2881
524.2	2895
524.4	2911
524.6	2932
524.8	2943
525.0	2964
525.2	2982
525.4	3002
525.6	3020
525.8	3045
526.0	3056
526.2	3073
526.4	3089
526.6	3100
526.8	3115
527.0	3141
527.2	3154
527.4	3163
527.6	3176
527.8	3182
528.0	3205
528.2	3229
528.4	3245
528.6	3264
528.8	3291
529.0	3311
529.2	3328
529.4	3337
529.6	3340
529.8	3348
530.0	3368
530.2	3389
530.4	3404
530.6	3424
530.8	3442
531.0	3454
531.2	3472
531.4	3488
531.6	3497
531.8	3509
532.0	3523
532.2	3530
532.4	3544
532.6	3550
532.8	3562
533.0	3579
533.2	3593
533.4	3606
533.6	3617
533.8	3623
534.0	3636
534.2	3649
534.4	3660
534.6	3670
534.8	3677
535.0	3692
535.2	3705
535.4	3721
535.6	3735
535.8	3737
536.0	3745
536.2	3759
536.4	3769
536.6	3784
536.8	3793
537.0	3795
537.2	3799
537.4	3801
537.6	3810
537.8	3821
538.0	3828
538.2	3848
538.4	3858
538.6	3864
538.8	3873
539.0	3880
539.2	3880
539.4	3887
539.6	3895
539.8	3905
540.0	3913
540.2	3925
540.4	3927
540.6	3926
540.8	3937
541.0	3951
541.2	3957
541.4	3968
541.6	3969
541.8	3966
542.0	3967
542.2	3972
542.4	3980
542.6	3996
542.8	4004
543.0	4009
543.2	4002
543.4	3999
543.6	3994
543.8	4004
544.0	4015
544.2	4033
544.4	4041
544.6	4043
544.8	4030
545.0	4030
545.2	4025
545.4	4028
545.6	4029
545.8	4033
546.0	4037
546.2	4041
546.4	4036
546.6	4040
546.8	4038
547.0	4049
547.2	4043
547.4	4038
547.6	4024
547.8	4028
548.0	4036
548.2	4054
548.4	4051
548.6	4054
548.8	4044
549.0	4038
549.2	4039
549.4	4051
549.6	4053
549.8	4050
550.0	4048
550.2	4045
550.4	4046
550.6	4049
550.8	4043
551.0	4035
551.2	4030
551.4	4030
551.6	4028
551.8	4029
552.0	4033
552.2	4027
552.4	4021
552.6	4021
552.8	4014
553.0	4007
553.2	4010
553.4	4003
553.6	4006
553.8	4010
554.0	4011
554.2	4009
554.4	4009
554.6	4008
554.8	4003
555.0	3991
555.2	3981
555.4	3971
555.6	3972
555.8	3975
556.0	3970
556.2	3964
556.4	3957
556.6	3950
556.8	3955
557.0	3952
557.2	3946
557.4	3937
557.6	3927
557.8	3917
558.0	3910
558.2	3897
558.4	3898
558.6	3898
558.8	3900
559.0	3900
559.2	3894
559.4	3881
559.6	3871
559.8	3862
560.0	3855
560.2	3850
560.4	3843
560.6	3839
560.8	3833
561.0	3830
561.2	3824
561.4	3822
561.6	3817
561.8	3811
562.0	3804
562.2	3793
562.4	3781
562.6	3769
562.8	3757
563.0	3751
563.2	3743
563.4	3735
563.6	3729
563.8	3724
564.0	3721
564.2	3717
564.4	3706
564.6	3693
564.8	3681
565.0	3677
565.2	3672
565.4	3663
565.6	3652
565.8	3643
566.0	3634
566.2	3631
566.4	3625
566.6	3611
566.8	3597
567.0	3587
567.2	3578
567.4	3571
567.6	3563
567.8	3552
568.0	3542
568.2	3536
568.4	3529
568.6	3519
568.8	3513
569.0	3507
569.2	3504
569.4	3491
569.6	3474
569.8	3461
570.0	3453
570.2	3452
570.4	3455
570.6	3445
570.8	3432
571.0	3417
571.2	3396
571.4	3390
571.6	3387
571.8	3381
572.0	3376
572.2	3371
572.4	3361
572.6	3349
572.8	3337
573.0	3321
573.2	3310
573.4	3307
573.6	3299
573.8	3288
574.0	3283
574.2	3273
574.4	3268
574.6	3260
574.8	3247
575.0	3230
575.2	3221
575.4	3198
575.6	3186
575.8	3179
576.0	3169
576.2	3161
576.4	3159
576.6	3148
576.8	3140
577.0	3134
577.2	3120
577.4	3111
577.6	3103
577.8	3093
578.0	3081
578.2	3069
578.4	3056
578.6	3046
578.8	3034
579.0	3023
579.2	3015
579.4	3002
579.6	2993
579.8	2987
580.0	2979
580.2	2972
580.4	2965
580.6	2953
580.8	2943
581.0	2933
581.2	2922
581.4	2908
581.6	2901
581.8	2891
582.0	2884
582.2	2875
582.4	2861
582.6	2843
582.8	2835
583.0	2824
583.2	2821
583.4	2818
583.6	2800
583.8	2783
584.0	2769
584.2	2762
584.4	2760
584.6	2758
584.8	2748
585.0	2737
585.2	2727
585.4	2718
585.6	2708
585.8	2696
586.0	2678
586.2	2657
586.4	2651
586.6	2642
586.8	2635
587.0	2631
587.2	2627
587.4	2620
587.6	2612
587.8	2597
588.0	2580
588.2	2562
588.4	2557
588.6	2548
588.8	2541
589.0	2537
589.2	2529
589.4	2517
589.6	2511
589.8	2495
590.0	2485
590.2	2476
590.4	2463
590.6	2450
590.8	2441
591.0	2428
591.2	2418
591.4	2411
591.6	2403
591.8	2396
592.0	2389
592.2	2380
592.4	2365
592.6	2354
592.8	2342
593.0	2334
593.2	2329
593.4	2328
593.6	2319
593.8	2317
594.0	2307
594.2	2294
594.4	2276
594.6	2265
594.8	2250
595.0	2246
595.2	2243
595.4	2240
595.6	2232
595.8	2222
596.0	2207
596.2	2197
596.4	2190
596.6	2182
596.8	2169
597.0	2152
597.2	2141
597.4	2132
597.6	2125
597.8	2121
598.0	2113
598.2	2105
598.4	2099
598.6	2091
598.8	2084
599.0	2079
599.2	2070
599.4	2058
599.6	2042
599.8	2028
600.0	2020
600.2	2013
600.4	2005
600.6	1995
600.8	1983
601.0	1974
601.2	1968
601.4	1969
601.6	1965
601.8	1959
602.0	1946
602.2	1934
602.4	1921
602.6	1908
602.8	1900
603.0	1889
603.2	1880
603.4	1879
603.6	1876
603.8	1867
604.0	1862
604.2	1855
604.4	1843
604.6	1833
604.8	1819
605.0	1805
605.2	1796
605.4	1793
605.6	1789
605.8	1782
606.0	1773
606.2	1767
606.4	1759
606.6	1752
606.8	1745
607.0	1737
607.2	1725
607.4	1713
607.6	1703
607.8	1694
608.0	1686
608.2	1683
608.4	1674
608.6	1664
608.8	1657
609.0	1656
609.2	1652
609.4	1647
609.6	1636
609.8	1620
610.0	1605
610.2	1600
610.4	1592
610.6	1588
610.8	1581
611.0	1574
611.2	1559
611.4	1547
611.6	1535
611.8	1528
612.0	1524
612.2	1520
612.4	1514
612.6	1507
612.8	1502
613.0	1497
613.2	1489
613.4	1481
613.6	1470
613.8	1461
614.0	1455
614.2	1452
614.4	1445
614.6	1439
614.8	1428
615.0	1420
615.2	1411
615.4	1404
615.6	1397
615.8	1388
616.0	1382
616.2	1376
616.4	1367
616.6	1356
616.8	1348
617.0	1341
617.2	1338
617.4	1332
617.6	1327
617.8	1319
618.0	1314
618.2	1303
618.4	1296
618.6	1290
618.8	1284
619.0	1278
619.2	1271
619.4	1255
619.6	1247
619.8	1241
620.0	1240
620.2	1236
620.4	1234
620.6	1228
620.8	1224
621.0	1214
621.2	1205
621.4	1194
621.6	1185
621.8	1178
622.0	1176
622.2	1170
622.4	1166
622.6	1162
622.8	1152
623.0	1143
623.2	1137
623.4	1126
623.6	1124
623.8	1123
624.0	1117
624.2	1111
624.4	1102
624.6	1093
624.8	1084
625.0	1075
625.2	1069
625.4	1068
625.6	1064
625.8	1063
626.0	1057
626.2	1048
626.4	1038
626.6	1032
626.8	1024
627.0	1021
627.2	1016
627.4	1011
627.6	1006
627.8	998.2
628.0	988.9
628.2	984.9
628.4	978.6
628.6	974.3
628.8	970.9
629.0	961.2
629.2	952.5
629.4	950.9
629.6	945.8
629.8	942.4
630.0	938.3
630.2	929.6
630.4	921.1
630.6	915.5
630.8	909.2
631.0	908.1
631.2	905.2
631.4	901.4
631.6	894.0
631.8	886.6
632.0	881.4
632.2	875.3
632.4	867.2
632.6	865.2
632.8	864.4
633.0	860.9
633.2	858.5
633.4	850.8
633.6	841.0
633.8	831.3
634.0	827.4
634.2	822.0
634.4	820.4
634.6	820.4
634.8	816.1
635.0	809.8
635.2	805.7
635.4	798.1
635.6	794.3
635.8	790.3
636.0	784.0
636.2	778.6
636.4	774.6
636.6	769.7
636.8	764.8
637.0	760.1
637.2	753.7
637.4	746.9
637.6	745.6
637.8	746.4
638.0	743.1
638.2	738.6
638.4	728.7
638.6	720.4
638.8	717.5
639.0	715.3
639.2	715.2
639.4	710.3
639.6	706.6
639.8	703.3
640.0	699.3
640.2	690.9
640.4	684.7
640.6	677.0
640.8	675.1
641.0	674.3
641.2	671.7
641.4	665.2
641.6	659.2
641.8	653.1
642.0	650.4
642.2	650.2
642.4	645.3
642.6	641.8
642.8	639.2
643.0	636.7
643.2	633.8
643.4	629.7
643.6	622.3
643.8	617.7
644.0	612.5
644.2	611.6
644.4	607.5
644.6	603.2
644.8	600.6
645.0	597.8
645.2	592.6
645.4	589.0
645.6	584.0
645.8	579.2
646.0	574.5
646.2	574.0
646.4	570.9
646.6	569.8
646.8	566.5
647.0	559.4
647.2	555.2
647.4	554.1
647.6	550.2
647.8	548.2
648.0	544.2
648.2	539.1
648.4	539.1
648.6	536.2
648.8	532.2
649.0	528.5
649.2	525.6
649.4	521.6
649.6	518.4
649.8	512.7
650.0	508.5
650.2	506.0
650.4	505.9
650.6	503.6
650.8	498.1
651.0	490.9
651.2	486.6
651.4	481.6
651.6	481.0
651.8	481.2
652.0	476.4
652.2	471.5
652.4	468.5
652.6	463.7
652.8	462.3
653.0	462.2
653.2	459.7
653.4	457.7
653.6	454.5
653.8	449.9
654.0	446.6
654.2	443.7
654.4	441.8
654.6	438.9
654.8	435.9
655.0	432.2
655.2	430.0
655.4	426.8
655.6	424.9
655.8	421.7
656.0	419.1
656.2	419.4
656.4	418.6
656.6	414.5
656.8	411.0
657.0	406.5
657.2	400.8
657.4	400.7
657.6	397.8
657.8	395.1
658.0	392.0
658.2	389.1
658.4	385.1
658.6	384.0
658.8	381.8
659.0	380.1
659.2	378.5
659.4	375.6
659.6	371.1
659.8	367.7
660.0	364.6
660.2	363.7
660.4	362.7
660.6	360.1
660.8	358.6
661.0	357.5
661.2	355.3
661.4	354.2
661.6	350.8
661.8	345.9
662.0	342.6
662.2	338.6
662.4	336.4
662.6	335.1
662.8	336.4
663.0	333.6
663.2	332.2
663.4	330.6
663.6	327.7
663.8	324.9
664.0	322.2
664.2	317.7
664.4	316.0
664.6	316.5
664.8	315.3
665.0	315.4
665.2	314.3
665.4	311.2
665.6	307.6
665.8	305.0
666.0	301.5
666.2	299.3
666.4	298.8
666.6	297.4
666.8	295.2
667.0	292.9
667.2	290.6
667.4	289.9
667.6	289.1
667.8	285.9
668.0	280.3
668.2	275.8
668.4	273.9
668.6	274.4
668.8	274.6
669.0	274.9
669.2	273.8
669.4	273.8
669.6	272.9
669.8	270.1
670.0	267.2
670.2	266.0
670.4	262.2
670.6	259.9
670.8	257.5
671.0	255.5
671.2	255.4
671.4	254.1
671.6	251.4
671.8	248.8
672.0	247.2
672.2	245.3
672.4	244.6
672.6	241.5
672.8	239.2
673.0	236.4
673.2	235.2
673.4	234.6
673.6	235.2
673.8	232.8
674.0	230.7
674.2	227.5
674.4	225.3
674.6	224.9
674.8	224.5
675.0	223.3
675.2	222.5
675.4	220.0
675.6	216.3
675.8	215.0
676.0	212.7
676.2	211.9
676.4	213.0
676.6	211.4
676.8	210.8
677.0	211.9
677.2	209.5
677.4	205.8
677.6	203.0
677.8	201.3
678.0	201.4
678.2	200.8
678.4	200.7
678.6	198.8
678.8	196.9
679.0	195.6
679.2	194.1
679.4	191.6
679.6	190.4
679.8	189.3
680.0	187.2
680.2	185.2
680.4	184.4
680.6	182.5
680.8	180.7
681.0	180.2
681.2	178.0
681.4	177.0
681.6	175.6
681.8	175.1
682.0	176.0
682.2	175.3
682.4	173.2
682.6	171.1
682.8	168.9
683.0	168.0
683.2	168.2
683.4	165.8
683.6	165.7
683.8	164.7
684.0	164.2
684.2	162.3
684.4	161.4
684.6	159.2
684.8	158.2
685.0	156.9
685.2	156.1
685.4	154.4
685.6	153.4
685.8	151.5
686.0	149.9
686.2	148.9
686.4	148.3
686.6	148.0
686.8	147.6
687.0	146.7
687.2	146.3
687.4	146.3
687.6	145.7
687.8	144.2
688.0	143.3
688.2	142.2
688.4	140.0
688.6	139.2
688.8	137.5
689.0	134.9
689.2	134.0
689.4	133.4
689.6	131.4
689.8	130.9
690.0	131.2
690.2	130.5
690.4	131.0
690.6	130.7
690.8	129.3
691.0	128.6
691.2	128.9
691.4	127.4
691.6	127.4
691.8	125.2
692.0	123.3
692.2	122.3
692.4	121.8
692.6	119.5
692.8	120.1
693.0	118.5
693.2	117.6
693.4	116.3
693.6	117.3
693.8	116.8
694.0	118.0
694.2	115.9
694.4	114.8
694.6	113.6
694.8	113.4
695.0	112.7
695.2	111.7
695.4	109.1
695.6	109.2
695.8	110.3
696.0	110.8
696.2	111.2
696.4	110.3
696.6	108.9
696.8	108.6
697.0	107.6
697.2	107.2
697.4	106.3
697.6	105.4
697.8	103.6
698.0	102.4
698.2	101.1
698.4	100.6
698.6	99.84
698.8	99.33
699.0	98.46
699.2	97.92
699.4	97.91
699.6	97.49
699.8	96.44
700.0	94.78
700.2	93.85
700.4	93.50
700.6	93.54
700.8	94.34
701.0	95.62
701.2	95.65
701.4	95.25
701.6	93.91
701.8	92.29
702.0	91.48
702.2	91.47
702.4	91.38
702.6	90.97
702.8	89.65
703.0	87.99
703.2	87.07
703.4	88.41
703.6	88.44
703.8	88.00
704.0	86.44
704.2	84.70
704.4	84.43
704.6	85.42
704.8	84.81
705.0	84.95
705.2	84.06
705.4	83.41
705.6	83.01
705.8	82.02
706.0	81.04
706.2	81.08
706.4	79.30
706.6	78.29
706.8	78.14
707.0	77.83
707.2	77.85
707.4	78.07
707.6	77.37
707.8	77.68
708.0	78.59
708.2	77.39
708.4	75.97
708.6	74.32
708.8	73.16
709.0	73.38
709.2	73.86
709.4	73.92
709.6	73.14
709.8	73.27
710.0	72.05
710.2	71.62
710.4	70.66
710.6	70.33
710.8	69.27
711.0	69.40
711.2	68.46
711.4	68.13
711.6	68.10
711.8	68.68
712.0	69.45
712.2	68.58
712.4	67.65
712.6	66.67
712.8	64.66
713.0	63.43
713.2	63.75
713.4	63.38
713.6	63.62
713.8	64.41
714.0	63.59
714.2	62.99
714.4	62.57
714.6	62.12
714.8	60.85
715.0	59.88
715.2	59.12
715.4	58.87
715.6	58.54
715.8	59.02
716.0	58.49
716.2	58.56
716.4	58.28
716.6	57.87
716.8	57.60
717.0	57.06
717.2	56.18
717.4	56.01
717.6	55.47
717.8	55.15
718.0	54.55
718.2	53.64
718.4	53.53
718.6	53.59
