Sample:	'20211010A(EM)
File name:	G-NI 5 500.FDS
Run date:	'16:47:54, 06/19/2023
Operator:	Administrator
Comment:	'

Instrument
Model:	F-4700 FL Spectrophotometer
Serial number:	2019-001
ROM Version:	5J24010 00

Instrument parameters
Measurement type:	Wavelength scan
Scan mode:	Emission
Data mode:	Fluorescence
EX WL:	400.0 nm
EM  Start WL:	420.0 nm
EM  End WL:	800.0 nm
Scan speed:	1200 nm/min
Delay:	0.0 s
EX Slit:	10.0 nm
EM Slit:	10.0 nm
PMT Voltage:	500 V
Response:	0.002 s
Corrected spectra:	Off
Shutter control:	On

Processing performed
Savitsky-Golay smoothed
Smoothing order:	3
Number of points:	7
Number of times:	1

Peak integration
Integration method:	Rectangular
Sensitivity:	1
Threshold:	1.000

Peaks
No.	Start(nm)	Apex(nm)	End(nm)	Height(Data)	Valley(nm)	Valley(Data)
1	420.0	439.6	440.6	2.538	440.6	1.478
2	440.6	548.0	550.0	3810	550.0	3792
3	550.0	552.0	728.6	3805	728.6	33.79
4	728.6	729.4	744.0	35.18	744.0	19.17
5	744.0	744.8	751.2	20.63	751.2	15.00
6	751.2	751.6	785.6	16.04	785.6	5.466
7	785.6	794.2	796.2	6.966	796.2	5.753

Data points
nm	Data
420.0	1.564
420.2	1.487
420.4	1.577
420.6	1.734
420.8	1.775
421.0	1.720
421.2	1.803
421.4	1.798
421.6	1.710
421.8	1.945
422.0	1.880
422.2	1.819
422.4	1.803
422.6	1.790
422.8	1.960
423.0	2.069
423.2	1.921
423.4	1.909
423.6	1.881
423.8	1.798
424.0	1.873
424.2	1.812
424.4	1.677
424.6	1.704
424.8	1.743
425.0	1.724
425.2	1.759
425.4	1.692
425.6	1.830
425.8	1.806
426.0	1.820
426.2	1.903
426.4	2.110
426.6	2.040
426.8	2.017
427.0	1.672
427.2	1.436
427.4	1.461
427.6	1.602
427.8	1.667
428.0	1.720
428.2	1.759
428.4	1.823
428.6	1.873
428.8	1.847
429.0	1.942
429.2	1.930
429.4	1.966
429.6	1.880
429.8	1.879
430.0	1.844
430.2	1.984
430.4	2.034
430.6	2.017
430.8	2.045
431.0	2.084
431.2	2.000
431.4	1.999
431.6	1.955
431.8	1.909
432.0	2.015
432.2	2.115
432.4	2.226
432.6	2.135
432.8	2.049
433.0	2.031
433.2	1.892
433.4	1.832
433.6	1.817
433.8	1.736
434.0	2.014
434.2	2.080
434.4	1.896
434.6	1.821
434.8	1.719
435.0	1.672
435.2	1.881
435.4	1.947
435.6	1.935
435.8	1.985
436.0	2.088
436.2	2.058
436.4	1.977
436.6	2.003
436.8	1.823
437.0	1.763
437.2	1.873
437.4	1.915
437.6	2.059
437.8	2.126
438.0	2.055
438.2	2.198
438.4	2.245
438.6	2.015
438.8	2.117
439.0	2.012
439.2	2.174
439.4	2.403
439.6	2.538
439.8	2.207
440.0	1.979
440.2	1.634
440.4	1.572
440.6	1.478
440.8	1.775
441.0	1.928
441.2	2.033
441.4	2.294
441.6	2.446
441.8	2.469
442.0	2.525
442.2	2.408
442.4	2.438
442.6	2.485
442.8	2.400
443.0	2.340
443.2	2.255
443.4	2.218
443.6	2.452
443.8	2.456
444.0	2.542
444.2	2.591
444.4	2.641
444.6	2.783
444.8	2.797
445.0	2.772
445.2	2.742
445.4	2.567
445.6	2.291
445.8	2.228
446.0	2.195
446.2	2.453
446.4	2.686
446.6	2.652
446.8	2.526
447.0	2.481
447.2	2.364
447.4	2.572
447.6	2.804
447.8	2.808
448.0	2.810
448.2	2.852
448.4	2.677
448.6	2.797
448.8	2.899
449.0	2.967
449.2	2.904
449.4	2.856
449.6	2.864
449.8	2.785
450.0	2.793
450.2	2.899
450.4	2.921
450.6	2.752
450.8	3.150
451.0	3.214
451.2	3.327
451.4	3.284
451.6	3.239
451.8	2.981
452.0	3.272
452.2	3.306
452.4	3.378
452.6	3.120
452.8	3.083
453.0	3.105
453.2	3.165
453.4	3.401
453.6	3.419
453.8	3.432
454.0	3.589
454.2	3.787
454.4	3.907
454.6	4.161
454.8	4.104
455.0	4.344
455.2	4.362
455.4	4.239
455.6	4.012
455.8	3.922
456.0	3.820
456.2	3.978
456.4	4.275
456.6	4.454
456.8	4.360
457.0	4.389
457.2	4.523
457.4	4.579
457.6	4.875
457.8	5.167
458.0	5.255
458.2	5.135
458.4	5.424
458.6	5.409
458.8	5.315
459.0	5.275
459.2	5.129
459.4	5.148
459.6	5.461
459.8	5.565
460.0	5.540
460.2	5.624
460.4	5.739
460.6	6.093
460.8	6.114
461.0	6.111
461.2	5.720
461.4	5.848
461.6	6.168
461.8	6.547
462.0	7.048
462.2	7.376
462.4	7.177
462.6	7.179
462.8	7.191
463.0	6.820
463.2	7.028
463.4	7.166
463.6	7.324
463.8	7.410
464.0	7.293
464.2	7.272
464.4	8.148
464.6	8.663
464.8	9.048
465.0	9.015
465.2	8.640
465.4	8.543
465.6	9.040
465.8	9.344
466.0	9.787
466.2	10.05
466.4	10.05
466.6	9.968
466.8	10.37
467.0	10.84
467.2	11.33
467.4	11.58
467.6	11.38
467.8	11.39
468.0	12.11
468.2	12.89
468.4	13.47
468.6	13.83
468.8	13.67
469.0	13.86
469.2	14.31
469.4	14.58
469.6	14.70
469.8	14.98
470.0	15.73
470.2	16.50
470.4	16.78
470.6	17.28
470.8	17.50
471.0	17.60
471.2	18.66
471.4	18.88
471.6	18.69
471.8	19.52
472.0	19.98
472.2	20.21
472.4	21.30
472.6	22.10
472.8	21.94
473.0	23.05
473.2	23.93
473.4	24.59
473.6	25.23
473.8	26.07
474.0	25.95
474.2	25.97
474.4	26.24
474.6	27.22
474.8	28.69
475.0	30.46
475.2	31.67
475.4	31.82
475.6	31.95
475.8	32.36
476.0	33.31
476.2	34.96
476.4	36.46
476.6	37.38
476.8	38.44
477.0	39.05
477.2	39.85
477.4	41.83
477.6	43.35
477.8	44.08
478.0	44.96
478.2	45.63
478.4	46.81
478.6	48.64
478.8	50.57
479.0	51.92
479.2	53.20
479.4	54.09
479.6	55.97
479.8	57.62
480.0	58.90
480.2	60.86
480.4	63.28
480.6	64.72
480.8	67.19
481.0	69.57
481.2	71.31
481.4	73.33
481.6	75.82
481.8	77.60
482.0	80.05
482.2	83.17
482.4	84.97
482.6	85.59
482.8	87.13
483.0	88.85
483.2	91.11
483.4	94.24
483.6	97.49
483.8	100.9
484.0	103.8
484.2	107.3
484.4	110.0
484.6	112.6
484.8	115.5
485.0	118.4
485.2	120.5
485.4	123.2
485.6	126.7
485.8	129.6
486.0	133.7
486.2	136.7
486.4	140.4
486.6	143.7
486.8	147.7
487.0	151.0
487.2	156.1
487.4	159.6
487.6	163.0
487.8	167.2
488.0	171.6
488.2	175.7
488.4	181.2
488.6	184.9
488.8	188.1
489.0	193.7
489.2	197.7
489.4	201.8
489.6	206.7
489.8	212.7
490.0	218.2
490.2	226.7
490.4	233.2
490.6	237.8
490.8	241.1
491.0	247.7
491.2	253.7
491.4	262.8
491.6	268.9
491.8	274.4
492.0	278.9
492.2	283.6
492.4	290.7
492.6	299.3
492.8	304.6
493.0	311.5
493.2	318.1
493.4	322.8
493.6	331.5
493.8	340.5
494.0	347.8
494.2	358.3
494.4	366.1
494.6	376.0
494.8	383.9
495.0	389.9
495.2	395.7
495.4	406.1
495.6	414.3
495.8	425.3
496.0	432.2
496.2	440.0
496.4	448.9
496.6	459.7
496.8	468.7
497.0	478.2
497.2	487.6
497.4	496.7
497.6	507.9
497.8	516.1
498.0	524.4
498.2	535.4
498.4	549.2
498.6	560.9
498.8	571.8
499.0	579.1
499.2	587.6
499.4	598.3
499.6	609.9
499.8	619.8
500.0	633.0
500.2	646.3
500.4	662.5
500.6	676.5
500.8	688.7
501.0	699.1
501.2	709.3
501.4	719.3
501.6	733.6
501.8	745.2
502.0	759.2
502.2	770.1
502.4	779.3
502.6	791.6
502.8	807.1
503.0	821.3
503.2	834.6
503.4	849.3
503.6	864.6
503.8	882.8
504.0	898.7
504.2	913.1
504.4	926.4
504.6	939.7
504.8	953.3
505.0	969.6
505.2	979.2
505.4	992.2
505.6	1011
505.8	1030
506.0	1050
506.2	1068
506.4	1079
506.6	1092
506.8	1106
507.0	1123
507.2	1138
507.4	1154
507.6	1170
507.8	1186
508.0	1198
508.2	1217
508.4	1232
508.6	1253
508.8	1268
509.0	1282
509.2	1294
509.4	1309
509.6	1329
509.8	1352
510.0	1372
510.2	1390
510.4	1406
510.6	1426
510.8	1450
511.0	1466
511.2	1484
511.4	1498
511.6	1513
511.8	1530
512.0	1550
512.2	1565
512.4	1585
512.6	1600
512.8	1624
513.0	1643
513.2	1664
513.4	1684
513.6	1704
513.8	1720
514.0	1740
514.2	1755
514.4	1771
514.6	1791
514.8	1812
515.0	1830
515.2	1849
515.4	1863
515.6	1879
515.8	1899
516.0	1923
516.2	1949
516.4	1975
516.6	1988
516.8	2004
517.0	2022
517.2	2038
517.4	2056
517.6	2072
517.8	2086
518.0	2107
518.2	2128
518.4	2142
518.6	2164
518.8	2179
519.0	2200
519.2	2223
519.4	2239
519.6	2248
519.8	2270
520.0	2287
520.2	2312
520.4	2336
520.6	2355
520.8	2367
521.0	2385
521.2	2401
521.4	2421
521.6	2439
521.8	2456
522.0	2474
522.2	2493
522.4	2513
522.6	2531
522.8	2549
523.0	2559
523.2	2571
523.4	2585
523.6	2608
523.8	2629
524.0	2649
524.2	2668
524.4	2684
524.6	2704
524.8	2721
525.0	2733
525.2	2746
525.4	2771
525.6	2790
525.8	2813
526.0	2828
526.2	2841
526.4	2857
526.6	2880
526.8	2897
527.0	2913
527.2	2927
527.4	2941
527.6	2955
527.8	2967
528.0	2982
528.2	2993
528.4	3014
528.6	3028
528.8	3035
529.0	3046
529.2	3063
529.4	3080
529.6	3104
529.8	3113
530.0	3120
530.2	3138
530.4	3154
530.6	3173
530.8	3190
531.0	3198
531.2	3207
531.4	3224
531.6	3238
531.8	3249
532.0	3260
532.2	3266
532.4	3276
532.6	3287
532.8	3307
533.0	3326
533.2	3348
533.4	3363
533.6	3372
533.8	3376
534.0	3380
534.2	3386
534.4	3398
534.6	3410
534.8	3420
535.0	3437
535.2	3453
535.4	3470
535.6	3485
535.8	3496
536.0	3497
536.2	3499
536.4	3505
536.6	3517
536.8	3525
537.0	3535
537.2	3541
537.4	3546
537.6	3555
537.8	3567
538.0	3572
538.2	3581
538.4	3592
538.6	3597
538.8	3607
539.0	3617
539.2	3622
539.4	3630
539.6	3641
539.8	3645
540.0	3648
540.2	3650
540.4	3657
540.6	3664
540.8	3680
541.0	3694
541.2	3694
541.4	3704
541.6	3712
541.8	3710
542.0	3714
542.2	3720
542.4	3723
542.6	3739
542.8	3747
543.0	3753
543.2	3747
543.4	3743
543.6	3741
543.8	3744
544.0	3752
544.2	3764
544.4	3765
544.6	3772
544.8	3774
545.0	3777
545.2	3781
545.4	3781
545.6	3779
545.8	3782
546.0	3780
546.2	3786
546.4	3795
546.6	3798
546.8	3798
547.0	3794
547.2	3792
547.4	3796
547.6	3808
547.8	3810
548.0	3810
548.2	3810
548.4	3808
548.6	3806
548.8	3807
549.0	3809
549.2	3804
549.4	3804
549.6	3802
549.8	3795
550.0	3792
550.2	3796
550.4	3796
550.6	3799
550.8	3805
551.0	3799
551.2	3793
551.4	3794
551.6	3796
551.8	3802
552.0	3805
552.2	3796
552.4	3784
552.6	3781
552.8	3778
553.0	3787
553.2	3785
553.4	3772
553.6	3762
553.8	3762
554.0	3766
554.2	3772
554.4	3768
554.6	3761
554.8	3757
555.0	3757
555.2	3761
555.4	3759
555.6	3750
555.8	3741
556.0	3731
556.2	3720
556.4	3719
556.6	3720
556.8	3715
557.0	3710
557.2	3703
557.4	3695
557.6	3695
557.8	3701
558.0	3705
558.2	3700
558.4	3697
558.6	3689
558.8	3682
559.0	3679
559.2	3673
559.4	3656
559.6	3651
559.8	3650
560.0	3641
560.2	3639
560.4	3631
560.6	3625
560.8	3618
561.0	3611
561.2	3602
561.4	3592
561.6	3576
561.8	3585
562.0	3574
562.2	3570
562.4	3562
562.6	3548
562.8	3535
563.0	3544
563.2	3540
563.4	3544
563.6	3536
563.8	3522
564.0	3509
564.2	3499
564.4	3494
564.6	3494
564.8	3496
565.0	3486
565.2	3469
565.4	3455
565.6	3445
565.8	3445
566.0	3445
566.2	3437
566.4	3429
566.6	3422
566.8	3413
567.0	3405
567.2	3389
567.4	3378
567.6	3376
567.8	3378
568.0	3369
568.2	3360
568.4	3354
568.6	3341
568.8	3332
569.0	3326
569.2	3307
569.4	3298
569.6	3294
569.8	3282
570.0	3279
570.2	3271
570.4	3262
570.6	3252
570.8	3238
571.0	3223
571.2	3217
571.4	3218
571.6	3215
571.8	3206
572.0	3197
572.2	3179
572.4	3173
572.6	3173
572.8	3168
573.0	3160
573.2	3154
573.4	3137
573.6	3122
573.8	3113
574.0	3100
574.2	3088
574.4	3075
574.6	3065
574.8	3056
575.0	3052
575.2	3040
575.4	3029
575.6	3023
575.8	3020
576.0	3017
576.2	3008
576.4	2993
576.6	2980
576.8	2974
577.0	2969
577.2	2962
577.4	2949
577.6	2940
577.8	2934
578.0	2928
578.2	2917
578.4	2898
578.6	2883
578.8	2878
579.0	2870
579.2	2864
579.4	2857
579.6	2847
579.8	2837
580.0	2830
580.2	2816
580.4	2804
580.6	2797
580.8	2795
581.0	2785
581.2	2776
581.4	2760
581.6	2746
581.8	2733
582.0	2734
582.2	2728
582.4	2716
582.6	2701
582.8	2690
583.0	2679
583.2	2674
583.4	2665
583.6	2653
583.8	2644
584.0	2639
584.2	2633
584.4	2619
584.6	2605
584.8	2597
585.0	2589
585.2	2582
585.4	2574
585.6	2557
585.8	2543
586.0	2540
586.2	2532
586.4	2523
586.6	2516
586.8	2501
587.0	2495
587.2	2497
587.4	2490
587.6	2481
587.8	2468
588.0	2454
588.2	2441
588.4	2433
588.6	2422
588.8	2414
589.0	2408
589.2	2399
589.4	2389
589.6	2375
589.8	2366
590.0	2362
590.2	2355
590.4	2347
590.6	2342
590.8	2334
591.0	2322
591.2	2309
591.4	2292
591.6	2280
591.8	2273
592.0	2270
592.2	2262
592.4	2255
592.6	2247
592.8	2234
593.0	2225
593.2	2218
593.4	2208
593.6	2197
593.8	2188
594.0	2178
594.2	2177
594.4	2175
594.6	2167
594.8	2156
595.0	2142
595.2	2132
595.4	2125
595.6	2114
595.8	2102
596.0	2093
596.2	2086
596.4	2080
596.6	2073
596.8	2063
597.0	2056
597.2	2050
597.4	2044
597.6	2033
597.8	2019
598.0	2007
598.2	2002
598.4	1997
598.6	1998
598.8	1990
599.0	1977
599.2	1964
599.4	1953
599.6	1945
599.8	1941
600.0	1930
600.2	1923
600.4	1914
600.6	1904
600.8	1902
601.0	1895
601.2	1888
601.4	1880
601.6	1870
601.8	1859
602.0	1846
602.2	1835
602.4	1829
602.6	1822
602.8	1812
603.0	1804
603.2	1794
603.4	1788
603.6	1786
603.8	1778
604.0	1764
604.2	1754
604.4	1745
604.6	1735
604.8	1728
605.0	1723
605.2	1717
605.4	1713
605.6	1706
605.8	1692
606.0	1679
606.2	1672
606.4	1663
606.6	1657
606.8	1650
607.0	1643
607.2	1640
607.4	1634
607.6	1626
607.8	1613
608.0	1599
608.2	1590
608.4	1584
608.6	1581
608.8	1577
609.0	1566
609.2	1560
609.4	1555
609.6	1544
609.8	1539
610.0	1531
610.2	1521
610.4	1518
610.6	1507
610.8	1497
611.0	1494
611.2	1487
611.4	1479
611.6	1473
611.8	1460
612.0	1450
612.2	1444
612.4	1436
612.6	1432
612.8	1428
613.0	1418
613.2	1409
613.4	1401
613.6	1395
613.8	1392
614.0	1386
614.2	1378
614.4	1365
614.6	1357
614.8	1352
615.0	1347
615.2	1344
615.4	1340
615.6	1331
615.8	1324
616.0	1317
616.2	1311
616.4	1305
616.6	1295
616.8	1290
617.0	1284
617.2	1279
617.4	1271
617.6	1265
617.8	1253
618.0	1250
618.2	1244
618.4	1241
618.6	1227
618.8	1218
619.0	1211
619.2	1207
619.4	1202
619.6	1200
619.8	1191
620.0	1182
620.2	1173
620.4	1164
620.6	1160
620.8	1155
621.0	1148
621.2	1144
621.4	1139
621.6	1130
621.8	1126
622.0	1118
622.2	1110
622.4	1103
622.6	1096
622.8	1091
623.0	1086
623.2	1082
623.4	1077
623.6	1072
623.8	1067
624.0	1064
624.2	1059
624.4	1051
624.6	1040
624.8	1033
625.0	1028
625.2	1024
625.4	1021
625.6	1016
625.8	1007
626.0	1001
626.2	997.4
626.4	991.5
626.6	987.2
626.8	983.2
627.0	974.4
627.2	967.9
627.4	962.5
627.6	956.2
627.8	953.9
628.0	945.3
628.2	940.3
628.4	932.1
628.6	924.3
628.8	917.6
629.0	914.0
629.2	909.4
629.4	907.5
629.6	901.0
629.8	895.7
630.0	889.1
630.2	885.8
630.4	882.2
630.6	874.9
630.8	870.0
631.0	865.2
631.2	861.6
631.4	857.9
631.6	850.1
631.8	845.7
632.0	842.7
632.2	836.2
632.4	833.1
632.6	828.1
632.8	822.8
633.0	821.6
633.2	819.3
633.4	810.2
633.6	803.5
633.8	794.8
634.0	791.2
634.2	788.7
634.4	786.1
634.6	779.6
634.8	770.3
635.0	761.9
635.2	760.0
635.4	759.0
635.6	758.4
635.8	757.1
636.0	749.2
636.2	744.5
636.4	741.1
636.6	737.1
636.8	731.3
637.0	723.0
637.2	716.0
637.4	714.3
637.6	711.4
637.8	708.9
638.0	707.4
638.2	699.9
638.4	696.6
638.6	692.6
638.8	685.4
639.0	681.2
639.2	677.8
639.4	674.2
639.6	669.7
639.8	664.4
640.0	656.4
640.2	652.5
640.4	646.7
640.6	645.7
640.8	644.7
641.0	642.5
641.2	635.7
641.4	630.4
641.6	623.3
641.8	621.8
642.0	622.5
642.2	621.7
642.4	618.2
642.6	614.7
642.8	609.2
643.0	605.9
643.2	600.2
643.4	596.2
643.6	591.3
643.8	587.7
644.0	583.1
644.2	581.9
644.4	578.7
644.6	577.4
644.8	574.4
645.0	569.8
645.2	564.4
645.4	561.5
645.6	556.6
645.8	552.6
646.0	548.7
646.2	543.9
646.4	539.2
646.6	535.8
646.8	532.9
647.0	530.3
647.2	528.8
647.4	527.4
647.6	524.8
647.8	520.6
648.0	517.1
648.2	513.2
648.4	510.9
648.6	510.0
648.8	506.9
649.0	500.9
649.2	497.7
649.4	492.9
649.6	490.7
649.8	487.1
650.0	483.7
650.2	479.7
650.4	477.1
650.6	474.4
650.8	471.6
651.0	467.4
651.2	464.3
651.4	462.4
651.6	459.4
651.8	458.3
652.0	455.7
652.2	452.5
652.4	447.7
652.6	445.0
652.8	441.8
653.0	438.3
653.2	434.1
653.4	429.8
653.6	426.6
653.8	425.5
654.0	425.1
654.2	423.5
654.4	421.6
654.6	417.7
654.8	413.5
655.0	411.3
655.2	411.2
655.4	410.4
655.6	409.3
655.8	404.3
656.0	397.9
656.2	393.8
656.4	392.7
656.6	390.8
656.8	389.5
657.0	387.4
657.2	385.3
657.4	382.9
657.6	380.3
657.8	375.2
658.0	373.9
658.2	372.6
658.4	373.1
658.6	371.6
658.8	368.0
659.0	362.1
659.2	359.9
659.4	356.1
659.6	355.0
659.8	351.9
660.0	350.4
660.2	348.2
660.4	348.5
660.6	347.0
660.8	344.5
661.0	342.3
661.2	338.1
661.4	333.4
661.6	330.3
661.8	328.7
662.0	326.3
662.2	325.9
662.4	322.3
662.6	318.4
662.8	315.4
663.0	314.2
663.2	310.9
663.4	310.7
663.6	308.6
663.8	306.3
664.0	305.1
664.2	302.8
664.4	300.1
664.6	299.1
664.8	295.8
665.0	294.6
665.2	293.0
665.4	290.8
665.6	289.4
665.8	286.8
666.0	285.4
666.2	285.5
666.4	283.4
666.6	282.1
666.8	278.0
667.0	274.8
667.2	275.4
667.4	274.3
667.6	272.6
667.8	271.2
668.0	268.0
668.2	266.0
668.4	265.8
668.6	263.5
668.8	260.9
669.0	260.0
669.2	257.5
669.4	255.5
669.6	253.4
669.8	250.3
670.0	247.6
670.2	247.7
670.4	246.0
670.6	244.5
670.8	243.0
671.0	240.9
671.2	239.0
671.4	239.2
671.6	237.9
671.8	235.3
672.0	234.6
672.2	232.8
672.4	231.6
672.6	230.5
672.8	228.8
673.0	226.2
673.2	226.0
673.4	224.7
673.6	225.1
673.8	221.8
674.0	218.6
674.2	216.6
674.4	217.0
674.6	216.8
674.8	215.7
675.0	213.2
675.2	210.1
675.4	208.2
675.6	207.9
675.8	207.4
676.0	205.0
676.2	205.0
676.4	203.8
676.6	202.1
676.8	200.0
677.0	199.2
677.2	196.2
677.4	194.5
677.6	192.3
677.8	191.9
678.0	190.0
678.2	189.4
678.4	187.8
678.6	185.4
678.8	184.5
679.0	184.8
679.2	182.0
679.4	180.7
679.6	179.8
679.8	177.5
680.0	177.3
680.2	177.4
680.4	176.2
680.6	175.2
680.8	174.0
681.0	172.3
681.2	169.9
681.4	168.7
681.6	167.7
681.8	166.8
682.0	167.3
682.2	167.6
682.4	165.5
682.6	162.1
682.8	159.5
683.0	156.8
683.2	156.9
683.4	157.2
683.6	156.8
683.8	155.9
684.0	155.0
684.2	152.9
684.4	151.9
684.6	150.0
684.8	148.9
685.0	148.6
685.2	146.7
685.4	146.9
685.6	146.4
685.8	144.3
686.0	142.6
686.2	141.6
686.4	140.9
686.6	141.4
686.8	140.8
687.0	138.3
687.2	135.5
687.4	134.6
687.6	136.2
687.8	136.4
688.0	135.9
688.2	133.9
688.4	131.5
688.6	130.8
688.8	130.1
689.0	128.8
689.2	127.7
689.4	128.1
689.6	129.0
689.8	128.4
690.0	127.3
690.2	125.2
690.4	122.9
690.6	122.4
690.8	121.8
691.0	121.3
691.2	122.0
691.4	121.2
691.6	120.2
691.8	118.6
692.0	116.4
692.2	116.4
692.4	115.3
692.6	114.3
692.8	114.8
693.0	113.7
693.2	112.1
693.4	112.0
693.6	111.0
693.8	109.9
694.0	110.0
694.2	109.0
694.4	106.5
694.6	106.2
694.8	105.7
695.0	105.5
695.2	105.8
695.4	105.4
695.6	104.1
695.8	103.5
696.0	102.9
696.2	102.9
696.4	101.4
696.6	100.1
696.8	100.5
697.0	101.3
697.2	102.2
697.4	101.8
697.6	99.48
697.8	98.07
698.0	97.61
698.2	96.00
698.4	95.02
698.6	94.36
698.8	94.15
699.0	95.21
699.2	95.44
699.4	93.89
699.6	93.45
699.8	92.35
700.0	91.38
700.2	91.15
700.4	91.16
700.6	90.32
700.8	90.08
701.0	89.16
701.2	88.69
701.4	89.22
701.6	89.66
701.8	88.02
702.0	85.68
702.2	85.09
702.4	85.36
702.6	85.39
702.8	85.69
703.0	84.30
703.2	82.34
703.4	82.59
703.6	81.91
703.8	81.02
704.0	81.21
704.2	80.44
704.4	80.10
704.6	79.79
704.8	78.71
705.0	78.59
705.2	78.93
705.4	78.87
705.6	78.31
705.8	77.47
706.0	76.89
706.2	75.96
706.4	75.70
706.6	74.52
706.8	73.76
707.0	73.69
707.2	74.02
707.4	73.74
707.6	73.67
707.8	72.68
708.0	71.81
708.2	72.04
708.4	70.99
708.6	69.95
708.8	69.63
709.0	68.78
709.2	68.19
709.4	68.72
709.6	67.99
709.8	68.18
710.0	68.52
710.2	67.61
710.4	67.42
710.6	66.51
710.8	66.28
711.0	65.86
711.2	64.77
711.4	64.07
711.6	63.70
711.8	63.74
712.0	63.61
712.2	62.33
712.4	60.23
712.6	59.86
712.8	60.21
713.0	61.72
713.2	62.51
713.4	62.21
713.6	60.71
713.8	58.94
714.0	58.65
714.2	58.48
714.4	58.08
714.6	57.25
714.8	57.52
715.0	57.56
715.2	58.15
715.4	57.88
715.6	57.01
715.8	55.41
716.0	54.44
716.2	53.80
716.4	53.84
716.6	53.84
716.8	53.90
717.0	53.34
717.2	52.96
717.4	52.68
717.6	53.00
717.8	52.53
718.0	51.86
718.2	50.93
718.4	50.55
718.6	50.14
718.8	49.65
719.0	49.00
719.2	49.06
719.4	49.14
