Sample:	'20211010A(EM)
File name:	G-NI 6.FDS
Run date:	'16:49:47, 06/19/2023
Operator:	Administrator
Comment:	'

Instrument
Model:	F-4700 FL Spectrophotometer
Serial number:	2019-001
ROM Version:	5J24010 00

Instrument parameters
Measurement type:	Wavelength scan
Scan mode:	Emission
Data mode:	Fluorescence
EX WL:	400.0 nm
EM  Start WL:	420.0 nm
EM  End WL:	800.0 nm
Scan speed:	1200 nm/min
Delay:	0.0 s
EX Slit:	10.0 nm
EM Slit:	10.0 nm
PMT Voltage:	500 V
Response:	0.002 s
Corrected spectra:	Off
Shutter control:	On

Processing performed
Savitsky-Golay smoothed
Smoothing order:	3
Number of points:	7
Number of times:	1

Peak integration
Integration method:	Rectangular
Sensitivity:	1
Threshold:	1.000

Peaks
No.	Start(nm)	Apex(nm)	End(nm)	Height(Data)	Valley(nm)	Valley(Data)
1	420.0	535.6	536.4	2267	536.4	2257
2	536.4	537.6	538.4	2279	538.4	2264
3	538.4	539.4	540.4	2281	540.4	2262
4	540.4	541.2	694.8	2277	694.8	57.81
5	694.8	695.6	800.0	59.07	800.0	4.177

Data points
nm	Data
420.0	1.479
420.2	1.533
420.4	1.529
420.6	1.479
420.8	1.349
421.0	1.287
421.2	1.296
421.4	1.360
421.6	1.473
421.8	1.641
422.0	1.636
422.2	1.571
422.4	1.515
422.6	1.434
422.8	1.371
423.0	1.490
423.2	1.460
423.4	1.480
423.6	1.562
423.8	1.610
424.0	1.624
424.2	1.676
424.4	1.652
424.6	1.607
424.8	1.747
425.0	1.742
425.2	1.776
425.4	1.778
425.6	1.733
425.8	1.594
426.0	1.590
426.2	1.653
426.4	1.631
426.6	1.393
426.8	1.285
427.0	1.344
427.2	1.513
427.4	1.719
427.6	1.664
427.8	1.330
428.0	1.140
428.2	1.223
428.4	1.433
428.6	1.635
428.8	1.709
429.0	1.704
429.2	1.561
429.4	1.419
429.6	1.553
429.8	1.652
430.0	1.644
430.2	1.687
430.4	1.633
430.6	1.644
430.8	1.837
431.0	1.885
431.2	1.885
431.4	1.748
431.6	1.561
431.8	1.505
432.0	1.463
432.2	1.494
432.4	1.644
432.6	1.660
432.8	1.644
433.0	1.648
433.2	1.619
433.4	1.573
433.6	1.639
433.8	1.594
434.0	1.564
434.2	1.528
434.4	1.580
434.6	1.494
434.8	1.689
435.0	1.704
435.2	1.633
435.4	1.572
435.6	1.650
435.8	1.617
436.0	1.745
436.2	1.796
436.4	1.806
436.6	1.762
436.8	1.623
437.0	1.537
437.2	1.402
437.4	1.487
437.6	1.764
437.8	1.854
438.0	1.777
438.2	1.730
438.4	1.593
438.6	1.504
438.8	1.681
439.0	1.750
439.2	1.768
439.4	1.787
439.6	1.751
439.8	1.618
440.0	1.684
440.2	1.662
440.4	1.699
440.6	1.705
440.8	1.725
441.0	1.660
441.2	1.576
441.4	1.562
441.6	1.470
441.8	1.543
442.0	1.633
442.2	1.571
442.4	1.482
442.6	1.566
442.8	1.517
443.0	1.779
443.2	1.808
443.4	1.641
443.6	1.408
443.8	1.352
444.0	1.451
444.2	1.669
444.4	1.857
444.6	1.857
444.8	1.815
445.0	1.735
445.2	1.726
445.4	1.683
445.6	1.609
445.8	1.553
446.0	1.636
446.2	1.697
446.4	1.669
446.6	1.789
446.8	1.768
447.0	1.857
447.2	1.860
447.4	1.761
447.6	1.587
447.8	1.573
448.0	1.685
448.2	1.860
448.4	1.834
448.6	1.752
448.8	1.788
449.0	1.616
449.2	1.694
449.4	1.780
449.6	1.642
449.8	1.663
450.0	1.736
450.2	1.679
450.4	1.770
450.6	1.840
450.8	1.671
451.0	1.681
451.2	1.738
451.4	1.610
451.6	1.764
451.8	1.830
452.0	1.725
452.2	1.923
452.4	1.975
452.6	1.792
452.8	1.765
453.0	1.550
453.2	1.607
453.4	1.874
453.6	1.899
453.8	1.972
454.0	1.880
454.2	1.732
454.4	1.771
454.6	1.852
454.8	1.862
455.0	2.068
455.2	2.032
455.4	1.972
455.6	1.846
455.8	1.778
456.0	1.935
456.2	2.104
456.4	2.031
456.6	2.034
456.8	1.909
457.0	1.866
457.2	2.051
457.4	1.899
457.6	1.927
457.8	2.003
458.0	1.953
458.2	2.027
458.4	2.099
458.6	1.883
458.8	2.015
459.0	2.188
459.2	2.289
459.4	2.250
459.6	2.108
459.8	1.783
460.0	1.670
460.2	1.806
460.4	1.932
460.6	2.014
460.8	2.018
461.0	2.081
461.2	2.179
461.4	2.364
461.6	2.608
461.8	2.597
462.0	2.419
462.2	2.261
462.4	2.190
462.6	2.186
462.8	2.488
463.0	2.490
463.2	2.429
463.4	2.406
463.6	2.556
463.8	2.604
464.0	2.649
464.2	2.689
464.4	2.853
464.6	2.985
464.8	3.048
465.0	2.816
465.2	2.872
465.4	2.960
465.6	3.270
465.8	3.364
466.0	3.326
466.2	3.181
466.4	3.445
466.6	3.361
466.8	3.419
467.0	3.581
467.2	3.684
467.4	3.805
467.6	4.317
467.8	4.534
468.0	4.639
468.2	4.666
468.4	4.587
468.6	4.517
468.8	4.647
469.0	4.624
469.2	4.790
469.4	4.789
469.6	5.134
469.8	5.480
470.0	5.811
470.2	5.833
470.4	5.897
470.6	5.898
470.8	6.101
471.0	6.293
471.2	6.885
471.4	7.134
471.6	7.691
471.8	7.919
472.0	7.988
472.2	7.835
472.4	7.645
472.6	7.588
472.8	8.236
473.0	8.359
473.2	9.030
473.4	9.471
473.6	9.819
473.8	10.18
474.0	10.89
474.2	11.25
474.4	12.00
474.6	12.32
474.8	12.59
475.0	12.59
475.2	13.14
475.4	13.47
475.6	13.99
475.8	14.50
476.0	15.06
476.2	15.43
476.4	15.96
476.6	16.14
476.8	16.48
477.0	17.20
477.2	18.31
477.4	19.40
477.6	20.06
477.8	20.94
478.0	21.89
478.2	22.46
478.4	23.51
478.6	24.46
478.8	24.93
479.0	26.40
479.2	27.47
479.4	28.15
479.6	29.43
479.8	30.04
480.0	30.46
480.2	31.77
480.4	32.32
480.6	32.76
480.8	34.35
481.0	35.80
481.2	36.99
481.4	38.29
481.6	38.87
481.8	39.51
482.0	41.31
482.2	43.85
482.4	45.51
482.6	47.23
482.8	48.01
483.0	49.13
483.2	50.41
483.4	52.13
483.6	53.98
483.8	56.95
484.0	59.52
484.2	62.61
484.4	64.34
484.6	65.42
484.8	67.57
485.0	70.13
485.2	72.69
485.4	75.65
485.6	78.33
485.8	80.91
486.0	83.35
486.2	85.91
486.4	88.46
486.6	91.11
486.8	94.49
487.0	97.73
487.2	100.4
487.4	103.1
487.6	106.5
487.8	110.0
488.0	113.0
488.2	116.2
488.4	119.5
488.6	122.3
488.8	126.8
489.0	131.4
489.2	134.1
489.4	138.3
489.6	142.6
489.8	146.8
490.0	150.8
490.2	156.6
490.4	161.2
490.6	167.7
490.8	174.7
491.0	179.6
491.2	182.5
491.4	188.1
491.6	191.9
491.8	197.0
492.0	202.3
492.2	206.9
492.4	213.9
492.6	219.7
492.8	226.1
493.0	232.6
493.2	238.1
493.4	244.0
493.6	250.8
493.8	255.2
494.0	263.5
494.2	269.1
494.4	275.3
494.6	282.7
494.8	289.3
495.0	296.7
495.2	304.5
495.4	311.9
495.6	320.0
495.8	329.8
496.0	339.5
496.2	348.3
496.4	356.4
496.6	365.2
496.8	373.1
497.0	380.2
497.2	387.1
497.4	394.8
497.6	404.4
497.8	412.8
498.0	420.1
498.2	426.3
498.4	436.6
498.6	449.0
498.8	460.6
499.0	472.7
499.2	481.2
499.4	490.1
499.6	501.4
499.8	513.3
500.0	522.2
500.2	533.6
500.4	544.5
500.6	557.5
500.8	568.3
501.0	580.6
501.2	589.5
501.4	601.6
501.6	616.2
501.8	629.1
502.0	638.3
502.2	647.9
502.4	654.0
502.6	666.3
502.8	679.9
503.0	693.9
503.2	705.2
503.4	717.5
503.6	728.1
503.8	741.1
504.0	752.4
504.2	766.3
504.4	778.7
504.6	794.1
504.8	807.2
505.0	822.2
505.2	834.5
505.4	847.4
505.6	861.4
505.8	878.6
506.0	894.4
506.2	908.3
506.4	918.0
506.6	929.1
506.8	942.4
507.0	958.6
507.2	975.0
507.4	985.0
507.6	997.0
507.8	1010
508.0	1025
508.2	1041
508.4	1054
508.6	1064
508.8	1078
509.0	1094
509.2	1108
509.4	1122
509.6	1133
509.8	1146
510.0	1160
510.2	1180
510.4	1196
510.6	1211
510.8	1223
511.0	1238
511.2	1247
511.4	1259
511.6	1274
511.8	1288
512.0	1300
512.2	1316
512.4	1328
512.6	1341
512.8	1354
513.0	1368
513.2	1383
513.4	1398
513.6	1409
513.8	1423
514.0	1433
514.2	1447
514.4	1460
514.6	1472
514.8	1484
515.0	1500
515.2	1511
515.4	1525
515.6	1536
515.8	1552
516.0	1567
516.2	1579
516.4	1590
516.6	1601
516.8	1611
517.0	1626
517.2	1635
517.4	1646
517.6	1659
517.8	1673
518.0	1689
518.2	1700
518.4	1704
518.6	1712
518.8	1723
519.0	1743
519.2	1765
519.4	1781
519.6	1787
519.8	1796
520.0	1804
520.2	1811
520.4	1820
520.6	1827
520.8	1831
521.0	1848
521.2	1863
521.4	1877
521.6	1889
521.8	1895
522.0	1905
522.2	1916
522.4	1926
522.6	1939
522.8	1940
523.0	1945
523.2	1954
523.4	1957
523.6	1967
523.8	1984
524.0	1990
524.2	1999
524.4	2011
524.6	2021
524.8	2027
525.0	2038
525.2	2041
525.4	2044
525.6	2052
525.8	2056
526.0	2059
526.2	2069
526.4	2077
526.6	2091
526.8	2100
527.0	2104
527.2	2109
527.4	2107
527.6	2112
527.8	2115
528.0	2120
528.2	2129
528.4	2137
528.6	2141
528.8	2149
529.0	2153
529.2	2158
529.4	2162
529.6	2168
529.8	2171
530.0	2173
530.2	2180
530.4	2186
530.6	2189
530.8	2194
531.0	2197
531.2	2200
531.4	2212
531.6	2215
531.8	2216
532.0	2215
532.2	2212
532.4	2216
532.6	2226
532.8	2228
533.0	2232
533.2	2236
533.4	2228
533.6	2232
533.8	2238
534.0	2248
534.2	2255
534.4	2258
534.6	2251
534.8	2246
535.0	2249
535.2	2254
535.4	2264
535.6	2267
535.8	2264
536.0	2261
536.2	2260
536.4	2257
536.6	2258
536.8	2263
537.0	2264
537.2	2270
537.4	2276
537.6	2279
537.8	2273
538.0	2275
538.2	2268
538.4	2264
538.6	2268
538.8	2273
539.0	2277
539.2	2280
539.4	2281
539.6	2276
539.8	2275
540.0	2273
540.2	2267
540.4	2262
540.6	2268
540.8	2272
541.0	2277
541.2	2277
541.4	2270
541.6	2265
541.8	2270
542.0	2274
542.2	2271
542.4	2263
542.6	2259
542.8	2255
543.0	2259
543.2	2263
543.4	2263
543.6	2256
543.8	2249
544.0	2241
544.2	2236
544.4	2235
544.6	2239
544.8	2239
545.0	2237
545.2	2240
545.4	2237
545.6	2234
545.8	2233
546.0	2227
546.2	2222
546.4	2225
546.6	2227
546.8	2229
547.0	2231
547.2	2223
547.4	2219
547.6	2213
547.8	2207
548.0	2208
548.2	2209
548.4	2207
548.6	2203
548.8	2193
549.0	2185
549.2	2183
549.4	2182
549.6	2182
549.8	2177
550.0	2173
550.2	2174
550.4	2171
550.6	2167
550.8	2162
551.0	2159
551.2	2156
551.4	2159
551.6	2157
551.8	2150
552.0	2142
552.2	2135
552.4	2125
552.6	2118
552.8	2114
553.0	2109
553.2	2109
553.4	2110
553.6	2104
553.8	2099
554.0	2092
554.2	2088
554.4	2089
554.6	2086
554.8	2085
555.0	2080
555.2	2074
555.4	2066
555.6	2063
555.8	2056
556.0	2055
556.2	2053
556.4	2049
556.6	2039
556.8	2038
557.0	2040
557.2	2041
557.4	2038
557.6	2027
557.8	2011
558.0	2005
558.2	2005
558.4	2004
558.6	2001
558.8	1996
559.0	1989
559.2	1986
559.4	1982
559.6	1979
559.8	1974
560.0	1970
560.2	1963
560.4	1958
560.6	1951
560.8	1947
561.0	1946
561.2	1947
561.4	1943
561.6	1937
561.8	1925
562.0	1917
562.2	1911
562.4	1914
562.6	1912
562.8	1906
563.0	1898
563.2	1888
563.4	1882
563.6	1885
563.8	1880
564.0	1871
564.2	1863
564.4	1851
564.6	1845
564.8	1844
565.0	1844
565.2	1841
565.4	1835
565.6	1829
565.8	1820
566.0	1810
566.2	1803
566.4	1795
566.6	1790
566.8	1789
567.0	1789
567.2	1786
567.4	1784
567.6	1776
567.8	1767
568.0	1759
568.2	1751
568.4	1747
568.6	1744
568.8	1743
569.0	1740
569.2	1740
569.4	1732
569.6	1723
569.8	1713
570.0	1708
570.2	1706
570.4	1702
570.6	1693
570.8	1679
571.0	1672
571.2	1664
571.4	1662
571.6	1660
571.8	1660
572.0	1658
572.2	1657
572.4	1648
572.6	1640
572.8	1632
573.0	1629
573.2	1625
573.4	1620
573.6	1610
573.8	1604
574.0	1596
574.2	1586
574.4	1580
574.6	1576
574.8	1571
575.0	1575
575.2	1569
575.4	1558
575.6	1544
575.8	1537
576.0	1535
576.2	1537
576.4	1538
576.6	1532
576.8	1522
577.0	1515
577.2	1510
577.4	1499
577.6	1496
577.8	1489
578.0	1483
578.2	1479
578.4	1472
578.6	1462
578.8	1458
579.0	1453
579.2	1447
579.4	1446
579.6	1441
579.8	1436
580.0	1430
580.2	1427
580.4	1418
580.6	1413
580.8	1408
581.0	1408
581.2	1405
581.4	1400
581.6	1393
581.8	1382
582.0	1378
582.2	1378
582.4	1371
582.6	1364
582.8	1357
583.0	1351
583.2	1350
583.4	1345
583.6	1337
583.8	1331
584.0	1325
584.2	1321
584.4	1316
584.6	1310
584.8	1300
585.0	1296
585.2	1294
585.4	1289
585.6	1284
585.8	1279
586.0	1269
586.2	1264
586.4	1262
586.6	1254
586.8	1250
587.0	1248
587.2	1244
587.4	1241
587.6	1242
587.8	1233
588.0	1229
588.2	1223
588.4	1216
588.6	1208
588.8	1205
589.0	1199
589.2	1195
589.4	1190
589.6	1180
589.8	1172
590.0	1171
590.2	1168
590.4	1165
590.6	1164
590.8	1154
591.0	1147
591.2	1143
591.4	1139
591.6	1134
591.8	1134
592.0	1128
592.2	1120
592.4	1113
592.6	1112
592.8	1102
593.0	1100
593.2	1093
593.4	1087
593.6	1083
593.8	1084
594.0	1076
594.2	1072
594.4	1067
594.6	1064
594.8	1055
595.0	1050
595.2	1045
595.4	1041
595.6	1042
595.8	1039
596.0	1032
596.2	1030
596.4	1027
596.6	1023
596.8	1021
597.0	1013
597.2	1011
597.4	1008
597.6	1004
597.8	997.5
598.0	988.8
598.2	981.2
598.4	977.0
598.6	976.3
598.8	974.8
599.0	969.6
599.2	962.9
599.4	957.6
599.6	953.1
599.8	953.4
600.0	948.1
600.2	941.9
600.4	935.1
600.6	929.7
600.8	927.3
601.0	926.3
601.2	922.1
601.4	916.7
601.6	909.8
601.8	903.6
602.0	901.4
602.2	898.8
602.4	894.5
602.6	888.9
602.8	884.4
603.0	880.7
603.2	876.8
603.4	876.0
603.6	874.7
603.8	872.6
604.0	869.2
604.2	862.3
604.4	852.7
604.6	850.0
604.8	847.6
605.0	846.2
605.2	843.8
605.4	836.8
605.6	829.4
605.8	826.9
606.0	824.9
606.2	824.1
606.4	821.9
606.6	816.8
606.8	813.8
607.0	811.3
607.2	805.3
607.4	798.9
607.6	791.8
607.8	788.0
608.0	785.9
608.2	783.7
608.4	779.4
608.6	779.2
608.8	776.0
609.0	771.9
609.2	765.9
609.4	759.9
609.6	755.9
609.8	757.5
610.0	753.5
610.2	747.7
610.4	742.4
610.6	733.3
610.8	728.2
611.0	727.4
611.2	724.1
611.4	721.5
611.6	721.3
611.8	717.6
612.0	715.7
612.2	712.2
612.4	707.6
612.6	702.5
612.8	698.5
613.0	694.9
613.2	691.5
613.4	686.3
613.6	683.9
613.8	681.7
614.0	679.9
614.2	674.4
614.4	670.3
614.6	666.9
614.8	665.1
615.0	662.9
615.2	661.4
615.4	656.5
615.6	649.8
615.8	646.0
616.0	644.2
616.2	643.7
616.4	640.7
616.6	636.8
616.8	630.6
617.0	627.1
617.2	624.5
617.4	624.2
617.6	622.1
617.8	616.2
618.0	611.2
618.2	609.1
618.4	607.4
618.6	608.0
618.8	605.4
619.0	602.1
619.2	596.5
619.4	594.0
619.6	591.7
619.8	588.1
620.0	582.7
620.2	583.0
620.4	579.1
620.6	577.1
620.8	574.2
621.0	570.0
621.2	567.0
621.4	564.6
621.6	561.5
621.8	556.9
622.0	552.4
622.2	548.7
622.4	546.2
622.6	544.3
622.8	540.9
623.0	537.3
623.2	534.1
623.4	530.6
623.6	528.1
623.8	526.8
624.0	524.0
624.2	524.0
624.4	519.1
624.6	514.9
624.8	510.4
625.0	505.6
625.2	506.4
625.4	506.9
625.6	504.6
625.8	501.1
626.0	496.9
626.2	492.2
626.4	490.8
626.6	488.7
626.8	485.8
627.0	480.5
627.2	479.0
627.4	477.7
627.6	475.6
627.8	473.7
628.0	471.4
628.2	468.9
628.4	467.3
628.6	462.8
628.8	458.3
629.0	454.2
629.2	450.2
629.4	449.5
629.6	446.3
629.8	443.9
630.0	442.5
630.2	442.0
630.4	440.1
630.6	438.8
630.8	433.2
631.0	429.5
631.2	426.4
631.4	427.9
631.6	430.4
631.8	430.7
632.0	428.6
632.2	422.1
632.4	416.8
632.6	413.9
632.8	409.5
633.0	408.5
633.2	408.7
633.4	405.8
633.6	404.8
633.8	400.5
634.0	392.8
634.2	390.8
634.4	391.3
634.6	392.5
634.8	392.8
635.0	388.3
635.2	382.3
635.4	379.8
635.6	377.8
635.8	375.8
636.0	375.3
636.2	373.2
636.4	370.2
636.6	368.8
636.8	366.1
637.0	362.4
637.2	361.0
637.4	359.2
637.6	355.4
637.8	352.1
638.0	351.2
638.2	349.3
638.4	350.0
638.6	348.9
638.8	347.9
639.0	344.8
639.2	342.0
639.4	337.5
639.6	335.8
639.8	332.8
640.0	334.6
640.2	331.8
640.4	329.2
640.6	324.6
640.8	322.1
641.0	320.5
641.2	321.7
641.4	320.4
641.6	320.4
641.8	316.6
642.0	314.9
642.2	312.2
642.4	310.8
642.6	309.0
642.8	306.3
643.0	303.4
643.2	302.9
643.4	300.1
643.6	299.5
643.8	296.3
644.0	293.3
644.2	292.1
644.4	291.5
644.6	288.9
644.8	287.4
645.0	283.9
645.2	281.1
645.4	279.5
645.6	279.7
645.8	278.3
646.0	278.3
646.2	277.2
646.4	275.8
646.6	275.2
646.8	274.6
647.0	271.6
647.2	270.5
647.4	268.4
647.6	266.4
647.8	266.3
648.0	264.4
648.2	262.6
648.4	261.3
648.6	258.6
648.8	255.9
649.0	255.1
649.2	254.1
649.4	253.0
649.6	251.5
649.8	250.1
650.0	248.7
650.2	246.4
650.4	244.2
650.6	241.0
650.8	237.8
651.0	238.0
651.2	237.2
651.4	237.6
651.6	236.5
651.8	236.9
652.0	232.2
652.2	230.8
652.4	227.3
652.6	226.6
652.8	226.1
653.0	225.6
653.2	222.6
653.4	222.0
653.6	221.3
653.8	221.2
654.0	219.8
654.2	216.7
654.4	214.7
654.6	213.1
654.8	212.7
655.0	212.1
655.2	211.0
655.4	210.3
655.6	210.4
655.8	210.1
656.0	208.0
656.2	205.5
656.4	204.2
656.6	201.9
656.8	200.9
657.0	198.6
657.2	195.3
657.4	193.7
657.6	195.0
657.8	194.2
658.0	193.8
658.2	191.5
658.4	189.5
658.6	189.1
658.8	190.4
659.0	188.6
659.2	187.9
659.4	185.9
659.6	183.7
659.8	182.7
660.0	182.9
660.2	181.1
660.4	180.3
660.6	178.5
660.8	175.1
661.0	173.9
661.2	174.1
661.4	173.6
661.6	172.4
661.8	171.2
662.0	168.8
662.2	167.7
662.4	167.0
662.6	166.5
662.8	164.8
663.0	164.5
663.2	162.8
663.4	161.8
663.6	162.3
663.8	162.3
664.0	162.2
664.2	159.9
664.4	157.6
664.6	156.1
664.8	155.4
665.0	155.1
665.2	154.6
665.4	151.5
665.6	150.8
665.8	148.6
666.0	148.2
666.2	147.6
666.4	147.2
666.6	145.6
666.8	144.7
667.0	143.0
667.2	144.0
667.4	142.8
667.6	143.2
667.8	142.7
668.0	142.1
668.2	140.9
668.4	140.9
668.6	138.2
668.8	137.4
669.0	136.9
669.2	135.7
669.4	135.1
669.6	134.3
669.8	132.1
670.0	132.1
670.2	132.9
670.4	132.5
670.6	131.4
670.8	129.9
671.0	128.4
671.2	126.5
671.4	126.1
671.6	124.7
671.8	123.5
672.0	122.1
672.2	121.3
672.4	120.8
672.6	120.7
672.8	120.9
673.0	119.4
673.2	118.3
673.4	117.4
673.6	117.2
673.8	116.8
674.0	116.4
674.2	114.1
674.4	112.9
674.6	111.8
674.8	111.1
675.0	110.8
675.2	111.4
675.4	112.0
675.6	111.3
675.8	110.7
676.0	110.3
676.2	108.9
676.4	108.2
676.6	106.6
676.8	104.9
677.0	105.0
677.2	104.9
677.4	104.5
677.6	103.5
677.8	101.5
678.0	99.84
678.2	100.1
678.4	99.10
678.6	98.15
678.8	98.10
679.0	97.40
679.2	96.90
679.4	96.59
679.6	96.33
679.8	96.88
680.0	96.61
680.2	95.85
680.4	94.29
680.6	92.61
680.8	92.08
681.0	92.07
681.2	91.35
681.4	91.29
681.6	90.43
681.8	89.47
682.0	89.16
682.2	88.44
682.4	87.68
682.6	86.75
682.8	86.77
683.0	85.52
683.2	84.62
683.4	83.51
683.6	82.35
683.8	81.48
684.0	81.38
684.2	81.25
684.4	80.98
684.6	80.89
684.8	80.99
685.0	81.17
685.2	80.92
685.4	80.81
685.6	79.37
685.8	78.74
686.0	78.36
686.2	77.80
686.4	77.36
686.6	76.77
686.8	75.83
687.0	76.05
687.2	75.92
687.4	75.30
687.6	74.46
687.8	74.01
688.0	74.42
688.2	73.47
688.4	72.95
688.6	72.54
688.8	71.67
689.0	70.83
689.2	70.51
689.4	69.34
689.6	69.42
689.8	68.72
690.0	68.73
690.2	67.79
690.4	67.30
690.6	67.95
690.8	67.68
691.0	67.70
691.2	67.55
691.4	66.50
691.6	64.94
691.8	64.21
692.0	63.14
692.2	62.69
692.4	62.82
692.6	62.96
692.8	62.73
693.0	62.73
693.2	62.13
693.4	61.19
693.6	61.40
693.8	61.26
694.0	60.95
694.2	59.94
694.4	59.04
694.6	58.23
694.8	57.81
695.0	58.31
695.2	58.58
695.4	59.05
695.6	59.07
695.8	58.44
696.0	58.25
696.2	58.17
696.4	57.85
696.6	57.81
696.8	56.78
697.0	56.46
697.2	56.45
697.4	55.33
697.6	54.11
697.8	54.40
698.0	53.84
698.2	54.76
698.4	55.44
698.6	54.78
698.8	53.69
699.0	53.73
699.2	52.70
699.4	53.56
699.6	53.51
699.8	53.04
700.0	52.43
700.2	51.44
700.4	50.53
700.6	50.68
700.8	49.78
701.0	49.94
701.2	50.18
701.4	49.19
701.6	48.74
701.8	47.83
702.0	47.52
702.2	48.26
702.4	49.12
702.6	48.79
702.8	47.81
703.0	47.25
703.2	47.05
703.4	46.66
703.6	47.05
703.8	46.67
704.0	45.75
704.2	46.01
704.4	45.36
704.6	44.20
704.8	44.56
705.0	43.90
705.2	44.06
705.4	44.54
705.6	44.72
705.8	43.78
706.0	43.35
706.2	41.98
706.4	40.73
706.6	41.22
706.8	41.67
707.0	41.86
707.2	42.08
707.4	41.55
707.6	40.57
707.8	41.18
708.0	41.62
708.2	41.71
708.4	40.87
708.6	39.71
708.8	39.12
709.0	39.28
709.2	40.00
709.4	39.76
709.6	39.64
709.8	39.77
710.0	39.02
710.2	38.77
710.4	37.99
710.6	37.50
710.8	37.42
711.0	37.50
711.2	36.96
711.4	36.88
711.6	36.41
711.8	35.91
712.0	35.53
712.2	35.36
712.4	35.17
712.6	35.31
712.8	35.90
713.0	35.64
713.2	35.56
713.4	35.09
713.6	34.31
713.8	33.73
714.0	33.90
714.2	33.76
714.4	34.08
714.6	33.72
714.8	33.21
715.0	33.08
715.2	33.05
715.4	32.91
715.6	33.18
715.8	32.68
716.0	31.92
716.2	31.63
716.4	31.14
716.6	30.80
716.8	30.99
717.0	30.97
717.2	30.61
717.4	30.35
717.6	30.18
717.8	29.72
718.0	29.31
718.2	28.49
718.4	28.42
