Sample:	'20211010A(EM)
File name:	G-NI 2 200.FDS
Run date:	'16:31:42, 06/19/2023
Operator:	Administrator
Comment:	'

Instrument
Model:	F-4700 FL Spectrophotometer
Serial number:	2019-001
ROM Version:	5J24010 00

Instrument parameters
Measurement type:	Wavelength scan
Scan mode:	Emission
Data mode:	Fluorescence
EX WL:	400.0 nm
EM  Start WL:	420.0 nm
EM  End WL:	800.0 nm
Scan speed:	1200 nm/min
Delay:	0.0 s
EX Slit:	10.0 nm
EM Slit:	10.0 nm
PMT Voltage:	500 V
Response:	0.002 s
Corrected spectra:	Off
Shutter control:	On

Processing performed
Savitsky-Golay smoothed
Smoothing order:	3
Number of points:	7
Number of times:	1

Peak integration
Integration method:	Rectangular
Sensitivity:	1
Threshold:	1.000

Peaks
No.	Start(nm)	Apex(nm)	End(nm)	Height(Data)	Valley(nm)	Valley(Data)
1	420.0	430.0	431.6	3.882	431.6	2.866
2	431.6	548.6	782.2	8403	782.2	12.24
3	782.2	783.6	785.2	13.26	785.2	11.19
4	785.2	785.6	789.0	12.31	789.0	10.86
5	789.0	789.8	790.6	12.22	790.6	10.66
6	790.6	792.2	800.0	11.92	800.0	10.08

Data points
nm	Data
420.0	3.210
420.2	3.284
420.4	3.335
420.6	3.355
420.8	3.269
421.0	3.284
421.2	3.313
421.4	3.355
421.6	3.398
421.8	3.414
422.0	3.285
422.2	3.111
422.4	3.208
422.6	3.307
422.8	3.460
423.0	3.506
423.2	3.706
423.4	3.471
423.6	3.423
423.8	3.295
424.0	3.314
424.2	3.197
424.4	3.529
424.6	3.275
424.8	3.194
425.0	2.921
425.2	2.933
425.4	3.075
425.6	3.282
425.8	3.293
426.0	3.285
426.2	3.060
426.4	3.020
426.6	3.193
426.8	3.192
427.0	3.194
427.2	3.278
427.4	3.254
427.6	3.199
427.8	3.268
428.0	3.303
428.2	3.090
428.4	3.181
428.6	3.318
428.8	3.497
429.0	3.636
429.2	3.709
429.4	3.563
429.6	3.716
429.8	3.807
430.0	3.882
430.2	3.839
430.4	3.490
430.6	3.465
430.8	3.455
431.0	3.393
431.2	3.307
431.4	3.210
431.6	2.866
431.8	3.180
432.0	3.327
432.2	3.485
432.4	3.715
432.6	3.798
432.8	3.491
433.0	3.687
433.2	3.577
433.4	3.321
433.6	3.356
433.8	3.430
434.0	3.242
434.2	3.620
434.4	3.739
434.6	3.822
434.8	3.843
435.0	4.068
435.2	3.924
435.4	3.945
435.6	3.696
435.8	3.501
436.0	3.412
436.2	3.612
436.4	3.651
436.6	3.757
436.8	3.659
437.0	3.541
437.2	3.509
437.4	3.392
437.6	3.301
437.8	3.366
438.0	3.610
438.2	3.813
438.4	3.964
438.6	4.068
438.8	4.078
439.0	4.059
439.2	4.223
439.4	4.163
439.6	4.110
439.8	4.117
440.0	4.248
440.2	4.123
440.4	4.209
440.6	3.901
440.8	3.650
441.0	3.618
441.2	3.703
441.4	3.758
441.6	4.035
441.8	4.096
442.0	4.220
442.2	4.255
442.4	4.366
442.6	4.404
442.8	4.387
443.0	4.366
443.2	4.215
443.4	4.025
443.6	4.010
443.8	4.029
444.0	4.161
444.2	4.312
444.4	4.281
444.6	4.365
444.8	4.377
445.0	4.466
445.2	4.576
445.4	4.667
445.6	4.546
445.8	4.599
446.0	4.639
446.2	4.579
446.4	4.525
446.6	4.494
446.8	4.501
447.0	4.645
447.2	4.877
447.4	4.916
447.6	5.022
447.8	5.172
448.0	5.000
448.2	4.844
448.4	5.088
448.6	5.265
448.8	5.393
449.0	5.680
449.2	5.533
449.4	5.381
449.6	5.732
449.8	5.865
450.0	5.505
450.2	5.513
450.4	5.474
450.6	5.669
450.8	6.227
451.0	6.207
451.2	6.028
451.4	5.967
451.6	5.954
451.8	5.985
452.0	6.067
452.2	5.899
452.4	6.040
452.6	6.278
452.8	6.577
453.0	6.721
453.2	6.504
453.4	6.430
453.6	6.460
453.8	6.242
454.0	6.297
454.2	6.531
454.4	6.392
454.6	6.948
454.8	7.323
455.0	7.254
455.2	7.438
455.4	7.348
455.6	7.200
455.8	7.229
456.0	7.548
456.2	7.755
456.4	8.007
456.6	8.228
456.8	8.379
457.0	8.648
457.2	9.160
457.4	9.003
457.6	8.895
457.8	8.622
458.0	8.440
458.2	8.774
458.4	8.963
458.6	8.968
458.8	9.377
459.0	9.343
459.2	9.561
459.4	9.703
459.6	9.630
459.8	9.595
460.0	9.859
460.2	10.00
460.4	10.31
460.6	10.89
460.8	11.22
461.0	11.32
461.2	11.45
461.4	11.64
461.6	12.06
461.8	12.67
462.0	12.63
462.2	12.76
462.4	13.10
462.6	13.58
462.8	14.26
463.0	14.16
463.2	13.57
463.4	13.40
463.6	13.59
463.8	13.81
464.0	14.50
464.2	15.02
464.4	15.50
464.6	15.75
464.8	16.45
465.0	16.95
465.2	17.71
465.4	18.24
465.6	18.38
465.8	18.31
466.0	18.64
466.2	19.09
466.4	19.40
466.6	19.91
466.8	20.65
467.0	21.22
467.2	21.60
467.4	21.64
467.6	21.92
467.8	22.70
468.0	24.06
468.2	25.08
468.4	25.38
468.6	25.53
468.8	25.80
469.0	26.49
469.2	27.72
469.4	29.26
469.6	31.04
469.8	32.59
470.0	33.31
470.2	33.44
470.4	33.32
470.6	33.73
470.8	34.38
471.0	34.79
471.2	36.27
471.4	37.93
471.6	39.80
471.8	41.83
472.0	42.41
472.2	42.52
472.4	43.23
472.6	44.58
472.8	46.12
473.0	47.63
473.2	49.19
473.4	50.82
473.6	51.75
473.8	53.66
474.0	55.75
474.2	57.02
474.4	59.14
474.6	61.10
474.8	62.02
475.0	63.52
475.2	66.51
475.4	68.64
475.6	71.65
475.8	73.37
476.0	74.35
476.2	75.78
476.4	77.33
476.6	80.13
476.8	83.71
477.0	86.11
477.2	88.30
477.4	91.24
477.6	92.25
477.8	94.23
478.0	96.39
478.2	99.15
478.4	103.1
478.6	106.8
478.8	110.1
479.0	112.9
479.2	116.4
479.4	120.6
479.6	124.1
479.8	125.9
480.0	128.4
480.2	131.2
480.4	136.4
480.6	142.3
480.8	147.0
481.0	150.5
481.2	154.4
481.4	157.9
481.6	162.2
481.8	168.2
482.0	173.8
482.2	176.8
482.4	181.7
482.6	185.8
482.8	190.3
483.0	195.9
483.2	202.1
483.4	207.5
483.6	213.5
483.8	219.4
484.0	225.4
484.2	232.4
484.4	240.7
484.6	247.6
484.8	255.4
485.0	260.8
485.2	265.9
485.4	275.0
485.6	282.2
485.8	288.7
486.0	297.1
486.2	303.5
486.4	312.6
486.6	322.6
486.8	329.4
487.0	336.6
487.2	343.8
487.4	352.3
487.6	362.6
487.8	373.0
488.0	384.4
488.2	394.5
488.4	405.3
488.6	414.9
488.8	423.9
489.0	432.3
489.2	442.2
489.4	451.1
489.6	461.8
489.8	474.2
490.0	486.1
490.2	499.9
490.4	516.7
490.6	533.0
490.8	547.3
491.0	561.6
491.2	572.6
491.4	585.9
491.6	599.9
491.8	614.3
492.0	627.1
492.2	642.1
492.4	655.2
492.6	669.3
492.8	681.3
493.0	697.4
493.2	715.2
493.4	734.5
493.6	751.0
493.8	766.2
494.0	776.9
494.2	794.9
494.4	812.5
494.6	833.1
494.8	853.5
495.0	874.7
495.2	893.2
495.4	915.9
495.6	935.1
495.8	955.2
496.0	974.2
496.2	990.5
496.4	1013
496.6	1035
496.8	1057
497.0	1081
497.2	1102
497.4	1119
497.6	1142
497.8	1166
498.0	1184
498.2	1207
498.4	1223
498.6	1245
498.8	1272
499.0	1300
499.2	1325
499.4	1352
499.6	1378
499.8	1410
500.0	1443
500.2	1464
500.4	1485
500.6	1509
500.8	1535
501.0	1571
501.2	1607
501.4	1628
501.6	1649
501.8	1680
502.0	1707
502.2	1739
502.4	1772
502.6	1803
502.8	1831
503.0	1861
503.2	1885
503.4	1911
503.6	1941
503.8	1981
504.0	2018
504.2	2053
504.4	2086
504.6	2119
504.8	2146
505.0	2182
505.2	2219
505.4	2258
505.6	2291
505.8	2323
506.0	2354
506.2	2387
506.4	2425
506.6	2461
506.8	2495
507.0	2539
507.2	2577
507.4	2611
507.6	2645
507.8	2673
508.0	2708
508.2	2753
508.4	2790
508.6	2830
508.8	2868
509.0	2905
509.2	2941
509.4	2985
509.6	3023
509.8	3064
510.0	3098
510.2	3142
510.4	3182
510.6	3226
510.8	3269
511.0	3303
511.2	3335
511.4	3375
511.6	3410
511.8	3450
512.0	3504
512.2	3541
512.4	3582
512.6	3624
512.8	3658
513.0	3698
513.2	3746
513.4	3787
513.6	3821
513.8	3859
514.0	3892
514.2	3929
514.4	3979
514.6	4033
514.8	4080
515.0	4122
515.2	4164
515.4	4203
515.6	4241
515.8	4278
516.0	4321
516.2	4361
516.4	4405
516.6	4448
516.8	4495
517.0	4543
517.2	4590
517.4	4636
517.6	4665
517.8	4695
518.0	4737
518.2	4775
518.4	4820
518.6	4869
518.8	4906
519.0	4945
519.2	4994
519.4	5039
519.6	5085
519.8	5126
520.0	5158
520.2	5198
520.4	5243
520.6	5285
520.8	5322
521.0	5360
521.2	5389
521.4	5429
521.6	5467
521.8	5510
522.0	5558
522.2	5607
522.4	5646
522.6	5679
522.8	5718
523.0	5753
523.2	5794
523.4	5827
523.6	5864
523.8	5904
524.0	5944
524.2	5970
524.4	6007
524.6	6038
524.8	6071
525.0	6122
525.2	6159
525.4	6199
525.6	6245
525.8	6282
526.0	6311
526.2	6346
526.4	6386
526.6	6423
526.8	6456
527.0	6494
527.2	6522
527.4	6551
527.6	6587
527.8	6619
528.0	6655
528.2	6698
528.4	6723
528.6	6750
528.8	6769
529.0	6801
529.2	6836
529.4	6876
529.6	6910
529.8	6957
530.0	6993
530.2	7024
530.4	7036
530.6	7054
530.8	7076
531.0	7116
531.2	7151
531.4	7178
531.6	7199
531.8	7226
532.0	7262
532.2	7288
532.4	7312
532.6	7336
532.8	7358
533.0	7388
533.2	7421
533.4	7441
533.6	7469
533.8	7494
534.0	7513
534.2	7539
534.4	7570
534.6	7594
534.8	7621
535.0	7645
535.2	7654
535.4	7672
535.6	7703
535.8	7725
536.0	7752
536.2	7779
536.4	7793
536.6	7804
536.8	7824
537.0	7837
537.2	7845
537.4	7868
537.6	7889
537.8	7909
538.0	7943
538.2	7965
538.4	7974
538.6	7990
538.8	8001
539.0	8013
539.2	8024
539.4	8037
539.6	8057
539.8	8078
540.0	8098
540.2	8109
540.4	8118
540.6	8122
540.8	8136
541.0	8150
541.2	8166
541.4	8185
541.6	8204
541.8	8217
542.0	8216
542.2	8217
542.4	8224
542.6	8242
542.8	8257
543.0	8280
543.2	8280
543.4	8287
543.6	8285
543.8	8307
544.0	8318
544.2	8327
544.4	8323
544.6	8321
544.8	8313
545.0	8324
545.2	8331
545.4	8336
545.6	8344
545.8	8336
546.0	8344
546.2	8347
546.4	8355
546.6	8364
546.8	8365
547.0	8359
547.2	8360
547.4	8365
547.6	8369
547.8	8379
548.0	8377
548.2	8386
548.4	8388
548.6	8403
548.8	8403
549.0	8398
549.2	8393
549.4	8397
549.6	8395
549.8	8395
550.0	8381
550.2	8362
550.4	8357
550.6	8368
550.8	8371
551.0	8371
551.2	8377
551.4	8363
551.6	8340
551.8	8328
552.0	8308
552.2	8306
552.4	8322
552.6	8320
552.8	8313
553.0	8314
553.2	8302
553.4	8302
553.6	8297
553.8	8286
554.0	8270
554.2	8272
554.4	8276
554.6	8267
554.8	8258
555.0	8258
555.2	8240
555.4	8239
555.6	8240
555.8	8223
556.0	8210
556.2	8203
556.4	8178
556.6	8167
556.8	8161
557.0	8149
557.2	8146
557.4	8134
557.6	8130
557.8	8117
558.0	8102
558.2	8079
558.4	8066
558.6	8055
558.8	8054
559.0	8030
559.2	8017
559.4	8011
559.6	7994
559.8	7995
560.0	7993
560.2	7979
560.4	7974
560.6	7964
560.8	7927
561.0	7909
561.2	7898
561.4	7879
561.6	7868
561.8	7854
562.0	7822
562.2	7801
562.4	7786
562.6	7776
562.8	7767
563.0	7752
563.2	7731
563.4	7722
563.6	7706
563.8	7698
564.0	7675
564.2	7649
564.4	7633
564.6	7623
564.8	7610
565.0	7593
565.2	7568
565.4	7552
565.6	7534
565.8	7530
566.0	7526
566.2	7517
566.4	7504
566.6	7481
566.8	7446
567.0	7421
567.2	7401
567.4	7391
567.6	7390
567.8	7379
568.0	7358
568.2	7330
568.4	7310
568.6	7278
568.8	7256
569.0	7236
569.2	7220
569.4	7208
569.6	7192
569.8	7169
570.0	7147
570.2	7124
570.4	7108
570.6	7090
570.8	7068
571.0	7048
571.2	7032
571.4	7019
571.6	6992
571.8	6967
572.0	6944
572.2	6923
572.4	6922
572.6	6911
572.8	6888
573.0	6861
573.2	6831
573.4	6801
573.6	6783
573.8	6762
574.0	6749
574.2	6741
574.4	6727
574.6	6709
574.8	6689
575.0	6664
575.2	6632
575.4	6596
575.6	6567
575.8	6555
576.0	6547
576.2	6537
576.4	6531
576.6	6510
576.8	6486
577.0	6465
577.2	6439
577.4	6409
577.6	6393
577.8	6372
578.0	6341
578.2	6317
578.4	6300
578.6	6280
578.8	6271
579.0	6249
579.2	6221
579.4	6207
579.6	6194
579.8	6172
580.0	6148
580.2	6120
580.4	6095
580.6	6077
580.8	6063
581.0	6035
581.2	6008
581.4	5990
581.6	5973
581.8	5962
582.0	5947
582.2	5914
582.4	5889
582.6	5866
582.8	5844
583.0	5833
583.2	5817
583.4	5791
583.6	5773
583.8	5744
584.0	5724
584.2	5711
584.4	5698
584.6	5678
584.8	5650
585.0	5612
585.2	5593
585.4	5576
585.6	5568
585.8	5554
586.0	5531
586.2	5506
586.4	5490
586.6	5470
586.8	5456
587.0	5437
587.2	5413
587.4	5384
587.6	5358
587.8	5332
588.0	5316
588.2	5296
588.4	5283
588.6	5271
588.8	5257
589.0	5231
589.2	5206
589.4	5172
589.6	5145
589.8	5138
590.0	5125
590.2	5100
590.4	5077
590.6	5054
590.8	5038
591.0	5029
591.2	5013
591.4	4989
591.6	4967
591.8	4937
592.0	4914
592.2	4889
592.4	4874
592.6	4852
592.8	4840
593.0	4827
593.2	4808
593.4	4783
593.6	4767
593.8	4737
594.0	4720
594.2	4712
594.4	4695
594.6	4675
594.8	4656
595.0	4630
595.2	4610
595.4	4597
595.6	4570
595.8	4552
596.0	4535
596.2	4515
596.4	4492
596.6	4474
596.8	4451
597.0	4437
597.2	4433
597.4	4411
597.6	4385
597.8	4362
598.0	4335
598.2	4318
598.4	4310
598.6	4291
598.8	4270
599.0	4248
599.2	4226
599.4	4214
599.6	4206
599.8	4191
600.0	4169
600.2	4142
600.4	4129
600.6	4111
600.8	4092
601.0	4072
601.2	4047
601.4	4035
601.6	4026
601.8	4006
602.0	3979
602.2	3965
602.4	3960
602.6	3952
602.8	3936
603.0	3908
603.2	3871
603.4	3854
603.6	3853
603.8	3835
604.0	3823
604.2	3805
604.4	3778
604.6	3760
604.8	3748
605.0	3728
605.2	3704
605.4	3690
605.6	3668
605.8	3653
606.0	3639
606.2	3621
606.4	3591
606.6	3576
606.8	3557
607.0	3543
607.2	3532
607.4	3514
607.6	3490
607.8	3477
608.0	3465
608.2	3459
608.4	3446
608.6	3424
608.8	3393
609.0	3367
609.2	3352
609.4	3342
609.6	3330
609.8	3315
610.0	3299
610.2	3281
610.4	3267
610.6	3249
610.8	3238
611.0	3221
611.2	3205
611.4	3192
611.6	3173
611.8	3158
612.0	3143
612.2	3121
612.4	3104
612.6	3093
612.8	3075
613.0	3065
613.2	3046
613.4	3022
613.6	3002
613.8	2991
614.0	2977
614.2	2973
614.4	2963
614.6	2950
614.8	2930
615.0	2911
615.2	2886
615.4	2877
615.6	2862
615.8	2856
616.0	2844
616.2	2826
616.4	2806
616.6	2797
616.8	2775
617.0	2765
617.2	2756
617.4	2746
617.6	2727
617.8	2705
618.0	2680
618.2	2661
618.4	2647
618.6	2641
618.8	2632
619.0	2621
619.2	2609
619.4	2597
619.6	2576
619.8	2554
620.0	2544
620.2	2532
620.4	2516
620.6	2508
620.8	2489
621.0	2477
621.2	2472
621.4	2464
621.6	2447
621.8	2433
622.0	2414
622.2	2399
622.4	2387
622.6	2373
622.8	2355
623.0	2346
623.2	2340
623.4	2326
623.6	2316
623.8	2303
624.0	2284
624.2	2270
624.4	2263
624.6	2246
624.8	2235
625.0	2220
625.2	2202
625.4	2188
625.6	2182
625.8	2171
626.0	2158
626.2	2141
626.4	2121
626.6	2108
626.8	2095
627.0	2085
627.2	2079
627.4	2068
627.6	2061
627.8	2056
628.0	2037
628.2	2021
628.4	2006
628.6	1991
628.8	1989
629.0	1984
629.2	1974
629.4	1958
629.6	1942
629.8	1930
630.0	1921
630.2	1915
630.4	1907
630.6	1891
630.8	1878
631.0	1866
631.2	1849
631.4	1839
631.6	1825
631.8	1816
632.0	1812
632.2	1802
632.4	1788
632.6	1780
632.8	1766
633.0	1757
633.2	1747
633.4	1732
633.6	1719
633.8	1711
634.0	1702
634.2	1696
634.4	1688
634.6	1679
634.8	1666
635.0	1654
635.2	1641
635.4	1630
635.6	1622
635.8	1614
636.0	1602
636.2	1595
636.4	1584
636.6	1577
636.8	1568
637.0	1556
637.2	1546
637.4	1533
637.6	1524
637.8	1516
638.0	1508
638.2	1502
638.4	1497
638.6	1486
638.8	1477
639.0	1467
639.2	1454
639.4	1445
639.6	1437
639.8	1435
640.0	1432
640.2	1426
640.4	1412
640.6	1395
640.8	1385
641.0	1379
641.2	1374
641.4	1370
641.6	1363
641.8	1355
642.0	1347
642.2	1337
642.4	1328
642.6	1315
642.8	1309
643.0	1304
643.2	1295
643.4	1288
643.6	1279
643.8	1266
644.0	1256
644.2	1250
644.4	1241
644.6	1233
644.8	1227
645.0	1217
645.2	1207
645.4	1201
645.6	1193
645.8	1182
646.0	1178
646.2	1170
646.4	1164
646.6	1163
646.8	1155
647.0	1143
647.2	1139
647.4	1130
647.6	1120
647.8	1112
648.0	1101
648.2	1095
648.4	1095
648.6	1091
648.8	1081
649.0	1072
649.2	1061
649.4	1053
649.6	1050
649.8	1043
650.0	1037
650.2	1035
650.4	1031
650.6	1027
650.8	1017
651.0	1008
651.2	1001
651.4	992.7
651.6	987.1
651.8	981.1
652.0	972.8
652.2	966.5
652.4	963.3
652.6	958.8
652.8	952.9
653.0	946.8
653.2	941.8
653.4	932.3
653.6	924.8
653.8	921.3
654.0	916.6
654.2	911.7
654.4	907.8
654.6	899.8
654.8	890.4
655.0	885.1
655.2	879.5
655.4	874.3
655.6	869.9
655.8	861.7
656.0	854.8
656.2	852.1
656.4	846.4
656.6	842.5
656.8	838.6
657.0	833.8
657.2	831.4
657.4	831.9
657.6	826.4
657.8	820.9
658.0	808.7
658.2	799.4
658.4	791.3
658.6	789.3
658.8	786.9
659.0	784.1
659.2	774.7
659.4	768.6
659.6	762.7
659.8	758.1
660.0	753.6
660.2	748.8
660.4	744.5
660.6	739.5
660.8	735.5
661.0	727.3
661.2	722.0
661.4	716.1
661.6	711.5
661.8	708.8
662.0	709.4
662.2	705.2
662.4	698.7
662.6	692.8
662.8	685.6
663.0	680.4
663.2	678.0
663.4	673.3
663.6	667.1
663.8	664.4
664.0	660.7
664.2	656.7
664.4	652.6
664.6	648.6
664.8	644.1
665.0	638.0
665.2	631.6
665.4	627.3
665.6	621.4
665.8	619.6
666.0	619.0
666.2	616.5
666.4	610.5
666.6	605.3
666.8	597.5
667.0	594.2
667.2	594.7
667.4	591.9
667.6	586.2
667.8	580.9
668.0	576.8
668.2	570.8
668.4	567.4
668.6	562.2
668.8	560.7
669.0	557.1
669.2	553.5
669.4	546.9
669.6	541.1
669.8	538.6
670.0	535.8
670.2	534.7
670.4	529.5
670.6	526.7
670.8	523.3
671.0	521.2
671.2	514.3
671.4	513.4
671.6	509.3
671.8	506.3
672.0	502.9
672.2	496.9
672.4	490.7
672.6	488.8
672.8	486.8
673.0	485.3
673.2	483.7
673.4	480.5
673.6	479.3
673.8	477.0
674.0	472.1
674.2	469.0
674.4	463.7
674.6	461.3
674.8	461.1
675.0	458.3
675.2	454.6
675.4	449.3
675.6	443.2
675.8	439.4
676.0	436.8
676.2	436.7
676.4	435.2
676.6	432.0
676.8	430.3
677.0	426.7
677.2	423.0
677.4	419.4
677.6	413.1
677.8	408.8
678.0	407.7
678.2	405.8
678.4	406.1
678.6	402.8
678.8	399.0
679.0	394.1
679.2	393.0
679.4	391.0
679.6	390.0
679.8	386.4
680.0	384.1
680.2	380.0
680.4	376.9
680.6	374.9
680.8	371.8
681.0	368.7
681.2	367.5
681.4	366.1
681.6	363.3
681.8	362.4
682.0	358.8
682.2	354.5
682.4	350.4
682.6	347.1
682.8	344.5
683.0	343.9
683.2	343.0
683.4	339.8
683.6	336.8
683.8	334.5
684.0	333.7
684.2	333.9
684.4	333.2
684.6	327.9
684.8	324.4
685.0	320.7
685.2	316.7
685.4	314.7
685.6	313.7
685.8	313.3
686.0	313.1
686.2	309.3
686.4	306.0
686.6	303.0
686.8	301.8
687.0	302.1
687.2	300.6
687.4	297.1
687.6	293.9
687.8	289.1
688.0	284.5
688.2	283.2
688.4	283.2
688.6	284.9
688.8	284.1
689.0	282.0
689.2	276.8
689.4	274.8
689.6	273.2
689.8	272.0
690.0	269.5
690.2	267.6
690.4	265.5
690.6	265.6
690.8	267.0
691.0	266.7
691.2	263.2
691.4	259.1
691.6	255.1
691.8	250.9
692.0	249.4
692.2	248.7
692.4	248.5
692.6	248.5
692.8	248.5
693.0	245.4
693.2	243.1
693.4	241.6
693.6	239.8
693.8	236.7
694.0	236.0
694.2	232.7
694.4	232.3
694.6	233.7
694.8	234.4
695.0	231.6
695.2	229.7
695.4	226.6
695.6	225.0
695.8	224.3
696.0	224.3
696.2	222.3
696.4	220.3
696.6	218.4
696.8	216.6
697.0	215.5
697.2	213.5
697.4	212.0
697.6	212.0
697.8	209.2
698.0	207.4
698.2	206.7
698.4	205.0
698.6	205.3
698.8	205.2
699.0	202.9
699.2	201.7
699.4	200.3
699.6	199.3
699.8	199.2
700.0	197.6
700.2	196.4
700.4	193.5
700.6	190.6
700.8	188.0
701.0	187.6
701.2	187.5
701.4	188.2
701.6	187.7
701.8	188.0
702.0	186.9
702.2	186.1
702.4	184.8
702.6	182.6
702.8	181.2
703.0	180.3
703.2	178.5
703.4	177.3
703.6	176.9
703.8	175.1
704.0	173.6
704.2	172.6
704.4	170.1
704.6	169.7
704.8	168.7
705.0	168.1
705.2	167.9
705.4	166.5
705.6	165.0
705.8	164.6
706.0	163.2
706.2	161.6
706.4	161.0
706.6	159.5
706.8	159.5
707.0	158.7
707.2	158.6
707.4	157.7
707.6	156.0
707.8	154.4
708.0	151.7
708.2	151.0
708.4	151.3
708.6	151.5
708.8	148.9
709.0	146.9
709.2	144.5
709.4	144.3
709.6	144.9
709.8	144.3
710.0	143.1
710.2	142.7
710.4	142.6
710.6	142.7
710.8	141.6
711.0	139.6
711.2	139.0
711.4	138.5
711.6	137.7
711.8	137.3
712.0	136.0
712.2	134.6
712.4	133.5
712.6	132.8
712.8	131.9
713.0	130.8
713.2	130.6
713.4	130.6
713.6	130.4
713.8	130.9
714.0	129.6
714.2	127.1
714.4	124.9
714.6	123.2
714.8	123.0
715.0	123.2
715.2	121.3
715.4	120.6
715.6	120.3
715.8	119.8
716.0	120.3
716.2	119.0
716.4	117.1
716.6	116.9
716.8	116.0
717.0	115.4
717.2	115.1
717.4	113.1
717.6	111.9
717.8	111.3
718.0	110.1
718.2	108.9
718.4	108.2
718.6	108.1
718.8	108.0
719.0	107.9
719.2	107.2
719.4	105.9
719.6	104.2
719.8	102.2
720.0	100.4
720.2	99.96
720.4	100.0
720.6	100.6
720.8	100.4
721.0	98.75
721.2	97.65
721.4	97.04
721.6	97.04
721.8	97.16
722.0	96.61
722.2	95.47
722.4	93.96
722.6	93.17
