Sample:	'20211010A(EM)
File name:	G-NI 9.FDS
Run date:	'17:02:54, 06/19/2023
Operator:	Administrator
Comment:	'

Instrument
Model:	F-4700 FL Spectrophotometer
Serial number:	2019-001
ROM Version:	5J24010 00

Instrument parameters
Measurement type:	Wavelength scan
Scan mode:	Emission
Data mode:	Fluorescence
EX WL:	400.0 nm
EM  Start WL:	420.0 nm
EM  End WL:	800.0 nm
Scan speed:	1200 nm/min
Delay:	0.0 s
EX Slit:	10.0 nm
EM Slit:	10.0 nm
PMT Voltage:	500 V
Response:	0.002 s
Corrected spectra:	Off
Shutter control:	On

Processing performed
Savitsky-Golay smoothed
Smoothing order:	3
Number of points:	7
Number of times:	1

Peak integration
Integration method:	Rectangular
Sensitivity:	1
Threshold:	1.000

Peaks
No.	Start(nm)	Apex(nm)	End(nm)	Height(Data)	Valley(nm)	Valley(Data)
1	420.0	532.4	533.0	580.4	533.0	576.7
2	533.0	536.6	537.2	589.7	537.2	581.9
3	537.2	539.2	542.2	595.6	542.2	582.3
4	542.2	542.8	550.8	588.0	550.8	553.4
5	550.8	551.6	674.6	565.0	674.6	29.34
6	674.6	675.4	677.6	30.90	677.6	25.73
7	677.6	678.4	725.0	26.98	725.0	5.846
8	725.0	725.8	785.6	6.876	785.6	1.153

Data points
nm	Data
420.0	0.569
420.2	0.718
420.4	0.781
420.6	0.772
420.8	0.668
421.0	0.643
421.2	0.577
421.4	0.567
421.6	0.595
421.8	0.533
422.0	0.504
422.2	0.527
422.4	0.599
422.6	0.612
422.8	0.498
423.0	0.420
423.2	0.524
423.4	0.784
423.6	0.920
423.8	0.884
424.0	0.674
424.2	0.584
424.4	0.626
424.6	0.674
424.8	0.611
425.0	0.540
425.2	0.411
425.4	0.534
425.6	0.764
425.8	0.794
426.0	0.791
426.2	0.664
426.4	0.541
426.6	0.551
426.8	0.671
427.0	0.662
427.2	0.638
427.4	0.529
427.6	0.538
427.8	0.572
428.0	0.630
428.2	0.633
428.4	0.692
428.6	0.724
428.8	0.643
429.0	0.724
429.2	0.723
429.4	0.689
429.6	0.701
429.8	0.751
430.0	0.623
430.2	0.719
430.4	0.788
430.6	0.754
430.8	0.654
431.0	0.588
431.2	0.507
431.4	0.649
431.6	0.741
431.8	0.760
432.0	0.748
432.2	0.711
432.4	0.583
432.6	0.695
432.8	0.630
433.0	0.627
433.2	0.719
433.4	0.752
433.6	0.656
433.8	0.656
434.0	0.535
434.2	0.431
434.4	0.549
434.6	0.572
434.8	0.527
435.0	0.503
435.2	0.472
435.4	0.485
435.6	0.635
435.8	0.711
436.0	0.754
436.2	0.765
436.4	0.701
436.6	0.657
436.8	0.544
437.0	0.512
437.2	0.517
437.4	0.586
437.6	0.605
437.8	0.553
438.0	0.639
438.2	0.710
438.4	0.711
438.6	0.759
438.8	0.575
439.0	0.421
439.2	0.573
439.4	0.675
439.6	0.774
439.8	0.905
440.0	0.754
440.2	0.666
440.4	0.607
440.6	0.678
440.8	0.716
441.0	0.847
441.2	0.923
441.4	0.913
441.6	0.756
441.8	0.676
442.0	0.537
442.2	0.413
442.4	0.520
442.6	0.578
442.8	0.630
443.0	0.583
443.2	0.539
443.4	0.516
443.6	0.541
443.8	0.591
444.0	0.801
444.2	0.846
444.4	0.822
444.6	0.724
444.8	0.555
445.0	0.475
445.2	0.486
445.4	0.501
445.6	0.579
445.8	0.579
446.0	0.647
446.2	0.693
446.4	0.610
446.6	0.678
446.8	0.705
447.0	0.701
447.2	0.715
447.4	0.692
447.6	0.558
447.8	0.672
448.0	0.690
448.2	0.696
448.4	0.739
448.6	0.787
448.8	0.683
449.0	0.740
449.2	0.731
449.4	0.684
449.6	0.687
449.8	0.760
450.0	0.736
450.2	0.769
450.4	0.877
450.6	0.906
450.8	0.904
451.0	0.827
451.2	0.741
451.4	0.757
451.6	0.822
451.8	0.920
452.0	0.855
452.2	0.677
452.4	0.612
452.6	0.617
452.8	0.694
453.0	0.772
453.2	0.642
453.4	0.576
453.6	0.618
453.8	0.594
454.0	0.706
454.2	0.722
454.4	0.697
454.6	0.744
454.8	0.718
455.0	0.672
455.2	0.597
455.4	0.555
455.6	0.555
455.8	0.638
456.0	0.646
456.2	0.714
456.4	0.685
456.6	0.741
456.8	0.748
457.0	0.745
457.2	0.689
457.4	0.662
457.6	0.681
457.8	0.866
458.0	0.950
458.2	0.884
458.4	0.717
458.6	0.571
458.8	0.528
459.0	0.592
459.2	0.714
459.4	0.765
459.6	0.842
459.8	0.800
460.0	0.788
460.2	0.787
460.4	0.882
460.6	0.945
460.8	1.141
461.0	1.072
461.2	0.970
461.4	0.913
461.6	0.909
461.8	0.892
462.0	1.008
462.2	0.943
462.4	0.894
462.6	0.842
462.8	0.937
463.0	0.909
463.2	0.881
463.4	0.740
463.6	0.607
463.8	0.554
464.0	0.726
464.2	0.788
464.4	0.826
464.6	0.827
464.8	0.854
465.0	0.972
465.2	1.042
465.4	1.009
465.6	0.978
465.8	1.134
466.0	1.265
466.2	1.280
466.4	1.176
466.6	1.059
466.8	0.951
467.0	1.016
467.2	0.977
467.4	0.977
467.6	1.123
467.8	1.308
468.0	1.421
468.2	1.437
468.4	1.407
468.6	1.359
468.8	1.340
469.0	1.366
469.2	1.403
469.4	1.402
469.6	1.491
469.8	1.369
470.0	1.497
470.2	1.564
470.4	1.631
470.6	1.746
470.8	1.994
471.0	1.978
471.2	2.110
471.4	1.915
471.6	1.825
471.8	1.815
472.0	2.120
472.2	2.283
472.4	2.384
472.6	2.429
472.8	2.428
473.0	2.327
473.2	2.401
473.4	2.551
473.6	2.564
473.8	2.859
474.0	2.878
474.2	2.775
474.4	2.815
474.6	2.963
474.8	2.977
475.0	3.200
475.2	3.308
475.4	3.287
475.6	3.413
475.8	3.391
476.0	3.502
476.2	3.539
476.4	3.831
476.6	4.182
476.8	4.556
477.0	4.715
477.2	4.734
477.4	4.617
477.6	4.593
477.8	4.662
478.0	5.165
478.2	5.279
478.4	5.493
478.6	5.935
478.8	6.500
479.0	6.696
479.2	7.120
479.4	7.131
479.6	7.255
479.8	7.530
480.0	7.781
480.2	7.826
480.4	7.917
480.6	8.195
480.8	8.377
481.0	8.707
481.2	9.040
481.4	9.481
481.6	10.29
481.8	10.67
482.0	10.73
482.2	11.01
482.4	11.34
482.6	11.59
482.8	12.07
483.0	11.93
483.2	12.16
483.4	12.74
483.6	13.62
483.8	14.23
484.0	14.52
484.2	14.43
484.4	14.94
484.6	15.31
484.8	15.79
485.0	16.69
485.2	17.46
485.4	18.30
485.6	19.51
485.8	19.83
486.0	20.36
486.2	21.25
486.4	21.71
486.6	22.13
486.8	22.81
487.0	23.21
487.2	24.13
487.4	25.09
487.6	26.29
487.8	27.21
488.0	28.24
488.2	28.81
488.4	29.05
488.6	29.96
488.8	31.23
489.0	32.51
489.2	33.82
489.4	34.42
489.6	35.36
489.8	36.01
490.0	36.90
490.2	38.57
490.4	40.07
490.6	41.67
490.8	42.95
491.0	43.88
491.2	44.98
491.4	46.37
491.6	47.36
491.8	49.06
492.0	50.28
492.2	51.93
492.4	52.81
492.6	53.92
492.8	54.85
493.0	56.70
493.2	57.71
493.4	58.89
493.6	60.19
493.8	61.90
494.0	64.27
494.2	67.28
494.4	68.73
494.6	70.10
494.8	71.99
495.0	74.01
495.2	76.65
495.4	79.20
495.6	80.99
495.8	82.07
496.0	83.77
496.2	84.62
496.4	86.50
496.6	88.77
496.8	91.40
497.0	93.88
497.2	97.03
497.4	98.68
497.6	101.0
497.8	103.1
498.0	106.1
498.2	109.2
498.4	111.2
498.6	113.0
498.8	115.4
499.0	118.1
499.2	121.2
499.4	124.2
499.6	125.8
499.8	129.1
500.0	132.9
500.2	137.5
500.4	140.4
500.6	141.9
500.8	142.4
501.0	145.2
501.2	148.1
501.4	152.2
501.6	156.0
501.8	159.9
502.0	162.8
502.2	167.4
502.4	169.5
502.6	171.8
502.8	173.6
503.0	175.6
503.2	178.7
503.4	182.1
503.6	184.4
503.8	187.5
504.0	190.2
504.2	193.3
504.4	198.6
504.6	203.4
504.8	207.8
505.0	211.8
505.2	213.1
505.4	215.9
505.6	219.7
505.8	223.2
506.0	226.1
506.2	229.9
506.4	232.1
506.6	235.5
506.8	239.6
507.0	243.0
507.2	246.9
507.4	250.1
507.6	253.5
507.8	257.3
508.0	262.0
508.2	265.9
508.4	269.2
508.6	271.4
508.8	273.9
509.0	278.1
509.2	282.5
509.4	286.1
509.6	288.7
509.8	291.9
510.0	296.8
510.2	302.4
510.4	307.5
510.6	312.7
510.8	315.5
511.0	313.7
511.2	315.1
511.4	318.2
511.6	323.1
511.8	328.4
512.0	334.1
512.2	335.9
512.4	340.0
512.6	344.0
512.8	348.1
513.0	350.1
513.2	353.0
513.4	355.8
513.6	359.5
513.8	364.1
514.0	369.4
514.2	372.3
514.4	375.8
514.6	378.5
514.8	380.7
515.0	384.3
515.2	389.0
515.4	392.6
515.6	397.7
515.8	399.5
516.0	401.7
516.2	404.3
516.4	407.1
516.6	409.5
516.8	414.3
517.0	419.1
517.2	425.0
517.4	427.7
517.6	428.3
517.8	429.5
518.0	434.5
518.2	440.7
518.4	447.3
518.6	447.2
518.8	446.0
519.0	447.2
519.2	449.8
519.4	455.0
519.6	459.5
519.8	461.5
520.0	464.3
520.2	468.2
520.4	471.0
520.6	473.0
520.8	472.9
521.0	476.3
521.2	479.0
521.4	484.2
521.6	486.9
521.8	488.3
522.0	488.2
522.2	489.8
522.4	491.9
522.6	496.2
522.8	498.6
523.0	502.7
523.2	503.0
523.4	503.4
523.6	506.5
523.8	507.2
524.0	511.7
524.2	517.2
524.4	518.9
524.6	519.7
524.8	520.9
525.0	522.1
525.2	522.7
525.4	526.5
525.6	527.5
525.8	531.0
526.0	533.0
526.2	538.1
526.4	535.3
526.6	536.9
526.8	536.4
527.0	539.9
527.2	541.8
527.4	545.0
527.6	543.7
527.8	547.0
528.0	548.0
528.2	551.5
528.4	552.4
528.6	551.8
528.8	551.0
529.0	554.1
529.2	555.7
529.4	558.9
529.6	559.2
529.8	561.7
530.0	562.8
530.2	565.2
530.4	564.0
530.6	562.7
530.8	562.2
531.0	565.6
531.2	567.9
531.4	570.9
531.6	571.2
531.8	572.0
532.0	575.7
532.2	579.7
532.4	580.4
532.6	578.2
532.8	577.4
533.0	576.7
533.2	578.7
533.4	579.6
533.6	577.9
533.8	578.1
534.0	577.8
534.2	579.6
534.4	580.5
534.6	580.2
534.8	579.2
535.0	583.0
535.2	582.9
535.4	585.2
535.6	584.9
535.8	585.5
536.0	583.8
536.2	588.0
536.4	589.7
536.6	589.7
536.8	588.3
537.0	586.1
537.2	581.9
537.4	584.5
537.6	587.0
537.8	587.9
538.0	589.6
538.2	588.5
538.4	587.6
538.6	588.6
538.8	590.3
539.0	593.3
539.2	595.6
539.4	593.8
539.6	590.7
539.8	587.9
540.0	588.6
540.2	588.5
540.4	588.6
540.6	588.6
540.8	587.7
541.0	588.2
541.2	589.0
541.4	585.2
541.6	584.5
541.8	582.4
542.0	582.3
542.2	582.3
542.4	584.2
542.6	584.9
542.8	588.0
543.0	587.1
543.2	585.7
543.4	583.0
543.6	580.8
543.8	580.8
544.0	581.5
544.2	582.5
544.4	584.2
544.6	584.1
544.8	581.5
545.0	579.4
545.2	574.6
545.4	574.3
545.6	577.8
545.8	577.7
546.0	578.9
546.2	577.9
546.4	574.6
546.6	575.9
546.8	577.1
547.0	576.8
547.2	577.0
547.4	574.5
547.6	572.9
547.8	572.8
548.0	571.1
548.2	571.3
548.4	570.0
548.6	568.2
548.8	567.5
549.0	566.7
549.2	567.0
549.4	565.7
549.6	564.6
549.8	565.7
550.0	564.1
550.2	562.2
550.4	561.3
550.6	557.7
550.8	553.4
551.0	555.7
551.2	559.5
551.4	562.8
551.6	565.0
551.8	564.1
552.0	556.9
552.2	552.9
552.4	548.9
552.6	548.8
552.8	546.8
553.0	545.2
553.2	543.6
553.4	542.3
553.6	541.9
553.8	545.7
554.0	545.4
554.2	544.2
554.4	542.9
554.6	537.5
554.8	536.6
555.0	536.5
555.2	536.8
555.4	537.3
555.6	535.4
555.8	531.6
556.0	532.9
556.2	531.6
556.4	531.4
556.6	529.4
556.8	526.3
557.0	524.7
557.2	524.4
557.4	525.1
557.6	526.5
557.8	525.5
558.0	522.3
558.2	522.5
558.4	521.9
558.6	521.6
558.8	518.5
559.0	517.4
559.2	512.7
559.4	511.0
559.6	509.9
559.8	509.6
560.0	507.3
560.2	508.9
560.4	507.0
560.6	507.3
560.8	507.7
561.0	507.6
561.2	505.0
561.4	504.1
561.6	501.9
561.8	501.4
562.0	500.1
562.2	498.5
562.4	494.8
562.6	494.1
562.8	491.8
563.0	489.5
563.2	489.0
563.4	488.4
563.6	485.6
563.8	485.5
564.0	483.0
564.2	485.2
564.4	484.8
564.6	482.1
564.8	478.1
565.0	475.5
565.2	473.0
565.4	474.4
565.6	470.8
565.8	469.4
566.0	468.7
566.2	469.8
566.4	471.0
566.6	471.4
566.8	469.4
567.0	468.5
567.2	466.5
567.4	464.2
567.6	462.2
567.8	459.4
568.0	457.3
568.2	456.7
568.4	455.4
568.6	455.8
568.8	453.3
569.0	450.1
569.2	445.0
569.4	443.9
569.6	441.6
569.8	441.3
570.0	440.1
570.2	441.0
570.4	438.6
570.6	439.8
570.8	439.0
571.0	437.7
571.2	437.0
571.4	435.2
571.6	430.3
571.8	426.2
572.0	423.9
572.2	424.0
572.4	425.7
572.6	426.3
572.8	425.2
573.0	422.8
573.2	420.0
573.4	417.6
573.6	416.1
573.8	414.6
574.0	413.9
574.2	415.0
574.4	416.3
574.6	414.5
574.8	412.2
575.0	409.1
575.2	405.1
575.4	404.1
575.6	405.0
575.8	403.8
576.0	404.0
576.2	401.8
576.4	398.1
576.6	395.4
576.8	393.3
577.0	393.4
577.2	394.8
577.4	393.8
577.6	393.7
577.8	390.4
578.0	387.8
578.2	386.5
578.4	385.9
578.6	384.7
578.8	384.1
579.0	381.3
579.2	381.0
579.4	378.4
579.6	376.1
579.8	373.7
580.0	371.5
580.2	368.5
580.4	368.7
580.6	367.8
580.8	365.4
581.0	364.4
581.2	364.4
581.4	363.3
581.6	363.7
581.8	360.7
582.0	358.3
582.2	355.9
582.4	353.5
582.6	354.3
582.8	355.5
583.0	353.4
583.2	355.4
583.4	351.9
583.6	347.6
583.8	347.1
584.0	346.9
584.2	346.5
584.4	347.6
584.6	345.6
584.8	342.7
585.0	340.9
585.2	338.9
585.4	335.3
585.6	333.4
585.8	333.3
586.0	332.4
586.2	331.1
586.4	330.6
586.6	327.5
586.8	324.9
587.0	324.3
587.2	324.1
587.4	322.6
587.6	326.6
587.8	326.8
588.0	322.0
588.2	318.4
588.4	315.2
588.6	311.5
588.8	312.7
589.0	313.2
589.2	312.1
589.4	311.3
589.6	307.3
589.8	305.4
590.0	302.6
590.2	302.2
590.4	303.7
590.6	303.8
590.8	300.8
591.0	298.6
591.2	294.8
591.4	292.4
591.6	291.8
591.8	291.8
592.0	293.6
592.2	293.5
592.4	292.0
592.6	290.4
592.8	287.9
593.0	285.4
593.2	283.7
593.4	280.5
593.6	278.5
593.8	278.7
594.0	280.6
594.2	282.3
594.4	282.0
594.6	280.4
594.8	279.2
595.0	279.7
595.2	278.5
595.4	276.0
595.6	273.2
595.8	272.4
596.0	271.0
596.2	272.4
596.4	270.5
596.6	266.3
596.8	264.5
597.0	264.7
597.2	262.9
597.4	263.3
597.6	261.9
597.8	258.1
598.0	258.2
598.2	256.4
598.4	254.0
598.6	253.9
598.8	252.2
599.0	250.5
599.2	251.6
599.4	248.4
599.6	247.0
599.8	247.2
600.0	247.2
600.2	246.1
600.4	245.3
600.6	241.9
600.8	241.7
601.0	241.9
601.2	242.8
601.4	242.4
601.6	239.8
601.8	234.6
602.0	233.4
602.2	232.2
602.4	232.0
602.6	232.0
602.8	230.3
603.0	226.9
603.2	227.8
603.4	228.1
603.6	229.3
603.8	227.3
604.0	225.6
604.2	224.0
604.4	223.1
604.6	221.8
604.8	221.1
605.0	219.8
605.2	218.7
605.4	216.5
605.6	214.1
605.8	212.2
606.0	212.0
606.2	214.0
606.4	214.5
606.6	213.4
606.8	211.4
607.0	209.6
607.2	208.4
607.4	207.4
607.6	207.8
607.8	206.8
608.0	207.8
608.2	208.4
608.4	206.4
608.6	203.1
608.8	202.6
609.0	199.2
609.2	199.3
609.4	199.4
609.6	197.4
609.8	196.5
610.0	196.7
610.2	195.4
610.4	194.7
610.6	194.2
610.8	192.2
611.0	191.0
611.2	189.0
611.4	188.5
611.6	189.1
611.8	188.6
612.0	187.5
612.2	187.7
612.4	186.4
612.6	186.3
612.8	184.7
613.0	182.6
613.2	180.1
613.4	180.0
613.6	180.5
613.8	180.1
614.0	177.6
614.2	177.0
614.4	174.4
614.6	175.0
614.8	176.9
615.0	176.0
615.2	175.1
615.4	172.1
615.6	169.2
615.8	168.2
616.0	167.5
616.2	167.0
616.4	167.6
616.6	165.1
616.8	164.2
617.0	162.9
617.2	162.2
617.4	161.4
617.6	161.8
617.8	162.3
618.0	162.6
618.2	162.3
618.4	160.4
618.6	158.5
618.8	156.5
619.0	155.8
619.2	155.7
619.4	155.6
619.6	154.3
619.8	153.9
620.0	151.8
620.2	150.0
620.4	148.9
620.6	148.5
620.8	147.8
621.0	148.1
621.2	147.0
621.4	145.6
621.6	144.7
621.8	144.9
622.0	144.1
622.2	145.2
622.4	144.8
622.6	143.8
622.8	143.3
623.0	142.5
623.2	141.7
623.4	141.3
623.6	140.3
623.8	138.3
624.0	137.5
624.2	137.0
624.4	136.4
624.6	135.1
624.8	134.0
625.0	132.5
625.2	131.1
625.4	131.2
625.6	131.8
625.8	131.9
626.0	132.1
626.2	130.4
626.4	127.1
626.6	126.0
626.8	125.6
627.0	125.0
627.2	125.7
627.4	125.3
627.6	123.8
627.8	123.6
628.0	122.4
628.2	121.3
628.4	121.0
628.6	119.4
628.8	117.4
629.0	116.4
629.2	116.3
629.4	117.0
629.6	118.3
629.8	117.8
630.0	117.4
630.2	116.2
630.4	114.6
630.6	111.6
630.8	110.7
631.0	111.0
631.2	111.1
631.4	111.4
631.6	111.5
631.8	109.5
632.0	109.7
632.2	110.0
632.4	109.1
632.6	109.1
632.8	107.9
633.0	106.3
633.2	105.6
633.4	104.0
633.6	103.4
633.8	104.1
634.0	104.1
634.2	103.4
634.4	102.6
634.6	100.6
634.8	99.64
635.0	100.2
635.2	100.6
635.4	98.45
635.6	98.17
635.8	98.69
636.0	98.70
636.2	100.6
636.4	100.2
636.6	98.27
636.8	96.36
637.0	95.34
637.2	93.60
637.4	92.95
637.6	92.14
637.8	92.39
638.0	91.78
638.2	92.33
638.4	91.74
638.6	90.80
638.8	90.29
639.0	90.47
639.2	90.00
639.4	90.20
639.6	89.86
639.8	89.29
640.0	88.49
640.2	87.47
640.4	85.67
640.6	83.91
640.8	84.61
641.0	85.97
641.2	86.93
641.4	86.66
641.6	86.37
641.8	84.64
642.0	84.09
642.2	83.58
642.4	82.84
642.6	81.67
642.8	81.07
643.0	80.19
643.2	79.37
643.4	78.84
643.6	78.91
643.8	78.86
644.0	77.41
644.2	77.32
644.4	77.29
644.6	77.37
644.8	77.12
645.0	75.82
645.2	74.08
645.4	73.51
645.6	74.11
645.8	74.35
646.0	74.62
646.2	73.67
646.4	73.15
646.6	72.49
646.8	72.88
647.0	73.26
647.2	72.97
647.4	72.08
647.6	71.09
647.8	70.50
648.0	69.06
648.2	68.48
648.4	67.60
648.6	67.14
648.8	67.54
649.0	67.59
649.2	65.90
649.4	65.39
649.6	65.76
649.8	65.97
650.0	66.53
650.2	65.61
650.4	63.91
650.6	63.59
650.8	63.55
651.0	63.33
651.2	63.18
651.4	62.83
651.6	62.52
651.8	62.06
652.0	60.84
652.2	60.17
652.4	59.26
652.6	58.95
652.8	59.11
653.0	58.65
653.2	58.03
653.4	58.18
653.6	57.37
653.8	56.79
654.0	56.70
654.2	56.57
654.4	56.40
654.6	57.45
654.8	57.54
655.0	56.94
655.2	55.88
655.4	54.69
655.6	53.60
655.8	53.44
656.0	53.18
656.2	52.79
656.4	52.65
656.6	52.36
656.8	53.18
657.0	53.39
657.2	53.13
657.4	52.26
657.6	51.61
657.8	50.68
658.0	50.91
658.2	50.22
658.4	50.40
658.6	50.00
658.8	49.76
659.0	49.49
659.2	48.92
659.4	47.88
659.6	47.97
659.8	48.05
660.0	47.98
660.2	47.89
660.4	47.11
660.6	46.35
660.8	45.47
661.0	44.62
661.2	44.13
661.4	44.22
661.6	44.43
661.8	45.13
662.0	44.75
662.2	44.37
662.4	44.51
662.6	44.24
662.8	44.18
663.0	44.26
663.2	43.64
663.4	42.75
663.6	42.32
663.8	41.64
664.0	41.19
664.2	41.02
664.4	40.90
664.6	40.60
664.8	40.42
665.0	40.90
665.2	41.08
665.4	40.50
665.6	39.60
665.8	39.19
666.0	38.89
666.2	39.17
666.4	39.74
666.6	39.43
666.8	38.71
667.0	38.06
667.2	37.00
667.4	36.91
667.6	37.35
667.8	37.31
668.0	37.41
668.2	37.06
668.4	36.20
668.6	35.99
668.8	35.68
669.0	34.91
669.2	34.69
669.4	33.86
669.6	33.65
669.8	34.00
670.0	34.52
670.2	34.63
670.4	34.34
670.6	33.56
670.8	33.06
671.0	32.86
671.2	32.43
671.4	32.14
671.6	31.66
671.8	32.04
672.0	32.34
672.2	32.10
672.4	32.26
672.6	32.05
672.8	31.68
673.0	31.47
673.2	30.56
673.4	29.61
673.6	29.86
673.8	29.72
674.0	30.14
674.2	29.98
674.4	29.40
674.6	29.34
674.8	29.70
675.0	29.81
675.2	30.77
675.4	30.90
675.6	30.34
675.8	29.40
676.0	28.41
676.2	27.69
676.4	28.34
676.6	28.63
676.8	28.64
677.0	27.76
677.2	26.81
677.4	26.20
677.6	25.73
677.8	26.14
678.0	26.69
678.2	26.66
678.4	26.98
678.6	26.69
678.8	26.07
679.0	25.89
679.2	25.84
679.4	25.70
679.6	25.81
679.8	25.38
680.0	24.78
680.2	24.17
680.4	24.18
680.6	23.94
680.8	23.65
681.0	23.54
681.2	23.33
681.4	23.36
681.6	23.32
681.8	23.29
682.0	23.02
682.2	22.84
682.4	22.75
682.6	22.58
682.8	22.25
683.0	22.28
683.2	22.43
683.4	22.23
683.6	22.38
683.8	21.82
684.0	21.54
684.2	21.23
684.4	21.44
684.6	21.62
684.8	21.61
685.0	21.21
685.2	21.39
685.4	21.25
685.6	21.06
685.8	21.30
686.0	20.85
686.2	20.18
686.4	19.64
686.6	19.50
686.8	19.44
687.0	19.87
687.2	20.32
687.4	19.80
687.6	19.38
687.8	19.11
688.0	18.97
688.2	18.73
688.4	19.01
688.6	19.09
688.8	19.01
689.0	18.75
689.2	19.14
689.4	19.12
689.6	18.97
689.8	18.61
690.0	18.35
690.2	18.32
690.4	18.61
690.6	18.38
690.8	17.68
691.0	17.30
691.2	17.37
691.4	17.98
691.6	17.91
691.8	17.34
692.0	17.02
692.2	16.97
692.4	16.80
692.6	17.12
692.8	17.09
693.0	16.81
693.2	16.70
693.4	16.52
693.6	16.56
693.8	16.48
694.0	16.58
694.2	15.95
694.4	15.45
694.6	15.25
694.8	15.67
695.0	16.06
695.2	15.81
695.4	15.34
695.6	15.10
695.8	15.25
696.0	15.55
696.2	15.53
696.4	14.99
696.6	14.75
696.8	14.36
697.0	14.24
697.2	14.35
697.4	14.25
697.6	14.29
697.8	14.55
698.0	14.47
698.2	14.28
698.4	13.96
698.6	13.86
698.8	13.86
699.0	14.21
699.2	14.52
699.4	14.65
699.6	14.32
699.8	13.83
700.0	13.42
700.2	13.04
700.4	12.99
700.6	13.21
700.8	13.51
701.0	13.37
701.2	13.19
701.4	12.81
701.6	12.52
701.8	12.23
702.0	12.30
702.2	12.41
702.4	12.64
702.6	12.70
702.8	12.57
703.0	12.46
703.2	11.96
703.4	11.88
703.6	12.10
703.8	11.90
704.0	11.85
704.2	11.97
704.4	11.74
704.6	11.67
704.8	11.60
705.0	11.50
705.2	11.57
705.4	11.59
705.6	11.89
705.8	11.69
706.0	11.38
706.2	11.36
706.4	11.25
706.6	11.16
706.8	11.29
707.0	11.36
707.2	11.56
707.4	11.62
707.6	11.57
707.8	11.29
708.0	11.28
708.2	11.09
708.4	11.23
708.6	10.93
708.8	10.64
709.0	10.57
709.2	10.65
709.4	10.61
709.6	10.54
