Sample:	'20211010A(EM)
File name:	R-CDS-100-S2- 20h.FDS
Run date:	'08:01:54, 03/23/2023
Operator:	Administrator
Comment:	'

Instrument
Model:	F-4700 FL Spectrophotometer
Serial number:	2019-001
ROM Version:	5J24010 00

Instrument parameters
Measurement type:	Wavelength scan
Scan mode:	Emission
Data mode:	Fluorescence
EX WL:	520.0 nm
EM  Start WL:	540.0 nm
EM  End WL:	900.0 nm
Scan speed:	1200 nm/min
Delay:	0.0 s
EX Slit:	10.0 nm
EM Slit:	10.0 nm
PMT Voltage:	570 V
Response:	0.002 s
Corrected spectra:	Off
Shutter control:	On

Processing performed
Savitsky-Golay smoothed
Smoothing order:	3
Number of points:	7
Number of times:	1

Peak integration
Integration method:	Rectangular
Sensitivity:	1
Threshold:	1.000

Peaks
No.	Start(nm)	Apex(nm)	End(nm)	Height(Data)	Valley(nm)	Valley(Data)
1	540.0	634.8	802.0	6588	802.0	43.23
2	802.0	802.4	900.0	45.12	900.0	3.452

Data points
nm	Data
540.0	1653
540.2	1656
540.4	1663
540.6	1671
540.8	1679
541.0	1693
541.2	1709
541.4	1714
541.6	1722
541.8	1725
542.0	1728
542.2	1738
542.4	1745
542.6	1754
542.8	1766
543.0	1775
543.2	1785
543.4	1795
543.6	1802
543.8	1807
544.0	1815
544.2	1822
544.4	1836
544.6	1849
544.8	1861
545.0	1866
545.2	1872
545.4	1874
545.6	1884
545.8	1890
546.0	1896
546.2	1902
546.4	1914
546.6	1927
546.8	1942
547.0	1950
547.2	1953
547.4	1954
547.6	1960
547.8	1967
548.0	1972
548.2	1980
548.4	1987
548.6	1997
548.8	2009
549.0	2020
549.2	2028
549.4	2041
549.6	2047
549.8	2055
550.0	2059
550.2	2068
550.4	2082
550.6	2095
550.8	2101
551.0	2107
551.2	2113
551.4	2123
551.6	2131
551.8	2141
552.0	2145
552.2	2157
552.4	2170
552.6	2185
552.8	2193
553.0	2200
553.2	2202
553.4	2212
553.6	2222
553.8	2231
554.0	2239
554.2	2246
554.4	2251
554.6	2261
554.8	2278
555.0	2295
555.2	2304
555.4	2308
555.6	2311
555.8	2316
556.0	2328
556.2	2349
556.4	2357
556.6	2361
556.8	2363
557.0	2367
557.2	2372
557.4	2385
557.6	2395
557.8	2407
558.0	2419
558.2	2435
558.4	2451
558.6	2462
558.8	2467
559.0	2473
559.2	2486
559.4	2503
559.6	2519
559.8	2524
560.0	2523
560.2	2525
560.4	2537
560.6	2554
560.8	2567
561.0	2580
561.2	2588
561.4	2596
561.6	2609
561.8	2622
562.0	2635
562.2	2649
562.4	2655
562.6	2666
562.8	2678
563.0	2691
563.2	2711
563.4	2722
563.6	2728
563.8	2741
564.0	2749
564.2	2759
564.4	2773
564.6	2784
564.8	2790
565.0	2804
565.2	2816
565.4	2831
565.6	2850
565.8	2868
566.0	2874
566.2	2878
566.4	2885
566.6	2896
566.8	2917
567.0	2933
567.2	2946
567.4	2958
567.6	2971
567.8	2986
568.0	3003
568.2	3016
568.4	3026
568.6	3034
568.8	3048
569.0	3063
569.2	3073
569.4	3088
569.6	3104
569.8	3119
570.0	3136
570.2	3151
570.4	3157
570.6	3164
570.8	3181
571.0	3199
571.2	3215
571.4	3229
571.6	3239
571.8	3248
572.0	3256
572.2	3272
572.4	3290
572.6	3308
572.8	3325
573.0	3336
573.2	3343
573.4	3359
573.6	3373
573.8	3394
574.0	3412
574.2	3424
574.4	3430
574.6	3439
574.8	3451
575.0	3468
575.2	3487
575.4	3508
575.6	3526
575.8	3535
576.0	3543
576.2	3551
576.4	3562
576.6	3578
576.8	3598
577.0	3609
577.2	3623
577.4	3633
577.6	3639
577.8	3657
578.0	3681
578.2	3699
578.4	3714
578.6	3718
578.8	3721
579.0	3736
579.2	3761
579.4	3779
579.6	3794
579.8	3798
580.0	3808
580.2	3815
580.4	3827
580.6	3839
580.8	3861
581.0	3870
581.2	3888
581.4	3907
581.6	3923
581.8	3937
582.0	3953
582.2	3963
582.4	3972
582.6	3990
582.8	4001
583.0	4015
583.2	4031
583.4	4043
583.6	4055
583.8	4074
584.0	4089
584.2	4115
584.4	4128
584.6	4129
584.8	4133
585.0	4147
585.2	4155
585.4	4177
585.6	4187
585.8	4199
586.0	4213
586.2	4235
586.4	4244
586.6	4261
586.8	4258
587.0	4268
587.2	4279
587.4	4298
587.6	4322
587.8	4341
588.0	4339
588.2	4352
588.4	4359
588.6	4377
588.8	4393
589.0	4405
589.2	4413
589.4	4423
589.6	4426
589.8	4443
590.0	4441
590.2	4450
590.4	4466
590.6	4488
590.8	4503
591.0	4520
591.2	4526
591.4	4538
591.6	4552
591.8	4571
592.0	4585
592.2	4596
592.4	4607
592.6	4618
592.8	4626
593.0	4636
593.2	4649
593.4	4665
593.6	4673
593.8	4679
594.0	4688
594.2	4695
594.4	4699
594.6	4713
594.8	4722
595.0	4733
595.2	4754
595.4	4761
595.6	4781
595.8	4801
596.0	4815
596.2	4827
596.4	4832
596.6	4836
596.8	4856
597.0	4865
597.2	4874
597.4	4887
597.6	4893
597.8	4901
598.0	4911
598.2	4921
598.4	4934
598.6	4943
598.8	4944
599.0	4948
599.2	4944
599.4	4950
599.6	4963
599.8	4981
600.0	4999
600.2	5024
600.4	5030
600.6	5050
600.8	5065
601.0	5082
601.2	5092
601.4	5094
601.6	5092
601.8	5109
602.0	5116
602.2	5136
602.4	5153
602.6	5166
602.8	5173
603.0	5172
603.2	5174
603.4	5190
603.6	5204
603.8	5219
604.0	5231
604.2	5230
604.4	5238
604.6	5256
604.8	5274
605.0	5286
605.2	5300
605.4	5298
605.6	5305
605.8	5322
606.0	5338
606.2	5348
606.4	5357
606.6	5359
606.8	5379
607.0	5403
607.2	5419
607.4	5429
607.6	5433
607.8	5440
608.0	5438
608.2	5454
608.4	5462
608.6	5470
608.8	5479
609.0	5483
609.2	5488
609.4	5499
609.6	5510
609.8	5522
610.0	5543
610.2	5550
610.4	5562
610.6	5569
610.8	5585
611.0	5598
611.2	5622
611.4	5636
611.6	5648
611.8	5664
612.0	5681
612.2	5687
612.4	5702
612.6	5708
612.8	5718
613.0	5724
613.2	5733
613.4	5735
613.6	5746
613.8	5751
614.0	5763
614.2	5771
614.4	5779
614.6	5787
614.8	5800
615.0	5807
615.2	5817
615.4	5828
615.6	5844
615.8	5858
616.0	5874
616.2	5882
616.4	5889
616.6	5897
616.8	5914
617.0	5925
617.2	5945
617.4	5957
617.6	5975
617.8	5990
618.0	6000
618.2	6008
618.4	6014
618.6	6014
618.8	6026
619.0	6031
619.2	6042
619.4	6055
619.6	6063
619.8	6078
620.0	6096
620.2	6100
620.4	6118
620.6	6130
620.8	6139
621.0	6155
621.2	6161
621.4	6167
621.6	6183
621.8	6197
622.0	6203
622.2	6214
622.4	6215
622.6	6225
622.8	6240
623.0	6264
623.2	6273
623.4	6280
623.6	6270
623.8	6273
624.0	6280
624.2	6302
624.4	6317
624.6	6335
624.8	6331
625.0	6335
625.2	6340
625.4	6354
625.6	6355
625.8	6375
626.0	6377
626.2	6384
626.4	6387
626.6	6389
626.8	6386
627.0	6399
627.2	6418
627.4	6430
627.6	6442
627.8	6447
628.0	6448
628.2	6465
628.4	6476
628.6	6480
628.8	6489
629.0	6482
629.2	6484
629.4	6498
629.6	6503
629.8	6507
630.0	6509
630.2	6504
630.4	6509
630.6	6507
630.8	6515
631.0	6519
631.2	6531
631.4	6535
631.6	6535
631.8	6535
632.0	6536
632.2	6539
632.4	6546
632.6	6550
632.8	6551
633.0	6558
633.2	6569
633.4	6574
633.6	6581
633.8	6580
634.0	6565
634.2	6563
634.4	6570
634.6	6580
634.8	6588
635.0	6586
635.2	6583
635.4	6581
635.6	6574
635.8	6576
636.0	6565
636.2	6567
636.4	6575
636.6	6581
636.8	6580
637.0	6571
637.2	6556
637.4	6546
637.6	6546
637.8	6553
638.0	6554
638.2	6540
638.4	6537
638.6	6537
638.8	6535
639.0	6531
639.2	6529
639.4	6510
639.6	6506
639.8	6509
640.0	6504
640.2	6504
640.4	6501
640.6	6480
640.8	6469
641.0	6456
641.2	6448
641.4	6455
641.6	6453
641.8	6449
642.0	6442
642.2	6439
642.4	6425
642.6	6423
642.8	6417
643.0	6413
643.2	6407
643.4	6399
643.6	6384
643.8	6379
644.0	6368
644.2	6357
644.4	6345
644.6	6327
644.8	6320
645.0	6303
645.2	6291
645.4	6279
645.6	6258
645.8	6249
646.0	6237
646.2	6223
646.4	6218
646.6	6208
646.8	6185
647.0	6176
647.2	6161
647.4	6145
647.6	6129
647.8	6113
648.0	6094
648.2	6083
648.4	6075
648.6	6050
648.8	6033
649.0	6008
649.2	5988
649.4	5975
649.6	5963
649.8	5952
650.0	5942
650.2	5918
650.4	5905
650.6	5885
650.8	5863
651.0	5838
651.2	5819
651.4	5797
651.6	5782
651.8	5767
652.0	5755
652.2	5744
652.4	5741
652.6	5719
652.8	5692
653.0	5666
653.2	5637
653.4	5622
653.6	5610
653.8	5593
654.0	5581
654.2	5558
654.4	5536
654.6	5512
654.8	5478
655.0	5450
655.2	5434
655.4	5413
655.6	5400
655.8	5386
656.0	5364
656.2	5338
656.4	5317
656.6	5289
656.8	5262
657.0	5245
657.2	5236
657.4	5221
657.6	5207
657.8	5185
658.0	5156
658.2	5119
658.4	5099
658.6	5077
658.8	5061
659.0	5040
659.2	5014
659.4	4984
659.6	4966
659.8	4939
660.0	4922
660.2	4893
660.4	4870
660.6	4844
660.8	4827
661.0	4799
661.2	4780
661.4	4754
661.6	4731
661.8	4705
662.0	4688
662.2	4665
662.4	4650
662.6	4630
662.8	4608
663.0	4580
663.2	4554
663.4	4532
663.6	4513
663.8	4490
664.0	4468
664.2	4440
664.4	4413
664.6	4388
664.8	4365
665.0	4335
665.2	4312
665.4	4292
665.6	4270
665.8	4254
666.0	4238
666.2	4210
666.4	4185
666.6	4159
666.8	4140
667.0	4119
667.2	4099
667.4	4072
667.6	4048
667.8	4023
668.0	4001
668.2	3974
668.4	3956
668.6	3936
668.8	3919
669.0	3898
669.2	3871
669.4	3846
669.6	3828
669.8	3807
670.0	3782
670.2	3753
670.4	3728
670.6	3705
670.8	3691
671.0	3673
671.2	3653
671.4	3632
671.6	3604
671.8	3577
672.0	3550
672.2	3530
672.4	3512
672.6	3489
672.8	3467
673.0	3450
673.2	3429
673.4	3411
673.6	3386
673.8	3359
674.0	3341
674.2	3322
674.4	3306
674.6	3282
674.8	3263
675.0	3241
675.2	3221
675.4	3200
675.6	3177
675.8	3151
676.0	3137
676.2	3121
676.4	3102
676.6	3082
676.8	3054
677.0	3033
677.2	3018
677.4	3001
677.6	2986
677.8	2968
678.0	2951
678.2	2935
678.4	2916
678.6	2888
678.8	2869
679.0	2846
679.2	2828
679.4	2810
679.6	2791
679.8	2770
680.0	2755
680.2	2735
680.4	2716
680.6	2697
680.8	2678
681.0	2657
681.2	2641
681.4	2625
681.6	2615
681.8	2603
682.0	2587
682.2	2569
682.4	2551
682.6	2531
682.8	2512
683.0	2496
683.2	2477
683.4	2463
683.6	2449
683.8	2436
684.0	2415
684.2	2403
684.4	2388
684.6	2369
684.8	2356
685.0	2340
685.2	2326
685.4	2310
685.6	2290
685.8	2267
686.0	2248
686.2	2233
686.4	2222
686.6	2208
686.8	2194
687.0	2182
687.2	2168
687.4	2151
687.6	2136
687.8	2124
688.0	2109
688.2	2096
688.4	2080
688.6	2064
688.8	2051
689.0	2043
689.2	2028
689.4	2016
689.6	2004
689.8	1996
690.0	1985
690.2	1970
690.4	1957
690.6	1941
690.8	1925
691.0	1919
691.2	1908
691.4	1898
691.6	1890
691.8	1874
692.0	1858
692.2	1845
692.4	1831
692.6	1821
692.8	1812
693.0	1803
693.2	1793
693.4	1783
693.6	1771
693.8	1760
694.0	1745
694.2	1734
694.4	1724
694.6	1713
694.8	1702
695.0	1693
695.2	1679
695.4	1673
695.6	1666
695.8	1659
696.0	1650
696.2	1640
696.4	1633
696.6	1624
696.8	1611
697.0	1595
697.2	1579
697.4	1568
697.6	1567
697.8	1560
698.0	1552
698.2	1539
698.4	1527
698.6	1517
698.8	1510
699.0	1500
699.2	1491
699.4	1479
699.6	1473
699.8	1468
700.0	1465
700.2	1456
700.4	1450
700.6	1439
700.8	1426
701.0	1417
701.2	1409
701.4	1406
701.6	1403
701.8	1397
702.0	1384
702.2	1378
702.4	1373
702.6	1371
702.8	1363
703.0	1352
703.2	1338
703.4	1325
703.6	1319
703.8	1314
704.0	1306
704.2	1296
704.4	1286
704.6	1274
704.8	1266
705.0	1263
705.2	1259
705.4	1252
705.6	1245
705.8	1240
706.0	1231
706.2	1223
706.4	1221
706.6	1214
706.8	1207
707.0	1203
707.2	1196
707.4	1185
707.6	1179
707.8	1167
708.0	1157
708.2	1152
708.4	1150
708.6	1141
708.8	1134
709.0	1125
709.2	1112
709.4	1108
709.6	1105
709.8	1098
710.0	1094
710.2	1092
710.4	1082
710.6	1075
710.8	1067
711.0	1059
711.2	1052
711.4	1048
711.6	1039
711.8	1033
712.0	1024
712.2	1015
712.4	1009
712.6	1006
712.8	999.1
713.0	995.3
713.2	987.5
713.4	979.6
713.6	972.8
713.8	966.7
714.0	962.1
714.2	954.8
714.4	948.0
714.6	939.5
714.8	932.1
715.0	926.1
715.2	923.9
715.4	921.1
715.6	915.2
715.8	907.2
716.0	899.4
716.2	893.9
716.4	889.4
716.6	884.7
716.8	877.0
717.0	870.1
717.2	861.0
717.4	854.4
717.6	847.5
717.8	842.6
718.0	837.8
718.2	835.5
718.4	830.3
718.6	824.0
718.8	814.9
719.0	806.6
719.2	799.3
719.4	796.9
719.6	795.9
719.8	793.5
720.0	788.8
720.2	782.8
720.4	773.1
720.6	766.3
720.8	760.9
721.0	756.5
721.2	752.1
721.4	747.2
721.6	738.0
721.8	729.7
722.0	724.9
722.2	722.6
722.4	719.4
722.6	715.2
722.8	709.7
723.0	701.6
723.2	695.2
723.4	688.5
723.6	681.1
723.8	676.2
724.0	675.3
724.2	672.4
724.4	666.5
724.6	659.3
724.8	650.2
725.0	642.5
725.2	639.3
725.4	634.0
725.6	627.5
725.8	625.4
726.0	622.7
726.2	620.8
726.4	619.0
726.6	613.8
726.8	606.7
727.0	602.2
727.2	595.8
727.4	590.5
727.6	585.3
727.8	579.4
728.0	573.8
728.2	570.0
728.4	565.8
728.6	562.5
728.8	560.6
729.0	557.7
729.2	554.2
729.4	550.0
729.6	542.6
729.8	534.9
730.0	531.2
730.2	528.5
730.4	529.5
730.6	527.6
730.8	521.7
731.0	515.2
731.2	508.3
731.4	504.4
731.6	502.5
731.8	499.4
732.0	494.9
732.2	489.6
732.4	484.0
732.6	481.6
732.8	477.6
733.0	474.2
733.2	468.7
733.4	463.6
733.6	461.1
733.8	459.6
734.0	457.4
734.2	453.9
734.4	448.4
734.6	441.8
734.8	438.2
735.0	436.5
735.2	436.0
735.4	434.9
735.6	432.1
735.8	426.3
736.0	421.5
736.2	418.1
736.4	415.4
736.6	411.8
736.8	410.5
737.0	404.6
737.2	399.6
737.4	397.9
737.6	395.9
737.8	392.4
738.0	392.1
738.2	388.0
738.4	385.4
738.6	383.4
738.8	379.8
739.0	375.1
739.2	372.5
739.4	369.5
739.6	367.5
739.8	364.4
740.0	362.2
740.2	359.8
740.4	355.8
740.6	351.5
740.8	349.7
741.0	345.8
741.2	344.5
741.4	343.5
741.6	339.4
741.8	335.3
742.0	332.5
742.2	326.4
742.4	322.2
742.6	321.4
742.8	319.4
743.0	321.0
743.2	321.0
743.4	319.5
743.6	317.1
743.8	313.7
744.0	309.2
744.2	308.6
744.4	307.2
744.6	306.2
744.8	304.4
745.0	300.7
745.2	295.6
745.4	292.1
745.6	289.6
745.8	286.9
746.0	284.0
746.2	281.8
746.4	277.7
746.6	276.2
746.8	276.1
747.0	275.1
747.2	274.4
747.4	273.3
747.6	269.8
747.8	267.5
748.0	263.1
748.2	260.4
748.4	259.6
748.6	258.8
748.8	258.4
749.0	257.8
749.2	254.6
749.4	252.2
749.6	249.6
749.8	247.6
750.0	246.5
750.2	244.9
750.4	241.7
750.6	237.8
750.8	235.1
751.0	234.2
751.2	232.9
751.4	232.1
751.6	229.6
751.8	227.5
752.0	226.0
752.2	225.7
752.4	223.2
752.6	221.7
752.8	219.1
753.0	216.0
753.2	214.0
753.4	213.4
753.6	212.9
753.8	212.0
754.0	210.0
754.2	206.9
754.4	205.9
754.6	205.0
754.8	205.0
755.0	202.9
755.2	200.6
755.4	198.6
755.6	197.3
755.8	196.4
756.0	195.5
756.2	194.4
756.4	192.1
756.6	189.2
756.8	186.0
757.0	183.0
757.2	181.7
757.4	181.0
757.6	179.6
757.8	177.3
758.0	176.1
758.2	174.3
758.4	173.6
758.6	172.2
758.8	170.3
759.0	169.3
759.2	168.1
759.4	166.6
759.6	165.4
759.8	165.5
760.0	165.7
760.2	165.4
760.4	163.1
760.6	160.2
760.8	157.7
761.0	158.2
761.2	158.3
761.4	158.6
761.6	157.8
761.8	155.2
762.0	152.6
762.2	150.7
762.4	148.7
762.6	149.5
762.8	148.7
763.0	147.5
763.2	146.1
763.4	143.0
763.6	139.7
763.8	139.7
764.0	139.2
764.2	139.7
764.4	139.7
764.6	137.9
764.8	135.3
765.0	134.2
765.2	133.4
765.4	132.0
765.6	130.0
765.8	127.7
766.0	127.2
766.2	125.9
766.4	127.1
766.6	127.8
766.8	127.0
767.0	125.3
767.2	123.3
767.4	120.1
767.6	119.0
767.8	118.6
768.0	118.9
768.2	118.5
768.4	118.0
768.6	116.7
768.8	115.0
769.0	114.3
769.2	113.3
769.4	112.7
769.6	111.9
769.8	111.3
770.0	110.4
770.2	109.5
770.4	107.9
770.6	107.6
770.8	107.3
771.0	107.8
771.2	107.8
771.4	106.9
771.6	105.3
771.8	103.7
772.0	101.9
772.2	100.4
772.4	99.74
772.6	99.55
772.8	99.01
773.0	98.81
773.2	98.14
773.4	98.27
773.6	97.63
773.8	96.97
774.0	96.18
774.2	95.21
774.4	93.56
774.6	92.59
774.8	91.26
775.0	90.69
775.2	90.99
775.4	90.43
775.6	90.44
775.8	90.52
776.0	91.00
776.2	90.75
776.4	88.50
776.6	86.62
776.8	85.96
777.0	85.41
777.2	86.11
777.4	85.87
777.6	83.42
777.8	82.69
778.0	82.45
778.2	82.84
778.4	83.38
778.6	82.69
778.8	81.13
779.0	80.72
779.2	80.15
779.4	79.81
779.6	79.08
779.8	78.29
780.0	76.94
780.2	77.02
780.4	76.52
780.6	76.00
780.8	74.91
781.0	74.79
781.2	73.81
781.4	72.98
781.6	72.74
781.8	72.65
782.0	71.32
782.2	72.28
782.4	72.97
782.6	71.58
782.8	70.93
783.0	70.04
783.2	68.29
783.4	68.56
783.6	68.64
783.8	68.09
784.0	67.61
784.2	67.22
784.4	67.66
784.6	67.48
784.8	67.71
785.0	66.90
785.2	65.44
785.4	64.64
785.6	65.18
785.8	65.01
786.0	65.70
786.2	65.41
786.4	64.83
786.6	64.57
786.8	64.35
787.0	62.83
787.2	62.32
787.4	62.06
787.6	62.01
787.8	61.63
788.0	61.45
788.2	61.15
788.4	61.96
788.6	61.61
788.8	61.44
789.0	59.91
789.2	59.14
789.4	59.36
789.6	59.45
789.8	59.38
790.0	59.41
790.2	58.70
790.4	57.80
790.6	57.03
790.8	56.20
791.0	55.64
791.2	56.51
791.4	57.58
791.6	57.26
791.8	56.77
792.0	56.85
792.2	55.63
792.4	55.17
792.6	54.67
792.8	53.37
793.0	52.71
793.2	53.23
793.4	53.61
793.6	54.28
793.8	54.05
794.0	53.96
794.2	53.47
794.4	52.78
794.6	52.51
794.8	52.44
795.0	51.23
795.2	50.45
795.4	50.13
795.6	49.50
795.8	49.42
796.0	49.91
796.2	50.16
796.4	50.31
796.6	50.32
796.8	49.43
797.0	48.72
797.2	49.09
797.4	49.29
797.6	49.73
797.8	48.81
798.0	47.85
798.2	46.63
798.4	47.31
798.6	47.37
798.8	48.07
799.0	48.02
799.2	47.07
799.4	46.62
799.6	46.96
799.8	46.65
800.0	46.54
800.2	47.02
800.4	46.50
800.6	46.11
800.8	45.71
801.0	45.25
801.2	44.62
801.4	44.55
801.6	43.95
801.8	43.39
802.0	43.23
802.2	44.11
802.4	45.12
802.6	45.08
802.8	44.48
803.0	44.23
803.2	42.66
803.4	42.09
803.6	41.79
803.8	40.89
804.0	40.82
804.2	41.74
804.4	41.05
804.6	40.89
804.8	40.33
805.0	40.76
805.2	40.48
805.4	41.19
805.6	40.91
805.8	40.52
806.0	39.43
806.2	39.52
806.4	38.43
806.6	38.53
806.8	38.87
807.0	39.34
807.2	38.82
807.4	38.00
807.6	37.43
807.8	37.11
808.0	37.12
808.2	38.01
808.4	38.13
808.6	37.71
808.8	37.63
809.0	37.60
809.2	36.98
809.4	37.44
809.6	36.89
809.8	36.15
810.0	35.68
810.2	35.48
810.4	35.10
810.6	35.96
810.8	35.82
811.0	35.78
811.2	35.82
811.4	35.42
811.6	35.08
811.8	34.93
812.0	35.23
812.2	35.03
812.4	34.53
812.6	33.22
812.8	32.52
813.0	32.38
813.2	32.51
813.4	32.34
813.6	31.89
813.8	31.05
814.0	31.39
814.2	31.75
814.4	31.76
814.6	31.71
814.8	30.93
815.0	30.48
815.2	30.27
815.4	29.65
815.6	29.67
815.8	29.56
816.0	29.76
816.2	29.78
816.4	29.42
816.6	29.38
816.8	29.19
817.0	29.32
817.2	29.40
817.4	29.17
817.6	28.08
817.8	27.82
818.0	27.39
818.2	27.33
818.4	26.87
818.6	27.15
818.8	26.61
819.0	26.41
819.2	26.21
819.4	26.32
819.6	26.28
819.8	26.29
820.0	26.58
820.2	26.41
820.4	26.11
820.6	25.87
820.8	25.41
821.0	24.76
821.2	24.65
821.4	24.26
821.6	24.20
821.8	24.09
822.0	24.05
822.2	24.20
822.4	23.81
822.6	22.95
822.8	22.17
823.0	22.01
823.2	21.98
823.4	21.98
823.6	21.74
823.8	21.64
824.0	21.43
824.2	21.77
824.4	21.80
824.6	21.00
824.8	20.83
825.0	20.78
825.2	20.77
825.4	20.64
825.6	20.43
825.8	19.79
826.0	19.59
826.2	19.24
826.4	19.10
826.6	19.24
826.8	19.39
827.0	19.40
827.2	19.14
827.4	19.02
827.6	18.44
827.8	18.32
828.0	18.45
828.2	18.42
828.4	17.94
828.6	17.63
828.8	16.87
829.0	16.57
829.2	16.52
829.4	16.93
829.6	16.76
829.8	16.51
830.0	16.12
830.2	15.50
830.4	15.30
830.6	15.41
830.8	15.07
831.0	15.18
831.2	15.10
831.4	14.88
831.6	15.28
831.8	14.80
832.0	14.13
832.2	13.82
832.4	13.49
832.6	13.56
832.8	13.84
833.0	14.06
833.2	13.81
833.4	13.68
833.6	13.26
833.8	13.25
834.0	13.08
834.2	12.80
834.4	12.57
834.6	12.16
834.8	11.56
835.0	11.63
835.2	11.41
835.4	10.96
835.6	11.42
835.8	11.43
836.0	11.34
836.2	11.53
836.4	11.26
836.6	10.48
836.8	10.12
837.0	9.704
837.2	9.780
837.4	10.14
837.6	10.20
837.8	9.749
838.0	9.827
838.2	10.01
838.4	10.27
838.6	10.31
838.8	9.796
839.0	9.275
839.2	8.975
839.4	8.694
839.6	8.386
839.8	8.402
840.0	8.268
840.2	8.478
840.4	8.387
840.6	8.348
840.8	8.529
841.0	8.684
841.2	8.576
841.4	8.316
841.6	7.914
841.8	7.664
842.0	7.448
842.2	7.384
842.4	7.390
842.6	7.526
842.8	7.803
843.0	7.707
843.2	7.127
843.4	6.796
843.6	6.492
843.8	6.569
844.0	7.042
844.2	7.169
844.4	6.736
844.6	6.537
844.8	6.474
845.0	6.381
845.2	6.566
845.4	6.662
845.6	6.425
845.8	6.147
846.0	6.129
846.2	6.014
846.4	5.963
