Sample:	'20211010A(EM)
File name:	R-CDS-yuan-S2- new.FDS
Run date:	'08:03:06, 03/23/2023
Operator:	Administrator
Comment:	'

Instrument
Model:	F-4700 FL Spectrophotometer
Serial number:	2019-001
ROM Version:	5J24010 00

Instrument parameters
Measurement type:	Wavelength scan
Scan mode:	Emission
Data mode:	Fluorescence
EX WL:	520.0 nm
EM  Start WL:	540.0 nm
EM  End WL:	900.0 nm
Scan speed:	1200 nm/min
Delay:	0.0 s
EX Slit:	10.0 nm
EM Slit:	10.0 nm
PMT Voltage:	570 V
Response:	0.002 s
Corrected spectra:	Off
Shutter control:	On

Processing performed
Savitsky-Golay smoothed
Smoothing order:	3
Number of points:	7
Number of times:	1

Peak integration
Integration method:	Rectangular
Sensitivity:	1
Threshold:	1.000

Peaks
No.	Start(nm)	Apex(nm)	End(nm)	Height(Data)	Valley(nm)	Valley(Data)
1	540.0	618.6	619.4	2176	619.4	2160
2	619.4	621.4	772.0	2192	772.0	17.87
3	772.0	773.0	900.0	19.51	900.0	1.879

Data points
nm	Data
540.0	445.5
540.2	450.8
540.4	453.4
540.6	453.9
540.8	451.3
541.0	453.7
541.2	457.9
541.4	463.1
541.6	465.8
541.8	466.8
542.0	465.0
542.2	462.7
542.4	466.6
542.6	470.2
542.8	473.3
543.0	474.1
543.2	476.5
543.4	475.5
543.6	480.5
543.8	483.5
544.0	487.1
544.2	486.0
544.4	484.0
544.6	482.2
544.8	481.3
545.0	484.3
545.2	489.8
545.4	496.3
545.6	499.9
545.8	503.4
546.0	502.4
546.2	503.6
546.4	503.6
546.6	505.9
546.8	506.3
547.0	508.8
547.2	510.3
547.4	512.8
547.6	512.3
547.8	513.1
548.0	512.5
548.2	514.7
548.4	517.8
548.6	520.8
548.8	523.1
549.0	525.9
549.2	527.6
549.4	529.8
549.6	528.5
549.8	528.3
550.0	530.2
550.2	532.9
550.4	536.2
550.6	538.2
550.8	537.2
551.0	538.6
551.2	540.7
551.4	543.7
551.6	546.5
551.8	547.3
552.0	550.0
552.2	550.9
552.4	553.0
552.6	556.0
552.8	557.7
553.0	557.0
553.2	558.2
553.4	557.4
553.6	561.8
553.8	565.7
554.0	568.2
554.2	569.1
554.4	570.1
554.6	568.5
554.8	572.8
555.0	574.2
555.2	578.4
555.4	582.3
555.6	584.9
555.8	588.0
556.0	591.4
556.2	591.6
556.4	595.2
556.6	595.0
556.8	596.8
557.0	601.7
557.2	603.6
557.4	605.4
557.6	605.8
557.8	603.6
558.0	608.1
558.2	612.1
558.4	615.8
558.6	617.5
558.8	615.1
559.0	616.2
559.2	619.7
559.4	623.6
559.6	626.6
559.8	628.6
560.0	627.5
560.2	630.7
560.4	634.8
560.6	639.5
560.8	643.8
561.0	650.6
561.2	651.9
561.4	653.6
561.6	656.6
561.8	656.5
562.0	656.9
562.2	661.5
562.4	662.4
562.6	665.0
562.8	668.7
563.0	672.1
563.2	673.8
563.4	676.8
563.6	679.7
563.8	683.8
564.0	689.7
564.2	695.3
564.4	697.3
564.6	696.6
564.8	697.3
565.0	698.7
565.2	704.0
565.4	710.5
565.6	715.1
565.8	717.1
566.0	720.2
566.2	723.9
566.4	730.4
566.6	737.7
566.8	739.5
567.0	739.4
567.2	741.5
567.4	745.4
567.6	750.1
567.8	753.0
568.0	755.4
568.2	758.4
568.4	765.2
568.6	772.4
568.8	775.5
569.0	776.0
569.2	780.1
569.4	782.6
569.6	786.8
569.8	791.1
570.0	794.3
570.2	798.5
570.4	805.0
570.6	811.5
570.8	816.3
571.0	822.7
571.2	826.1
571.4	826.4
571.6	828.5
571.8	831.7
572.0	836.1
572.2	843.1
572.4	850.8
572.6	853.7
572.8	858.1
573.0	863.2
573.2	866.4
573.4	868.1
573.6	874.4
573.8	876.6
574.0	881.5
574.2	889.7
574.4	896.5
574.6	901.1
574.8	908.7
575.0	912.8
575.2	918.1
575.4	921.3
575.6	925.2
575.8	928.9
576.0	935.0
576.2	940.3
576.4	950.3
576.6	954.9
576.8	955.5
577.0	958.4
577.2	958.7
577.4	959.7
577.6	968.9
577.8	973.1
578.0	979.2
578.2	989.5
578.4	997.3
578.6	1002
578.8	1008
579.0	1009
579.2	1012
579.4	1019
579.6	1024
579.8	1028
580.0	1034
580.2	1039
580.4	1042
580.6	1048
580.8	1051
581.0	1058
581.2	1066
581.4	1075
581.6	1083
581.8	1091
582.0	1097
582.2	1105
582.4	1107
582.6	1112
582.8	1116
583.0	1124
583.2	1135
583.4	1142
583.6	1145
583.8	1147
584.0	1149
584.2	1154
584.4	1163
584.6	1173
584.8	1177
585.0	1184
585.2	1191
585.4	1198
585.6	1204
585.8	1210
586.0	1211
586.2	1219
586.4	1227
586.6	1235
586.8	1240
587.0	1241
587.2	1246
587.4	1255
587.6	1261
587.8	1269
588.0	1275
588.2	1279
588.4	1286
588.6	1297
588.8	1302
589.0	1311
589.2	1317
589.4	1321
589.6	1326
589.8	1335
590.0	1343
590.2	1353
590.4	1362
590.6	1369
590.8	1373
591.0	1376
591.2	1384
591.4	1389
591.6	1398
591.8	1404
592.0	1411
592.2	1417
592.4	1428
592.6	1432
592.8	1440
593.0	1445
593.2	1455
593.4	1462
593.6	1469
593.8	1473
594.0	1476
594.2	1482
594.4	1492
594.6	1501
594.8	1507
595.0	1512
595.2	1517
595.4	1525
595.6	1534
595.8	1541
596.0	1548
596.2	1554
596.4	1561
596.6	1567
596.8	1575
597.0	1586
597.2	1595
597.4	1600
597.6	1606
597.8	1609
598.0	1618
598.2	1631
598.4	1633
598.6	1642
598.8	1649
599.0	1652
599.2	1659
599.4	1666
599.6	1667
599.8	1681
600.0	1688
600.2	1698
600.4	1708
600.6	1713
600.8	1717
601.0	1720
601.2	1724
601.4	1730
601.6	1741
601.8	1748
602.0	1758
602.2	1764
602.4	1771
602.6	1777
602.8	1785
603.0	1790
603.2	1798
603.4	1803
603.6	1807
603.8	1814
604.0	1821
604.2	1827
604.4	1834
604.6	1839
604.8	1844
605.0	1851
605.2	1865
605.4	1871
605.6	1878
605.8	1885
606.0	1890
606.2	1899
606.4	1909
606.6	1914
606.8	1915
607.0	1920
607.2	1923
607.4	1934
607.6	1940
607.8	1949
608.0	1953
608.2	1961
608.4	1961
608.6	1966
608.8	1969
609.0	1971
609.2	1975
609.4	1981
609.6	1984
609.8	1993
610.0	2004
610.2	2013
610.4	2018
610.6	2021
610.8	2024
611.0	2026
611.2	2036
611.4	2044
611.6	2050
611.8	2053
612.0	2057
612.2	2059
612.4	2066
612.6	2072
612.8	2078
613.0	2081
613.2	2082
613.4	2083
613.6	2085
613.8	2089
614.0	2095
614.2	2105
614.4	2107
614.6	2106
614.8	2105
615.0	2107
615.2	2110
615.4	2120
615.6	2125
615.8	2128
616.0	2127
616.2	2128
616.4	2130
616.6	2136
616.8	2144
617.0	2152
617.2	2156
617.4	2159
617.6	2160
617.8	2160
618.0	2162
618.2	2166
618.4	2169
618.6	2176
618.8	2175
619.0	2168
619.2	2160
619.4	2160
619.6	2160
619.8	2171
620.0	2177
620.2	2182
620.4	2180
620.6	2182
620.8	2185
621.0	2187
621.2	2189
621.4	2192
621.6	2192
621.8	2191
622.0	2184
622.2	2179
622.4	2175
622.6	2173
622.8	2175
623.0	2176
623.2	2173
623.4	2173
623.6	2172
623.8	2172
624.0	2175
624.2	2174
624.4	2173
624.6	2170
624.8	2169
625.0	2170
625.2	2169
625.4	2164
625.6	2165
625.8	2165
626.0	2165
626.2	2164
626.4	2163
626.6	2160
626.8	2165
627.0	2167
627.2	2162
627.4	2152
627.6	2142
627.8	2135
628.0	2129
628.2	2130
628.4	2133
628.6	2128
628.8	2127
629.0	2124
629.2	2113
629.4	2110
629.6	2115
629.8	2113
630.0	2114
630.2	2109
630.4	2093
630.6	2088
630.8	2086
631.0	2083
631.2	2084
631.4	2086
631.6	2084
631.8	2084
632.0	2077
632.2	2064
632.4	2060
632.6	2055
632.8	2053
633.0	2044
633.2	2036
633.4	2026
633.6	2023
633.8	2017
634.0	2010
634.2	2006
634.4	2008
634.6	2010
634.8	2004
635.0	1998
635.2	1990
635.4	1986
635.6	1980
635.8	1973
636.0	1956
636.2	1947
636.4	1941
636.6	1938
636.8	1933
637.0	1925
637.2	1913
637.4	1907
637.6	1899
637.8	1895
638.0	1890
638.2	1882
638.4	1877
638.6	1870
638.8	1864
639.0	1857
639.2	1852
639.4	1847
639.6	1844
639.8	1840
640.0	1834
640.2	1823
640.4	1812
640.6	1799
640.8	1793
641.0	1784
641.2	1776
641.4	1764
641.6	1759
641.8	1753
642.0	1750
642.2	1742
642.4	1735
642.6	1723
642.8	1716
643.0	1710
643.2	1705
643.4	1703
643.6	1697
643.8	1692
644.0	1681
644.2	1672
644.4	1659
644.6	1650
644.8	1641
645.0	1637
645.2	1635
645.4	1628
645.6	1616
645.8	1604
646.0	1590
646.2	1582
646.4	1578
646.6	1568
646.8	1563
647.0	1556
647.2	1553
647.4	1551
647.6	1542
647.8	1529
648.0	1519
648.2	1509
648.4	1502
648.6	1499
648.8	1494
649.0	1487
649.2	1480
649.4	1472
649.6	1462
649.8	1454
650.0	1445
650.2	1438
650.4	1430
650.6	1419
650.8	1410
651.0	1402
651.2	1394
651.4	1393
651.6	1388
651.8	1379
652.0	1369
652.2	1359
652.4	1350
652.6	1348
652.8	1342
653.0	1336
653.2	1331
653.4	1319
653.6	1310
653.8	1303
654.0	1296
654.2	1288
654.4	1283
654.6	1271
654.8	1263
655.0	1254
655.2	1248
655.4	1244
655.6	1238
655.8	1233
656.0	1225
656.2	1215
656.4	1208
656.6	1201
656.8	1189
657.0	1180
657.2	1170
657.4	1167
657.6	1164
657.8	1159
658.0	1153
658.2	1145
658.4	1136
658.6	1133
658.8	1125
659.0	1119
659.2	1113
659.4	1102
659.6	1096
659.8	1087
660.0	1079
660.2	1074
660.4	1067
660.6	1061
660.8	1057
661.0	1051
661.2	1044
661.4	1037
661.6	1027
661.8	1019
662.0	1013
662.2	1006
662.4	1001
662.6	997.2
662.8	993.5
663.0	988.0
663.2	982.6
663.4	972.8
663.6	968.2
663.8	961.2
664.0	955.3
664.2	949.3
664.4	940.8
664.6	935.5
664.8	933.8
665.0	926.4
665.2	918.5
665.4	912.0
665.6	905.2
665.8	905.1
666.0	902.1
666.2	895.3
666.4	886.4
666.6	879.9
666.8	873.2
667.0	869.1
667.2	864.3
667.4	856.7
667.6	849.7
667.8	844.3
668.0	838.4
668.2	835.5
668.4	833.8
668.6	832.8
668.8	828.9
669.0	821.5
669.2	814.2
669.4	808.4
669.6	800.3
669.8	795.0
670.0	790.9
670.2	787.2
670.4	784.3
670.6	780.2
670.8	773.0
671.0	763.4
671.2	757.1
671.4	752.1
671.6	746.1
671.8	742.8
672.0	739.4
672.2	734.5
672.4	731.5
672.6	727.0
672.8	721.6
673.0	715.7
673.2	711.2
673.4	707.4
673.6	703.0
673.8	698.4
674.0	693.2
674.2	686.4
674.4	681.6
674.6	677.1
674.8	672.6
675.0	670.0
675.2	666.9
675.4	660.5
675.6	654.7
675.8	646.6
676.0	639.5
676.2	638.3
676.4	636.6
676.6	634.0
676.8	630.7
677.0	624.2
677.2	618.4
677.4	617.3
677.6	612.6
677.8	608.2
678.0	605.8
678.2	602.9
678.4	599.5
678.6	598.7
678.8	594.7
679.0	589.0
679.2	585.7
679.4	581.7
679.6	577.8
679.8	575.2
680.0	573.2
680.2	570.1
680.4	564.0
680.6	557.5
680.8	552.3
681.0	547.2
681.2	544.2
681.4	543.0
681.6	540.7
681.8	537.3
682.0	535.0
682.2	529.0
682.4	521.0
682.6	516.3
682.8	513.4
683.0	511.7
683.2	509.6
683.4	505.4
683.6	502.5
683.8	498.8
684.0	496.6
684.2	494.5
684.4	491.1
684.6	486.1
684.8	484.9
685.0	480.1
685.2	475.0
685.4	471.5
685.6	468.0
685.8	463.8
686.0	463.8
686.2	461.0
686.4	456.1
686.6	453.5
686.8	451.9
687.0	450.3
687.2	447.7
687.4	443.1
687.6	438.8
687.8	436.2
688.0	435.6
688.2	432.0
688.4	428.0
688.6	423.7
688.8	421.9
689.0	419.1
689.2	417.1
689.4	412.6
689.6	408.8
689.8	406.1
690.0	404.4
690.2	401.7
690.4	398.9
690.6	396.4
690.8	394.1
691.0	392.0
691.2	391.1
691.4	388.5
691.6	386.7
691.8	383.7
692.0	380.2
692.2	375.3
692.4	373.3
692.6	369.8
692.8	369.3
693.0	364.9
693.2	362.4
693.4	360.0
693.6	359.5
693.8	358.4
694.0	358.5
694.2	354.4
694.4	351.3
694.6	347.9
694.8	345.4
695.0	343.9
695.2	342.2
695.4	340.4
695.6	338.6
695.8	337.3
696.0	335.1
696.2	333.2
696.4	329.3
696.6	328.3
696.8	327.0
697.0	323.7
697.2	320.2
697.4	318.3
697.6	316.1
697.8	317.5
698.0	319.1
698.2	315.7
698.4	311.8
698.6	308.2
698.8	304.1
699.0	303.5
699.2	304.5
699.4	303.4
699.6	300.6
699.8	297.8
700.0	295.9
700.2	293.5
700.4	291.2
700.6	288.5
700.8	286.0
701.0	284.2
701.2	284.7
701.4	283.4
701.6	282.0
701.8	279.3
702.0	277.5
702.2	273.8
702.4	273.6
702.6	272.4
702.8	271.7
703.0	268.2
703.2	265.5
703.4	262.1
703.6	261.9
703.8	259.6
704.0	258.3
704.2	256.2
704.4	254.4
704.6	252.9
704.8	252.3
705.0	251.7
705.2	251.4
705.4	249.7
705.6	247.0
705.8	243.4
706.0	241.1
706.2	239.5
706.4	238.8
706.6	237.2
706.8	236.3
707.0	234.8
707.2	234.3
707.4	232.9
707.6	231.4
707.8	228.7
708.0	226.8
708.2	224.7
708.4	223.1
708.6	222.8
708.8	221.9
709.0	219.8
709.2	217.5
709.4	215.3
709.6	215.7
709.8	216.5
710.0	215.9
710.2	213.5
710.4	209.6
710.6	206.5
710.8	205.1
711.0	204.7
711.2	204.0
711.4	202.1
711.6	199.8
711.8	197.6
712.0	196.0
712.2	194.3
712.4	194.3
712.6	192.7
712.8	193.4
713.0	192.8
713.2	192.5
713.4	190.5
713.6	188.4
713.8	185.4
714.0	183.9
714.2	182.5
714.4	182.7
714.6	181.8
714.8	179.5
715.0	178.2
715.2	176.2
715.4	175.1
715.6	174.8
715.8	174.0
716.0	171.4
716.2	169.7
716.4	167.7
716.6	165.2
716.8	163.6
717.0	164.2
717.2	163.0
717.4	163.1
717.6	162.6
717.8	161.4
718.0	158.8
718.2	157.0
718.4	154.3
718.6	153.0
718.8	153.0
719.0	152.5
719.2	150.3
719.4	148.9
719.6	146.6
719.8	144.7
720.0	144.5
720.2	143.3
720.4	142.8
720.6	141.3
720.8	140.3
721.0	138.5
721.2	138.5
721.4	137.1
721.6	136.7
721.8	134.6
722.0	133.2
722.2	131.2
722.4	130.3
722.6	129.1
722.8	128.7
723.0	129.0
723.2	127.8
723.4	126.2
723.6	125.3
723.8	123.9
724.0	123.5
724.2	122.8
724.4	122.3
724.6	121.1
724.8	120.4
725.0	118.5
725.2	116.8
725.4	114.7
725.6	113.7
725.8	113.1
726.0	112.2
726.2	112.1
726.4	111.2
726.6	110.4
726.8	109.9
727.0	109.6
727.2	108.2
727.4	107.6
727.6	106.3
727.8	104.3
728.0	104.1
728.2	103.2
728.4	101.9
728.6	102.0
728.8	101.7
729.0	100.8
729.2	100.3
729.4	99.03
729.6	97.71
729.8	97.47
730.0	96.82
730.2	96.60
730.4	96.09
730.6	94.69
730.8	92.40
731.0	91.26
731.2	89.89
731.4	90.10
731.6	90.09
731.8	89.86
732.0	88.45
732.2	88.62
732.4	87.68
732.6	88.16
732.8	86.04
733.0	84.52
733.2	82.83
733.4	82.14
733.6	81.18
733.8	82.19
734.0	80.82
734.2	80.98
734.4	81.01
734.6	80.37
734.8	78.71
735.0	77.84
735.2	76.64
735.4	76.90
735.6	76.62
735.8	76.87
736.0	76.36
736.2	75.44
736.4	74.79
736.6	74.10
736.8	72.95
737.0	71.97
737.2	70.94
737.4	69.52
737.6	68.56
737.8	68.42
738.0	68.01
738.2	67.83
738.4	67.65
738.6	66.90
738.8	66.15
739.0	66.05
739.2	64.91
739.4	64.71
739.6	64.93
739.8	65.24
740.0	64.63
740.2	63.92
740.4	62.52
740.6	61.81
740.8	61.43
741.0	60.73
741.2	59.97
741.4	59.17
741.6	59.11
741.8	60.01
742.0	59.93
742.2	58.51
742.4	57.36
742.6	55.72
742.8	54.88
743.0	55.50
743.2	56.15
743.4	56.15
743.6	55.83
743.8	55.67
744.0	55.39
744.2	54.22
744.4	53.37
744.6	52.53
744.8	52.01
745.0	52.35
745.2	52.48
745.4	51.89
745.6	51.54
745.8	50.81
746.0	50.15
746.2	49.79
746.4	49.08
746.6	48.35
746.8	47.88
747.0	47.69
747.2	47.95
747.4	48.27
747.6	47.93
747.8	47.22
748.0	46.81
748.2	46.32
748.4	45.62
748.6	44.94
748.8	43.84
749.0	43.35
749.2	43.47
749.4	43.47
749.6	43.07
749.8	42.83
750.0	42.43
750.2	41.71
750.4	41.66
750.6	41.63
750.8	41.46
751.0	41.50
751.2	41.21
751.4	39.53
751.6	39.18
751.8	38.49
752.0	38.37
752.2	38.84
752.4	39.01
752.6	38.56
752.8	38.85
753.0	38.46
753.2	38.56
753.4	38.36
753.6	37.79
753.8	37.92
754.0	38.03
754.2	37.75
754.4	37.94
754.6	36.92
754.8	35.05
755.0	34.96
755.2	34.66
755.4	34.03
755.6	34.18
755.8	33.63
756.0	33.16
756.2	33.42
756.4	33.71
756.6	32.87
756.8	31.94
757.0	32.00
757.2	32.10
757.4	31.92
757.6	32.13
757.8	31.16
758.0	30.10
758.2	30.31
758.4	30.51
758.6	30.30
758.8	30.36
759.0	30.02
759.2	29.64
759.4	29.53
759.6	29.25
759.8	28.85
760.0	28.65
760.2	28.64
760.4	28.39
760.6	28.49
760.8	28.35
761.0	28.00
761.2	27.66
761.4	27.56
761.6	26.83
761.8	26.79
762.0	26.73
762.2	26.32
762.4	25.98
762.6	25.71
762.8	25.07
763.0	25.36
763.2	25.46
763.4	25.53
763.6	25.15
763.8	24.34
764.0	23.94
764.2	23.95
764.4	24.39
764.6	24.28
764.8	23.86
765.0	23.23
765.2	23.60
765.4	23.60
765.6	23.84
765.8	23.65
766.0	23.39
766.2	23.61
766.4	23.41
766.6	22.73
766.8	22.00
767.0	21.90
767.2	21.45
767.4	21.60
767.6	21.66
767.8	21.30
768.0	21.30
768.2	22.01
768.4	22.10
768.6	21.92
768.8	21.43
769.0	20.54
769.2	19.96
769.4	20.01
769.6	20.07
769.8	20.22
770.0	19.66
770.2	19.06
770.4	19.12
770.6	19.12
770.8	19.07
771.0	19.51
771.2	19.46
771.4	18.95
771.6	18.49
771.8	18.31
772.0	17.87
772.2	18.20
772.4	18.78
772.6	19.18
772.8	19.31
773.0	19.51
773.2	18.74
773.4	18.21
773.6	18.03
773.8	17.60
774.0	17.34
774.2	17.56
774.4	17.62
774.6	17.94
774.8	17.78
775.0	17.27
775.2	16.71
775.4	16.36
775.6	16.34
775.8	16.19
776.0	15.56
776.2	15.68
776.4	15.80
776.6	15.50
776.8	15.77
777.0	15.72
777.2	15.59
777.4	15.99
777.6	16.10
777.8	15.59
778.0	15.36
778.2	14.56
778.4	14.23
778.6	14.18
778.8	14.17
779.0	14.28
779.2	14.70
779.4	14.40
779.6	14.66
779.8	14.60
780.0	14.19
780.2	14.22
780.4	14.16
780.6	13.96
780.8	14.31
781.0	14.43
781.2	14.29
781.4	14.06
781.6	13.66
781.8	13.27
782.0	13.79
782.2	13.87
782.4	13.80
782.6	13.63
782.8	13.35
783.0	13.01
783.2	13.02
783.4	12.77
783.6	12.78
783.8	13.17
784.0	13.04
784.2	13.16
784.4	13.11
784.6	12.85
784.8	12.88
785.0	12.93
785.2	12.41
785.4	12.35
785.6	12.46
785.8	12.46
786.0	12.86
786.2	12.93
786.4	12.88
786.6	12.55
786.8	12.17
787.0	12.04
787.2	11.98
787.4	11.98
787.6	11.98
787.8	11.98
788.0	11.82
788.2	11.77
788.4	11.79
788.6	11.94
788.8	11.56
789.0	11.40
789.2	11.13
789.4	11.06
789.6	11.38
789.8	11.59
790.0	11.46
790.2	11.27
790.4	11.30
790.6	11.32
790.8	11.62
791.0	11.88
791.2	11.70
791.4	11.10
791.6	10.76
791.8	10.61
792.0	10.91
792.2	11.08
792.4	11.18
792.6	11.06
792.8	11.10
793.0	11.08
793.2	10.88
793.4	10.52
793.6	10.37
793.8	10.55
794.0	10.54
794.2	10.63
794.4	10.21
794.6	10.05
794.8	9.874
795.0	9.922
795.2	9.947
795.4	10.30
795.6	10.32
795.8	10.04
796.0	9.933
796.2	9.721
796.4	9.820
796.6	9.734
796.8	9.696
797.0	9.374
797.2	9.546
797.4	9.457
797.6	9.510
797.8	9.392
798.0	9.106
798.2	9.012
798.4	9.328
798.6	9.435
798.8	9.360
799.0	9.302
799.2	8.749
799.4	8.481
799.6	8.547
799.8	8.754
800.0	8.686
800.2	8.823
800.4	8.674
800.6	8.897
800.8	8.840
801.0	8.529
801.2	8.085
801.4	8.151
801.6	8.283
801.8	8.530
802.0	8.554
802.2	8.365
802.4	8.246
802.6	8.396
802.8	8.553
803.0	8.243
803.2	8.246
803.4	7.742
803.6	7.535
803.8	7.539
804.0	7.515
804.2	7.545
804.4	8.057
804.6	7.849
804.8	7.895
805.0	7.912
805.2	7.564
805.4	7.237
805.6	7.165
805.8	7.214
806.0	7.250
806.2	7.754
806.4	7.789
806.6	7.740
806.8	7.436
807.0	7.296
807.2	6.984
807.4	7.199
807.6	7.156
807.8	7.041
808.0	7.222
808.2	7.398
808.4	7.310
808.6	7.398
808.8	7.156
809.0	6.717
809.2	6.760
809.4	7.022
809.6	7.004
809.8	7.059
810.0	6.711
810.2	6.577
810.4	6.417
810.6	6.473
810.8	6.519
811.0	6.802
811.2	6.705
811.4	6.667
811.6	6.372
811.8	6.309
812.0	6.212
812.2	6.560
812.4	6.450
812.6	6.025
812.8	5.648
813.0	5.991
813.2	5.979
813.4	6.131
813.6	6.089
813.8	5.772
814.0	5.686
814.2	6.098
814.4	6.097
814.6	6.116
814.8	6.224
815.0	5.834
815.2	5.839
815.4	6.085
815.6	6.002
815.8	6.074
816.0	5.915
816.2	5.217
816.4	5.093
816.6	5.140
816.8	5.184
817.0	5.408
817.2	5.449
817.4	5.483
817.6	5.688
817.8	5.732
818.0	5.828
818.2	5.510
818.4	5.437
818.6	5.495
818.8	5.597
819.0	5.708
819.2	5.801
819.4	5.366
819.6	5.227
819.8	5.094
820.0	5.167
820.2	5.286
820.4	5.292
820.6	4.981
820.8	4.679
821.0	4.609
821.2	4.887
821.4	5.169
821.6	5.478
821.8	5.292
822.0	5.052
822.2	4.979
822.4	4.763
822.6	4.762
822.8	4.949
823.0	4.796
823.2	4.658
823.4	4.510
823.6	4.322
823.8	4.265
824.0	4.326
824.2	4.074
824.4	4.140
824.6	4.153
824.8	4.449
825.0	4.788
825.2	4.886
825.4	4.693
825.6	4.515
825.8	4.388
826.0	4.274
826.2	4.355
826.4	4.297
826.6	4.290
826.8	4.157
827.0	4.243
827.2	4.164
827.4	3.891
827.6	3.783
827.8	3.741
828.0	3.803
828.2	3.887
828.4	4.013
828.6	4.009
828.8	4.043
829.0	3.839
829.2	3.734
829.4	3.852
829.6	3.828
829.8	3.631
830.0	3.484
830.2	3.413
830.4	3.536
830.6	3.861
830.8	3.963
831.0	3.804
831.2	3.752
831.4	3.580
831.6	3.492
831.8	3.589
832.0	3.412
832.2	3.387
832.4	3.420
832.6	3.291
832.8	3.437
833.0	3.669
833.2	3.587
833.4	3.504
833.6	3.309
833.8	3.094
834.0	3.026
834.2	3.273
834.4	3.461
834.6	3.507
834.8	3.337
835.0	3.043
835.2	2.718
835.4	2.768
835.6	2.613
835.8	2.577
836.0	2.700
836.2	2.865
836.4	3.007
836.6	3.083
836.8	3.017
837.0	2.700
837.2	2.514
837.4	2.569
837.6	2.641
837.8	2.699
838.0	2.801
838.2	2.533
838.4	2.358
838.6	2.406
838.8	2.455
839.0	2.558
