Sample:	'20211010A(EM)
File name:	R-CDS-CHO-yuan-S2- new.FDS
Run date:	'08:20:50, 03/23/2023
Operator:	Administrator
Comment:	'

Instrument
Model:	F-4700 FL Spectrophotometer
Serial number:	2019-001
ROM Version:	5J24010 00

Instrument parameters
Measurement type:	Wavelength scan
Scan mode:	Emission
Data mode:	Fluorescence
EX WL:	530.0 nm
EM  Start WL:	550.0 nm
EM  End WL:	900.0 nm
Scan speed:	1200 nm/min
Delay:	0.0 s
EX Slit:	10.0 nm
EM Slit:	10.0 nm
PMT Voltage:	640 V
Response:	0.002 s
Corrected spectra:	Off
Shutter control:	On

Processing performed
Savitsky-Golay smoothed
Smoothing order:	3
Number of points:	7
Number of times:	1

Peak integration
Integration method:	Rectangular
Sensitivity:	1
Threshold:	1.000

Peaks
No.	Start(nm)	Apex(nm)	End(nm)	Height(Data)	Valley(nm)	Valley(Data)
1	550.0	609.4	610.4	6334	610.4	6297
2	610.4	611.8	615.8	6318	615.8	6200
3	615.8	616.8	757.8	6228	757.8	73.92
4	757.8	758.0	770.0	75.73	770.0	46.44
5	770.0	770.6	784.4	48.74	784.4	30.99
6	784.4	785.2	787.6	32.51	787.6	28.87
7	787.6	788.6	790.6	31.08	790.6	28.28
8	790.6	791.2	793.2	30.88	793.2	27.40
9	793.2	794.2	797.0	30.04	797.0	26.28
10	797.0	797.8	798.8	27.68	798.8	26.23
11	798.8	799.8	804.2	27.30	804.2	23.31
12	804.2	804.4	810.0	24.41	810.0	19.27
13	810.0	810.8	812.4	21.45	812.4	18.23
14	812.4	813.0	815.0	19.82	815.0	16.07
15	815.0	815.8	816.4	17.56	816.4	15.21
16	816.4	817.4	818.4	16.52	818.4	15.28
17	818.4	819.0	823.4	16.64	823.4	13.54
18	823.4	823.8	826.8	14.66	826.8	12.13
19	826.8	828.2	829.2	13.33	829.2	11.06
20	829.2	829.8	831.6	12.65	831.6	9.182
21	831.6	833.0	833.8	11.88	833.8	9.587
22	833.8	834.4	836.0	10.61	836.0	9.073
23	836.0	837.0	839.4	10.46	839.4	8.672
24	839.4	839.8	840.6	9.675	840.6	7.853
25	840.6	841.4	847.0	8.932	847.0	6.522
26	847.0	849.0	851.0	7.547	851.0	6.177
27	851.0	853.4	856.8	7.415	856.8	5.931
28	856.8	857.2	858.0	7.208	858.0	5.352
29	858.0	859.8	860.8	7.517	860.8	5.584
30	860.8	861.2	862.8	6.740	862.8	5.360
31	862.8	866.2	876.4	6.901	876.4	5.259
32	876.4	877.4	880.4	6.415	880.4	5.220
33	880.4	881.8	887.4	6.338	887.4	4.935
34	887.4	888.2	894.0	6.608	894.0	4.720
35	894.0	895.8	897.2	6.347	897.2	5.105

Data points
nm	Data
550.0	1359
550.2	1362
550.4	1372
550.6	1383
550.8	1391
551.0	1395
551.2	1395
551.4	1402
551.6	1412
551.8	1421
552.0	1427
552.2	1432
552.4	1439
552.6	1446
552.8	1459
553.0	1474
553.2	1483
553.4	1493
553.6	1495
553.8	1498
554.0	1509
554.2	1521
554.4	1533
554.6	1544
554.8	1551
555.0	1554
555.2	1563
555.4	1569
555.6	1585
555.8	1600
556.0	1609
556.2	1612
556.4	1616
556.6	1623
556.8	1637
557.0	1651
557.2	1668
557.4	1679
557.6	1692
557.8	1708
558.0	1715
558.2	1719
558.4	1731
558.6	1744
558.8	1755
559.0	1774
559.2	1794
559.4	1808
559.6	1822
559.8	1831
560.0	1835
560.2	1842
560.4	1856
560.6	1867
560.8	1884
561.0	1901
561.2	1917
561.4	1932
561.6	1945
561.8	1950
562.0	1957
562.2	1966
562.4	1980
562.6	1999
562.8	2022
563.0	2039
563.2	2051
563.4	2064
563.6	2074
563.8	2091
564.0	2108
564.2	2127
564.4	2149
564.6	2165
564.8	2181
565.0	2198
565.2	2208
565.4	2230
565.6	2252
565.8	2273
566.0	2287
566.2	2302
566.4	2313
566.6	2320
566.8	2338
567.0	2358
567.2	2378
567.4	2404
567.6	2422
567.8	2435
568.0	2461
568.2	2477
568.4	2500
568.6	2518
568.8	2533
569.0	2552
569.2	2577
569.4	2594
569.6	2607
569.8	2622
570.0	2641
570.2	2666
570.4	2693
570.6	2718
570.8	2736
571.0	2754
571.2	2782
571.4	2808
571.6	2832
571.8	2844
572.0	2868
572.2	2887
572.4	2908
572.6	2922
572.8	2952
573.0	2975
573.2	3003
573.4	3021
573.6	3032
573.8	3038
574.0	3060
574.2	3098
574.4	3133
574.6	3168
574.8	3197
575.0	3220
575.2	3233
575.4	3256
575.6	3282
575.8	3307
576.0	3326
576.2	3351
576.4	3366
576.6	3388
576.8	3404
577.0	3428
577.2	3447
577.4	3471
577.6	3498
577.8	3521
578.0	3546
578.2	3591
578.4	3622
578.6	3648
578.8	3673
579.0	3685
579.2	3703
579.4	3738
579.6	3763
579.8	3792
580.0	3826
580.2	3856
580.4	3876
580.6	3897
580.8	3916
581.0	3934
581.2	3956
581.4	3997
581.6	4016
581.8	4035
582.0	4060
582.2	4093
582.4	4112
582.6	4141
582.8	4150
583.0	4163
583.2	4193
583.4	4231
583.6	4259
583.8	4293
584.0	4312
584.2	4333
584.4	4359
584.6	4386
584.8	4402
585.0	4428
585.2	4448
585.4	4475
585.6	4497
585.8	4527
586.0	4536
586.2	4564
586.4	4587
586.6	4619
586.8	4643
587.0	4674
587.2	4700
587.4	4731
587.6	4746
587.8	4783
588.0	4798
588.2	4818
588.4	4838
588.6	4859
588.8	4877
589.0	4906
589.2	4914
589.4	4934
589.6	4953
589.8	4974
590.0	4990
590.2	5012
590.4	5044
590.6	5079
590.8	5113
591.0	5140
591.2	5156
591.4	5173
591.6	5203
591.8	5222
592.0	5239
592.2	5277
592.4	5302
592.6	5320
592.8	5347
593.0	5347
593.2	5340
593.4	5353
593.6	5364
593.8	5388
594.0	5414
594.2	5446
594.4	5480
594.6	5502
594.8	5522
595.0	5539
595.2	5544
595.4	5566
595.6	5594
595.8	5613
596.0	5627
596.2	5646
596.4	5655
596.6	5668
596.8	5679
597.0	5700
597.2	5732
597.4	5758
597.6	5772
597.8	5786
598.0	5789
598.2	5809
598.4	5830
598.6	5827
598.8	5832
599.0	5839
599.2	5849
599.4	5862
599.6	5889
599.8	5906
600.0	5935
600.2	5965
600.4	5977
600.6	5986
600.8	6012
601.0	6012
601.2	6026
601.4	6037
601.6	6037
601.8	6057
602.0	6070
602.2	6085
602.4	6090
602.6	6088
602.8	6092
603.0	6095
603.2	6108
603.4	6132
603.6	6148
603.8	6168
604.0	6175
604.2	6172
604.4	6180
604.6	6171
604.8	6188
605.0	6197
605.2	6195
605.4	6196
605.6	6216
605.8	6232
606.0	6245
606.2	6252
606.4	6250
606.6	6239
606.8	6249
607.0	6273
607.2	6279
607.4	6280
607.6	6280
607.8	6273
608.0	6276
608.2	6302
608.4	6307
608.6	6302
608.8	6313
609.0	6317
609.2	6320
609.4	6334
609.6	6332
609.8	6327
610.0	6317
610.2	6304
610.4	6297
610.6	6304
610.8	6309
611.0	6314
611.2	6317
611.4	6315
611.6	6313
611.8	6318
612.0	6308
612.2	6311
612.4	6310
612.6	6298
612.8	6282
613.0	6288
613.2	6280
613.4	6296
613.6	6294
613.8	6293
614.0	6267
614.2	6263
614.4	6250
614.6	6244
614.8	6230
615.0	6224
615.2	6208
615.4	6210
615.6	6212
615.8	6200
616.0	6200
616.2	6205
616.4	6220
616.6	6221
616.8	6228
617.0	6214
617.2	6204
617.4	6190
617.6	6188
617.8	6179
618.0	6169
618.2	6146
618.4	6122
618.6	6107
618.8	6096
619.0	6082
619.2	6062
619.4	6043
619.6	6026
619.8	6027
620.0	6044
620.2	6048
620.4	6058
620.6	6061
620.8	6036
621.0	6004
621.2	5991
621.4	5957
621.6	5948
621.8	5947
622.0	5937
622.2	5939
622.4	5936
622.6	5910
622.8	5880
623.0	5847
623.2	5824
623.4	5820
623.6	5817
623.8	5806
624.0	5783
624.2	5766
624.4	5753
624.6	5743
624.8	5724
625.0	5697
625.2	5685
625.4	5671
625.6	5664
625.8	5650
626.0	5624
626.2	5610
626.4	5604
626.6	5580
626.8	5565
627.0	5538
627.2	5510
627.4	5504
627.6	5487
627.8	5469
628.0	5448
628.2	5425
628.4	5411
628.6	5395
628.8	5371
629.0	5346
629.2	5328
629.4	5314
629.6	5311
629.8	5282
630.0	5265
630.2	5237
630.4	5229
630.6	5210
630.8	5188
631.0	5155
631.2	5134
631.4	5109
631.6	5101
631.8	5085
632.0	5080
632.2	5072
632.4	5047
632.6	5012
632.8	4986
633.0	4972
633.2	4965
633.4	4948
633.6	4917
633.8	4897
634.0	4867
634.2	4845
634.4	4817
634.6	4781
634.8	4755
635.0	4752
635.2	4735
635.4	4723
635.6	4705
635.8	4685
636.0	4668
636.2	4656
636.4	4630
636.6	4607
636.8	4581
637.0	4565
637.2	4550
637.4	4533
637.6	4504
637.8	4478
638.0	4449
638.2	4424
638.4	4398
638.6	4381
638.8	4362
639.0	4351
639.2	4345
639.4	4320
639.6	4289
639.8	4274
640.0	4251
640.2	4239
640.4	4225
640.6	4193
640.8	4159
641.0	4133
641.2	4109
641.4	4099
641.6	4080
641.8	4066
642.0	4049
642.2	4032
642.4	4008
642.6	3986
642.8	3957
643.0	3934
643.2	3909
643.4	3885
643.6	3855
643.8	3832
644.0	3811
644.2	3795
644.4	3784
644.6	3774
644.8	3757
645.0	3740
645.2	3720
645.4	3694
645.6	3671
645.8	3647
646.0	3624
646.2	3611
646.4	3600
646.6	3579
646.8	3575
647.0	3559
647.2	3537
647.4	3510
647.6	3484
647.8	3459
648.0	3451
648.2	3427
648.4	3401
648.6	3373
648.8	3359
649.0	3344
649.2	3325
649.4	3298
649.6	3269
649.8	3247
650.0	3236
650.2	3220
650.4	3204
650.6	3193
650.8	3176
651.0	3159
651.2	3146
651.4	3132
651.6	3114
651.8	3101
652.0	3083
652.2	3052
652.4	3028
652.6	3004
652.8	2982
653.0	2977
653.2	2971
653.4	2953
653.6	2927
653.8	2904
654.0	2880
654.2	2864
654.4	2851
654.6	2833
654.8	2801
655.0	2789
655.2	2779
655.4	2770
655.6	2765
655.8	2763
656.0	2733
656.2	2708
656.4	2690
656.6	2667
656.8	2651
657.0	2641
657.2	2617
657.4	2606
657.6	2595
657.8	2583
658.0	2562
658.2	2543
658.4	2530
658.6	2515
658.8	2504
659.0	2485
659.2	2459
659.4	2444
659.6	2439
659.8	2429
660.0	2423
660.2	2409
660.4	2386
660.6	2367
660.8	2353
661.0	2341
661.2	2323
661.4	2307
661.6	2280
661.8	2263
662.0	2251
662.2	2245
662.4	2237
662.6	2220
662.8	2208
663.0	2202
663.2	2193
663.4	2178
663.6	2165
663.8	2141
664.0	2133
664.2	2121
664.4	2106
664.6	2089
664.8	2076
665.0	2065
665.2	2056
665.4	2041
665.6	2024
665.8	2007
666.0	1994
666.2	1986
666.4	1971
666.6	1954
666.8	1934
667.0	1918
667.2	1912
667.4	1904
667.6	1891
667.8	1877
668.0	1869
668.2	1863
668.4	1859
668.6	1846
668.8	1830
669.0	1821
669.2	1813
669.4	1796
669.6	1781
669.8	1770
670.0	1751
670.2	1746
670.4	1737
670.6	1720
670.8	1713
671.0	1706
671.2	1690
671.4	1675
671.6	1661
671.8	1648
672.0	1637
672.2	1625
672.4	1621
672.6	1609
672.8	1602
673.0	1593
673.2	1586
673.4	1575
673.6	1571
673.8	1558
674.0	1547
674.2	1531
674.4	1522
674.6	1505
674.8	1496
675.0	1485
675.2	1485
675.4	1479
675.6	1468
675.8	1452
676.0	1438
676.2	1424
676.4	1413
676.6	1407
676.8	1400
677.0	1396
677.2	1389
677.4	1378
677.6	1367
677.8	1363
678.0	1354
678.2	1347
678.4	1340
678.6	1328
678.8	1319
679.0	1309
679.2	1298
679.4	1290
679.6	1280
679.8	1264
680.0	1253
680.2	1244
680.4	1241
680.6	1240
680.8	1236
681.0	1223
681.2	1208
681.4	1193
681.6	1185
681.8	1175
682.0	1172
682.2	1169
682.4	1163
682.6	1156
682.8	1145
683.0	1132
683.2	1122
683.4	1115
683.6	1103
683.8	1095
684.0	1088
684.2	1080
684.4	1077
684.6	1079
684.8	1073
685.0	1065
685.2	1064
685.4	1052
685.6	1041
685.8	1036
686.0	1022
686.2	1006
686.4	1003
686.6	994.6
686.8	992.7
687.0	989.7
687.2	980.7
687.4	967.6
687.6	956.5
687.8	951.7
688.0	950.7
688.2	954.3
688.4	950.3
688.6	937.9
688.8	926.5
689.0	923.8
689.2	919.7
689.4	919.9
689.6	908.4
689.8	898.8
690.0	890.3
690.2	886.0
690.4	878.2
690.6	873.9
690.8	867.1
691.0	861.3
691.2	857.2
691.4	854.2
691.6	846.4
691.8	843.2
692.0	835.4
692.2	829.8
692.4	827.7
692.6	820.2
692.8	814.8
693.0	805.2
693.2	796.8
693.4	794.5
693.6	790.8
693.8	784.0
694.0	782.7
694.2	771.7
694.4	764.0
694.6	761.7
694.8	759.5
695.0	754.3
695.2	751.0
695.4	742.8
695.6	731.1
695.8	728.6
696.0	727.2
696.2	723.2
696.4	721.7
696.6	718.5
696.8	708.0
697.0	698.3
697.2	695.4
697.4	691.1
697.6	689.3
697.8	688.5
698.0	686.9
698.2	682.6
698.4	682.2
698.6	673.0
698.8	660.9
699.0	654.9
699.2	650.5
699.4	646.7
699.6	647.8
699.8	644.2
700.0	643.9
700.2	642.6
700.4	638.4
700.6	630.6
700.8	624.5
701.0	614.9
701.2	616.2
701.4	613.7
701.6	609.9
701.8	601.8
702.0	593.1
702.2	587.4
702.4	586.3
702.6	588.3
702.8	587.0
703.0	585.1
703.2	580.5
703.4	575.9
703.6	570.1
703.8	567.9
704.0	561.7
704.2	556.6
704.4	550.8
704.6	545.5
704.8	543.7
705.0	545.9
705.2	543.5
705.4	539.8
705.6	532.6
705.8	526.8
706.0	519.8
706.2	516.6
706.4	515.9
706.6	514.8
706.8	509.0
707.0	511.3
707.2	512.6
707.4	506.8
707.6	502.2
707.8	494.4
708.0	486.6
708.2	484.7
708.4	486.1
708.6	480.5
708.8	476.0
709.0	474.5
709.2	472.6
709.4	471.8
709.6	471.8
709.8	466.0
710.0	458.2
710.2	448.9
710.4	444.8
710.6	441.7
710.8	442.8
711.0	444.9
711.2	444.4
711.4	437.6
711.6	434.1
711.8	428.1
712.0	425.0
712.2	422.4
712.4	421.1
712.6	419.4
712.8	416.9
713.0	416.2
713.2	412.7
713.4	405.1
713.6	398.0
713.8	393.0
714.0	392.5
714.2	393.5
714.4	395.4
714.6	393.7
714.8	386.3
715.0	381.1
715.2	379.4
715.4	378.8
715.6	378.7
715.8	376.3
716.0	370.0
716.2	366.5
716.4	363.6
716.6	362.1
716.8	361.3
717.0	360.9
717.2	354.4
717.4	348.6
717.6	342.0
717.8	337.9
718.0	339.3
718.2	342.0
718.4	339.7
718.6	338.1
718.8	335.7
719.0	332.5
719.2	330.3
719.4	325.6
719.6	322.3
719.8	319.9
720.0	318.4
720.2	317.2
720.4	316.5
720.6	311.8
720.8	310.3
721.0	304.3
721.2	303.2
721.4	301.0
721.6	298.5
721.8	294.4
722.0	291.0
722.2	285.8
722.4	286.2
722.6	284.4
722.8	285.0
723.0	283.7
723.2	282.8
723.4	279.3
723.6	275.6
723.8	270.7
724.0	268.5
724.2	267.9
724.4	268.5
724.6	267.5
724.8	266.4
725.0	262.0
725.2	258.2
725.4	256.0
725.6	254.0
725.8	253.9
726.0	253.6
726.2	250.0
726.4	246.3
726.6	242.6
726.8	239.4
727.0	238.5
727.2	239.8
727.4	236.2
727.6	234.3
727.8	233.8
728.0	232.5
728.2	230.4
728.4	231.6
728.6	229.7
728.8	228.0
729.0	226.0
729.2	221.7
729.4	217.3
729.6	215.2
729.8	212.3
730.0	211.6
730.2	212.8
730.4	213.8
730.6	215.7
730.8	212.9
731.0	208.5
731.2	203.6
731.4	198.3
731.6	195.6
731.8	194.4
732.0	191.7
732.2	192.4
732.4	194.1
732.6	193.6
732.8	192.3
733.0	189.2
733.2	186.3
733.4	183.6
733.6	182.6
733.8	183.2
734.0	180.9
734.2	180.5
734.4	180.8
734.6	178.0
734.8	174.4
735.0	174.2
735.2	170.9
735.4	170.1
735.6	168.4
735.8	164.7
736.0	164.1
736.2	164.7
736.4	163.6
736.6	165.5
736.8	163.5
737.0	160.1
737.2	161.1
737.4	158.6
737.6	157.2
737.8	158.6
738.0	157.2
738.2	155.3
738.4	154.2
738.6	150.0
738.8	148.9
739.0	149.0
739.2	150.7
739.4	150.0
739.6	148.5
739.8	146.4
740.0	144.9
740.2	141.5
740.4	139.8
740.6	137.9
740.8	136.6
741.0	138.0
741.2	139.2
741.4	138.2
741.6	136.8
741.8	134.6
742.0	129.7
742.2	127.7
742.4	126.4
742.6	126.0
742.8	126.5
743.0	127.4
743.2	125.1
743.4	124.1
743.6	123.9
743.8	122.8
744.0	123.5
744.2	123.9
744.4	122.0
744.6	120.2
744.8	120.8
745.0	119.3
745.2	117.8
745.4	116.9
745.6	115.9
745.8	115.0
746.0	116.7
746.2	114.8
746.4	112.2
746.6	110.9
746.8	109.0
747.0	108.1
747.2	109.6
747.4	108.0
747.6	108.0
747.8	107.3
748.0	108.5
748.2	106.1
748.4	106.3
748.6	105.9
748.8	105.6
749.0	103.6
749.2	103.2
749.4	99.44
749.6	99.64
749.8	99.83
750.0	99.70
750.2	98.92
750.4	97.36
750.6	96.22
750.8	96.36
751.0	95.68
751.2	95.46
751.4	95.66
751.6	95.06
751.8	94.33
752.0	94.03
752.2	92.19
752.4	89.96
752.6	87.97
752.8	86.67
753.0	86.09
753.2	86.68
753.4	88.03
753.6	88.48
753.8	88.04
754.0	86.69
754.2	84.97
754.4	82.91
754.6	83.34
754.8	84.19
755.0	85.70
755.2	85.04
755.4	84.05
755.6	82.14
755.8	80.10
756.0	79.45
756.2	79.41
756.4	78.40
756.6	78.20
756.8	78.61
757.0	76.55
757.2	76.15
757.4	74.98
757.6	74.74
757.8	73.92
758.0	75.73
758.2	74.88
758.4	74.92
758.6	75.09
758.8	74.90
759.0	74.42
759.2	73.61
759.4	71.75
759.6	70.21
759.8	69.03
760.0	67.28
760.2	67.43
760.4	66.97
760.6	67.91
760.8	68.46
761.0	67.94
761.2	66.45
761.4	65.73
761.6	65.01
761.8	64.85
762.0	65.93
762.2	65.51
762.4	63.98
762.6	62.67
762.8	61.53
763.0	60.69
763.2	62.51
763.4	62.69
763.6	60.74
763.8	59.72
764.0	58.29
764.2	57.44
764.4	58.38
764.6	60.00
764.8	60.29
765.0	59.09
765.2	57.43
765.4	56.55
765.6	55.51
765.8	56.10
766.0	56.13
766.2	55.12
766.4	54.96
766.6	54.41
766.8	54.17
767.0	53.88
767.2	53.27
767.4	53.02
767.6	52.71
767.8	53.12
768.0	52.62
768.2	51.30
768.4	50.60
768.6	50.31
768.8	51.10
769.0	51.66
769.2	50.39
769.4	49.01
769.6	47.76
769.8	47.11
770.0	46.44
770.2	46.79
770.4	47.36
770.6	48.74
770.8	48.61
771.0	48.22
771.2	47.66
771.4	47.66
771.6	47.03
771.8	45.62
772.0	43.50
772.2	43.17
772.4	44.48
772.6	45.57
772.8	46.35
773.0	45.22
773.2	43.40
773.4	42.61
773.6	42.90
773.8	43.16
774.0	41.81
774.2	41.22
774.4	40.46
774.6	40.82
774.8	41.80
775.0	41.54
775.2	39.40
775.4	38.37
775.6	38.35
775.8	38.20
776.0	38.75
776.2	38.99
776.4	38.54
776.6	38.08
776.8	38.42
777.0	38.00
777.2	38.26
777.4	38.59
777.6	38.01
777.8	38.49
778.0	37.71
778.2	37.33
778.4	36.88
778.6	37.12
778.8	37.20
779.0	37.78
779.2	36.78
779.4	36.61
779.6	36.09
779.8	36.67
780.0	35.99
780.2	35.22
780.4	34.17
780.6	34.33
780.8	33.89
781.0	35.29
781.2	35.83
781.4	36.42
781.6	35.07
781.8	34.22
782.0	32.62
782.2	32.43
782.4	33.03
782.6	34.05
782.8	33.81
783.0	33.59
783.2	32.66
783.4	32.47
783.6	32.93
783.8	32.24
784.0	32.20
784.2	31.91
784.4	30.99
784.6	31.80
784.8	31.85
785.0	31.57
785.2	32.51
785.4	31.93
785.6	31.25
785.8	31.08
786.0	30.70
786.2	30.99
786.4	31.17
786.6	31.38
786.8	31.23
787.0	30.61
787.2	29.97
787.4	29.23
787.6	28.87
787.8	29.33
788.0	29.98
788.2	30.30
788.4	30.22
788.6	31.08
788.8	30.97
789.0	30.36
789.2	30.10
789.4	29.50
789.6	29.14
789.8	29.50
790.0	29.78
790.2	29.65
790.4	28.60
790.6	28.28
790.8	28.94
791.0	29.69
791.2	30.88
791.4	30.83
791.6	29.81
791.8	29.11
792.0	29.20
792.2	29.81
792.4	30.01
792.6	29.60
792.8	28.90
793.0	28.13
793.2	27.40
793.4	28.33
793.6	28.72
793.8	28.44
794.0	29.62
794.2	30.04
794.4	29.30
794.6	29.06
794.8	28.72
795.0	28.66
795.2	29.75
795.4	29.16
795.6	27.88
795.8	26.24
796.0	26.40
796.2	27.25
796.4	27.74
796.6	27.55
796.8	26.98
797.0	26.28
797.2	26.31
797.4	26.92
797.6	27.45
797.8	27.68
798.0	27.51
798.2	27.52
798.4	26.59
798.6	26.75
798.8	26.23
799.0	26.47
799.2	26.61
799.4	26.89
799.6	27.15
799.8	27.30
800.0	27.25
800.2	27.16
800.4	26.38
800.6	26.14
800.8	26.51
801.0	27.06
801.2	26.27
801.4	26.19
801.6	25.22
801.8	24.54
802.0	24.35
802.2	25.48
802.4	24.47
802.6	25.61
802.8	25.22
803.0	24.45
803.2	24.92
803.4	25.32
803.6	24.21
803.8	24.04
804.0	23.71
804.2	23.31
804.4	24.41
804.6	24.33
804.8	24.18
805.0	24.04
805.2	23.77
805.4	23.37
805.6	23.18
805.8	22.37
806.0	22.41
806.2	22.54
806.4	23.17
806.6	23.13
806.8	22.60
807.0	21.89
807.2	21.77
807.4	21.02
807.6	20.82
807.8	20.40
808.0	19.85
808.2	20.35
808.4	20.84
808.6	20.60
808.8	19.72
809.0	20.14
809.2	19.60
809.4	20.54
809.6	20.87
809.8	20.17
810.0	19.27
810.2	19.60
810.4	19.86
810.6	21.02
810.8	21.45
811.0	20.78
811.2	20.30
811.4	19.64
811.6	19.51
811.8	19.05
812.0	18.31
812.2	18.44
812.4	18.23
812.6	18.51
812.8	19.54
813.0	19.82
813.2	19.60
813.4	18.62
813.6	17.54
813.8	17.38
814.0	17.61
814.2	17.43
814.4	17.08
814.6	16.21
814.8	16.15
815.0	16.07
815.2	16.25
815.4	16.95
815.6	17.20
815.8	17.56
816.0	17.25
816.2	16.30
816.4	15.21
816.6	15.45
816.8	15.42
817.0	15.72
817.2	16.00
817.4	16.52
817.6	16.39
817.8	16.49
818.0	15.61
818.2	15.44
818.4	15.28
818.6	15.90
818.8	16.50
819.0	16.64
819.2	15.61
819.4	15.59
819.6	14.64
819.8	14.54
820.0	14.66
820.2	14.87
820.4	14.48
820.6	15.04
820.8	15.14
821.0	15.16
821.2	14.90
821.4	14.90
821.6	15.07
821.8	15.13
822.0	15.30
822.2	14.88
822.4	14.41
822.6	14.29
822.8	14.20
823.0	13.58
823.2	13.66
823.4	13.54
823.6	13.98
823.8	14.66
824.0	14.65
824.2	14.34
824.4	14.38
824.6	13.81
824.8	13.57
825.0	13.42
825.2	13.36
825.4	13.63
825.6	13.60
825.8	13.53
826.0	13.40
826.2	12.90
826.4	12.50
826.6	12.58
826.8	12.13
827.0	12.23
827.2	12.30
827.4	12.37
827.6	12.62
827.8	13.14
828.0	13.31
828.2	13.33
828.4	12.91
828.6	12.11
828.8	11.40
829.0	11.15
829.2	11.06
829.4	11.80
829.6	12.29
829.8	12.65
830.0	11.96
830.2	11.44
830.4	11.02
830.6	11.29
830.8	11.15
831.0	10.73
831.2	9.788
831.4	9.469
831.6	9.182
831.8	9.596
832.0	9.848
832.2	10.04
832.4	10.45
832.6	11.32
832.8	11.46
833.0	11.88
833.2	11.53
833.4	11.04
