Sample:	'20211010A(EM)
File name:	R-CDS-CHO-100-S2- 20h.FDS
Run date:	'08:05:27, 03/23/2023
Operator:	Administrator
Comment:	'

Instrument
Model:	F-4700 FL Spectrophotometer
Serial number:	2019-001
ROM Version:	5J24010 00

Instrument parameters
Measurement type:	Wavelength scan
Scan mode:	Emission
Data mode:	Fluorescence
EX WL:	530.0 nm
EM  Start WL:	550.0 nm
EM  End WL:	900.0 nm
Scan speed:	1200 nm/min
Delay:	0.0 s
EX Slit:	10.0 nm
EM Slit:	10.0 nm
PMT Voltage:	640 V
Response:	0.002 s
Corrected spectra:	Off
Shutter control:	On

Processing performed
Savitsky-Golay smoothed
Smoothing order:	3
Number of points:	7
Number of times:	1

Peak integration
Integration method:	Rectangular
Sensitivity:	1
Threshold:	1.000

Peaks
No.	Start(nm)	Apex(nm)	End(nm)	Height(Data)	Valley(nm)	Valley(Data)
1	550.0	619.6	620.6	3518	620.6	3490
2	620.6	623.2	624.4	3570	624.4	3555
3	624.4	626.0	626.6	3597	626.6	3570
4	626.6	629.8	782.4	3629	782.4	34.02
5	782.4	783.4	785.0	37.84	785.0	32.47
6	785.0	786.0	789.4	34.43	789.4	30.13
7	789.4	790.0	795.0	32.63	795.0	27.05
8	795.0	796.2	801.0	29.13	801.0	24.48
9	801.0	801.4	802.6	25.71	802.6	23.48
10	802.6	804.4	806.8	24.99	806.8	20.23
11	806.8	808.8	811.0	22.22	811.0	19.02
12	811.0	812.0	820.2	20.15	820.2	13.79
13	820.2	821.6	824.4	15.05	824.4	12.19
14	824.4	825.2	863.0	13.43	863.0	3.946
15	863.0	864.0	874.2	5.452	874.2	3.776
16	874.2	895.4	896.8	5.182	896.8	3.438
17	896.8	897.6	900.0	5.037	900.0	3.875

Data points
nm	Data
550.0	1124
550.2	1130
550.4	1137
550.6	1145
550.8	1157
551.0	1162
551.2	1168
551.4	1176
551.6	1180
551.8	1193
552.0	1205
552.2	1213
552.4	1215
552.6	1222
552.8	1225
553.0	1234
553.2	1238
553.4	1240
553.6	1237
553.8	1245
554.0	1254
554.2	1269
554.4	1278
554.6	1285
554.8	1289
555.0	1295
555.2	1303
555.4	1310
555.6	1312
555.8	1317
556.0	1321
556.2	1329
556.4	1338
556.6	1341
556.8	1347
557.0	1357
557.2	1366
557.4	1377
557.6	1378
557.8	1374
558.0	1375
558.2	1390
558.4	1400
558.6	1408
558.8	1412
559.0	1415
559.2	1414
559.4	1423
559.6	1428
559.8	1431
560.0	1443
560.2	1455
560.4	1464
560.6	1469
560.8	1476
561.0	1475
561.2	1481
561.4	1492
561.6	1500
561.8	1499
562.0	1505
562.2	1503
562.4	1514
562.6	1531
562.8	1547
563.0	1561
563.2	1575
563.4	1568
563.6	1564
563.8	1558
564.0	1556
564.2	1570
564.4	1584
564.6	1587
564.8	1592
565.0	1598
565.2	1603
565.4	1628
565.6	1636
565.8	1640
566.0	1638
566.2	1643
566.4	1651
566.6	1668
566.8	1676
567.0	1681
567.2	1680
567.4	1678
567.6	1682
567.8	1691
568.0	1700
568.2	1709
568.4	1712
568.6	1709
568.8	1715
569.0	1722
569.2	1730
569.4	1742
569.6	1749
569.8	1755
570.0	1763
570.2	1768
570.4	1777
570.6	1788
570.8	1798
571.0	1809
571.2	1818
571.4	1825
571.6	1834
571.8	1842
572.0	1848
572.2	1851
572.4	1856
572.6	1859
572.8	1869
573.0	1878
573.2	1887
573.4	1891
573.6	1895
573.8	1903
574.0	1912
574.2	1918
574.4	1923
574.6	1929
574.8	1934
575.0	1941
575.2	1951
575.4	1949
575.6	1959
575.8	1972
576.0	1977
576.2	1982
576.4	1991
576.6	1993
576.8	2011
577.0	2026
577.2	2029
577.4	2033
577.6	2031
577.8	2037
578.0	2053
578.2	2067
578.4	2074
578.6	2084
578.8	2088
579.0	2098
579.2	2115
579.4	2119
579.6	2124
579.8	2127
580.0	2132
580.2	2139
580.4	2159
580.6	2165
580.8	2178
581.0	2187
581.2	2190
581.4	2198
581.6	2205
581.8	2208
582.0	2214
582.2	2223
582.4	2232
582.6	2246
582.8	2253
583.0	2269
583.2	2279
583.4	2279
583.6	2279
583.8	2285
584.0	2294
584.2	2310
584.4	2324
584.6	2333
584.8	2336
585.0	2341
585.2	2350
585.4	2353
585.6	2362
585.8	2372
586.0	2377
586.2	2385
586.4	2389
586.6	2397
586.8	2407
587.0	2416
587.2	2425
587.4	2437
587.6	2440
587.8	2447
588.0	2450
588.2	2460
588.4	2464
588.6	2476
588.8	2487
589.0	2491
589.2	2491
589.4	2502
589.6	2507
589.8	2519
590.0	2535
590.2	2541
590.4	2549
590.6	2557
590.8	2562
591.0	2575
591.2	2587
591.4	2594
591.6	2609
591.8	2607
592.0	2612
592.2	2620
592.4	2630
592.6	2637
592.8	2647
593.0	2651
593.2	2661
593.4	2669
593.6	2680
593.8	2693
594.0	2705
594.2	2716
594.4	2723
594.6	2720
594.8	2720
595.0	2730
595.2	2736
595.4	2743
595.6	2750
595.8	2760
596.0	2770
596.2	2791
596.4	2806
596.6	2818
596.8	2827
597.0	2833
597.2	2830
597.4	2839
597.6	2841
597.8	2849
598.0	2854
598.2	2857
598.4	2865
598.6	2877
598.8	2879
599.0	2892
599.2	2897
599.4	2908
599.6	2915
599.8	2919
600.0	2916
600.2	2925
600.4	2929
600.6	2934
600.8	2936
601.0	2947
601.2	2960
601.4	2969
601.6	2976
601.8	2978
602.0	2978
602.2	2985
602.4	3004
602.6	3015
602.8	3031
603.0	3040
603.2	3044
603.4	3036
603.6	3040
603.8	3039
604.0	3059
604.2	3083
604.4	3103
604.6	3108
604.8	3109
605.0	3103
605.2	3105
605.4	3107
605.6	3106
605.8	3106
606.0	3109
606.2	3122
606.4	3133
606.6	3143
606.8	3160
607.0	3165
607.2	3168
607.4	3176
607.6	3185
607.8	3194
608.0	3213
608.2	3217
608.4	3211
608.6	3212
608.8	3213
609.0	3218
609.2	3227
609.4	3231
609.6	3235
609.8	3241
610.0	3246
610.2	3253
610.4	3251
610.6	3252
610.8	3256
611.0	3258
611.2	3270
611.4	3282
611.6	3290
611.8	3299
612.0	3304
612.2	3311
612.4	3316
612.6	3332
612.8	3340
613.0	3344
613.2	3345
613.4	3344
613.6	3334
613.8	3341
614.0	3341
614.2	3349
614.4	3359
614.6	3371
614.8	3383
615.0	3389
615.2	3389
615.4	3390
615.6	3393
615.8	3390
616.0	3398
616.2	3404
616.4	3415
616.6	3437
616.8	3443
617.0	3442
617.2	3449
617.4	3450
617.6	3455
617.8	3463
618.0	3461
618.2	3460
618.4	3468
618.6	3467
618.8	3468
619.0	3475
619.2	3492
619.4	3497
619.6	3518
619.8	3517
620.0	3498
620.2	3493
620.4	3490
620.6	3490
620.8	3510
621.0	3516
621.2	3511
621.4	3520
621.6	3523
621.8	3524
622.0	3537
622.2	3542
622.4	3542
622.6	3553
622.8	3559
623.0	3567
623.2	3570
623.4	3564
623.6	3558
623.8	3557
624.0	3564
624.2	3562
624.4	3555
624.6	3560
624.8	3566
625.0	3571
625.2	3587
625.4	3585
625.6	3586
625.8	3593
626.0	3597
626.2	3584
626.4	3574
626.6	3570
626.8	3572
627.0	3587
627.2	3596
627.4	3592
627.6	3582
627.8	3584
628.0	3590
628.2	3600
628.4	3599
628.6	3602
628.8	3593
629.0	3595
629.2	3599
629.4	3608
629.6	3616
629.8	3629
630.0	3621
630.2	3612
630.4	3602
630.6	3603
630.8	3601
631.0	3606
631.2	3599
631.4	3599
631.6	3594
631.8	3595
632.0	3586
632.2	3587
632.4	3588
632.6	3592
632.8	3593
633.0	3590
633.2	3584
633.4	3578
633.6	3569
633.8	3562
634.0	3562
634.2	3560
634.4	3560
634.6	3570
634.8	3565
635.0	3563
635.2	3560
635.4	3556
635.6	3551
635.8	3548
636.0	3540
636.2	3534
636.4	3528
636.6	3526
636.8	3520
637.0	3510
637.2	3506
637.4	3506
637.6	3503
637.8	3504
638.0	3502
638.2	3503
638.4	3500
638.6	3496
638.8	3489
639.0	3484
639.2	3476
639.4	3472
639.6	3461
639.8	3451
640.0	3446
640.2	3441
640.4	3434
640.6	3427
640.8	3418
641.0	3413
641.2	3414
641.4	3406
641.6	3401
641.8	3397
642.0	3401
642.2	3387
642.4	3383
642.6	3356
642.8	3335
643.0	3332
643.2	3338
643.4	3338
643.6	3347
643.8	3328
644.0	3312
644.2	3301
644.4	3284
644.6	3276
644.8	3268
645.0	3251
645.2	3241
645.4	3231
645.6	3228
645.8	3233
646.0	3235
646.2	3231
646.4	3222
646.6	3210
646.8	3199
647.0	3190
647.2	3177
647.4	3172
647.6	3162
647.8	3146
648.0	3143
648.2	3142
648.4	3140
648.6	3134
648.8	3119
649.0	3091
649.2	3084
649.4	3080
649.6	3082
649.8	3066
650.0	3054
650.2	3034
650.4	3033
650.6	3026
650.8	3012
651.0	2996
651.2	2989
651.4	2977
651.6	2976
651.8	2962
652.0	2936
652.2	2919
652.4	2912
652.6	2906
652.8	2904
653.0	2892
653.2	2874
653.4	2845
653.6	2831
653.8	2822
654.0	2815
654.2	2809
654.4	2811
654.6	2802
654.8	2799
655.0	2783
655.2	2760
655.4	2742
655.6	2732
655.8	2731
656.0	2727
656.2	2715
656.4	2698
656.6	2679
656.8	2661
657.0	2646
657.2	2637
657.4	2635
657.6	2628
657.8	2611
658.0	2593
658.2	2574
658.4	2558
658.6	2550
658.8	2543
659.0	2525
659.2	2513
659.4	2500
659.6	2491
659.8	2479
660.0	2473
660.2	2459
660.4	2447
660.6	2435
660.8	2424
661.0	2408
661.2	2402
661.4	2386
661.6	2372
661.8	2363
662.0	2353
662.2	2343
662.4	2335
662.6	2315
662.8	2290
663.0	2278
663.2	2263
663.4	2256
663.6	2248
663.8	2235
664.0	2219
664.2	2206
664.4	2185
664.6	2179
664.8	2178
665.0	2174
665.2	2171
665.4	2151
665.6	2131
665.8	2118
666.0	2108
666.2	2102
666.4	2091
666.6	2075
666.8	2062
667.0	2048
667.2	2034
667.4	2024
667.6	2013
667.8	2004
668.0	1993
668.2	1978
668.4	1965
668.6	1944
668.8	1927
669.0	1915
669.2	1905
669.4	1892
669.6	1883
669.8	1869
670.0	1859
670.2	1856
670.4	1853
670.6	1848
670.8	1831
671.0	1816
671.2	1807
671.4	1799
671.6	1794
671.8	1791
672.0	1772
672.2	1757
672.4	1741
672.6	1724
672.8	1712
673.0	1706
673.2	1694
673.4	1688
673.6	1688
673.8	1681
674.0	1675
674.2	1663
674.4	1642
674.6	1630
674.8	1624
675.0	1615
675.2	1606
675.4	1593
675.6	1572
675.8	1556
676.0	1537
676.2	1532
676.4	1525
676.6	1524
676.8	1518
677.0	1508
677.2	1494
677.4	1487
677.6	1470
677.8	1461
678.0	1447
678.2	1440
678.4	1432
678.6	1429
678.8	1418
679.0	1415
679.2	1403
679.4	1396
679.6	1385
679.8	1377
680.0	1368
680.2	1364
680.4	1355
680.6	1340
680.8	1327
681.0	1317
681.2	1305
681.4	1294
681.6	1285
681.8	1274
682.0	1267
682.2	1266
682.4	1266
682.6	1259
682.8	1248
683.0	1229
683.2	1220
683.4	1212
683.6	1208
683.8	1207
684.0	1200
684.2	1193
684.4	1190
684.6	1177
684.8	1159
685.0	1150
685.2	1138
685.4	1134
685.6	1132
685.8	1125
686.0	1116
686.2	1105
686.4	1096
686.6	1093
686.8	1087
687.0	1082
687.2	1072
687.4	1062
687.6	1053
687.8	1048
688.0	1040
688.2	1035
688.4	1028
688.6	1024
688.8	1014
689.0	1009
689.2	1003
689.4	992.9
689.6	981.1
689.8	976.8
690.0	975.5
690.2	975.7
690.4	972.5
690.6	959.3
690.8	947.4
691.0	939.3
691.2	936.5
691.4	931.2
691.6	922.8
691.8	918.6
692.0	915.9
692.2	919.3
692.4	915.3
692.6	908.8
692.8	898.1
693.0	892.5
693.2	880.6
693.4	875.8
693.6	867.1
693.8	862.3
694.0	859.0
694.2	858.0
694.4	853.1
694.6	850.1
694.8	845.9
695.0	838.8
695.2	830.6
695.4	824.5
695.6	815.3
695.8	811.5
696.0	809.9
696.2	807.1
696.4	803.1
696.6	800.0
696.8	792.1
697.0	787.7
697.2	783.9
697.4	776.2
697.6	773.7
697.8	771.6
698.0	764.0
698.2	757.6
698.4	754.6
698.6	745.1
698.8	743.2
699.0	742.4
699.2	738.9
699.4	738.2
699.6	735.8
699.8	724.7
700.0	716.7
700.2	709.9
700.4	710.2
700.6	709.7
700.8	705.7
701.0	703.4
701.2	694.5
701.4	687.3
701.6	685.6
701.8	679.5
702.0	678.2
702.2	679.7
702.4	673.1
702.6	668.6
702.8	663.6
703.0	660.2
703.2	659.9
703.4	657.4
703.6	649.2
703.8	643.4
704.0	632.7
704.2	630.1
704.4	631.0
704.6	632.4
704.8	631.0
705.0	629.2
705.2	617.5
705.4	613.8
705.6	607.0
705.8	600.3
706.0	596.6
706.2	594.6
706.4	593.2
706.6	597.1
706.8	594.7
707.0	588.6
707.2	586.6
707.4	582.1
707.6	576.0
707.8	572.6
708.0	570.0
708.2	564.6
708.4	561.7
708.6	557.1
708.8	549.5
709.0	544.9
709.2	546.8
709.4	544.6
709.6	542.8
709.8	537.3
710.0	531.9
710.2	525.9
710.4	523.4
710.6	520.4
710.8	519.0
711.0	515.7
711.2	517.2
711.4	514.3
711.6	506.3
711.8	503.6
712.0	502.9
712.2	498.9
712.4	496.3
712.6	490.9
712.8	484.7
713.0	484.0
713.2	483.2
713.4	477.1
713.6	472.1
713.8	469.2
714.0	466.0
714.2	464.5
714.4	462.9
714.6	456.9
714.8	453.5
715.0	451.3
715.2	450.2
715.4	445.1
715.6	444.8
715.8	440.7
716.0	437.4
716.2	433.0
716.4	429.6
716.6	423.0
716.8	420.4
717.0	419.4
717.2	422.6
717.4	419.5
717.6	414.3
717.8	409.3
718.0	402.3
718.2	400.5
718.4	401.7
718.6	398.4
718.8	395.7
719.0	390.8
719.2	387.6
719.4	385.1
719.6	382.4
719.8	382.5
720.0	380.5
720.2	378.9
720.4	377.3
720.6	372.4
720.8	369.3
721.0	366.7
721.2	362.4
721.4	360.3
721.6	356.5
721.8	354.7
722.0	355.2
722.2	356.3
722.4	351.7
722.6	347.6
722.8	341.8
723.0	336.1
723.2	329.4
723.4	328.6
723.6	325.3
723.8	327.1
724.0	326.7
724.2	326.5
724.4	322.9
724.6	321.0
724.8	320.4
725.0	316.8
725.2	311.4
725.4	309.6
725.6	305.7
725.8	301.1
726.0	299.2
726.2	296.2
726.4	291.8
726.6	291.1
726.8	290.0
727.0	287.9
727.2	287.0
727.4	286.0
727.6	280.8
727.8	277.0
728.0	272.7
728.2	270.8
728.4	270.7
728.6	270.2
728.8	270.5
729.0	269.7
729.2	267.2
729.4	264.8
729.6	264.0
729.8	262.5
730.0	259.9
730.2	257.7
730.4	256.6
730.6	255.1
730.8	256.6
731.0	254.0
731.2	245.0
731.4	238.6
731.6	235.7
731.8	233.7
732.0	235.7
732.2	236.0
732.4	237.6
732.6	236.9
732.8	235.7
733.0	231.7
733.2	230.1
733.4	226.7
733.6	226.3
733.8	223.7
734.0	221.4
734.2	218.1
734.4	215.7
734.6	213.7
734.8	212.4
735.0	212.4
735.2	211.9
735.4	209.5
735.6	208.0
735.8	207.1
736.0	204.4
736.2	203.4
736.4	200.9
736.6	199.5
736.8	199.6
737.0	198.3
737.2	196.2
737.4	194.4
737.6	189.8
737.8	186.7
738.0	184.7
738.2	182.8
738.4	184.7
738.6	184.1
738.8	183.3
739.0	181.6
739.2	181.0
739.4	178.9
739.6	178.0
739.8	175.8
740.0	174.7
740.2	171.8
740.4	169.9
740.6	168.1
740.8	165.5
741.0	165.2
741.2	164.7
741.4	162.5
741.6	163.3
741.8	162.9
742.0	161.8
742.2	160.8
742.4	159.4
742.6	154.7
742.8	154.1
743.0	152.5
743.2	153.1
743.4	153.8
743.6	153.9
743.8	151.4
744.0	149.1
744.2	146.3
744.4	144.3
744.6	142.2
744.8	140.3
745.0	139.8
745.2	138.2
745.4	140.3
745.6	139.7
745.8	138.9
746.0	137.7
746.2	134.6
746.4	131.8
746.6	131.5
746.8	131.0
747.0	132.3
747.2	133.1
747.4	132.5
747.6	130.5
747.8	127.6
748.0	125.3
748.2	123.3
748.4	122.8
748.6	123.3
748.8	123.2
749.0	123.2
749.2	121.7
749.4	118.8
749.6	117.2
749.8	115.2
750.0	116.0
750.2	116.2
750.4	115.7
750.6	114.1
750.8	112.9
751.0	111.3
751.2	113.0
751.4	111.1
751.6	109.2
751.8	109.2
752.0	107.9
752.2	106.0
752.4	106.1
752.6	104.9
752.8	104.4
753.0	105.3
753.2	104.6
753.4	103.4
753.6	102.9
753.8	102.9
754.0	100.6
754.2	98.50
754.4	96.66
754.6	97.65
754.8	97.78
755.0	98.72
755.2	98.63
755.4	98.01
755.6	96.69
755.8	95.81
756.0	93.15
756.2	91.92
756.4	92.44
756.6	92.52
756.8	93.28
757.0	92.43
757.2	91.27
757.4	88.96
757.6	86.37
757.8	85.30
758.0	85.43
758.2	84.57
758.4	85.10
758.6	83.12
758.8	82.34
759.0	81.99
759.2	81.49
759.4	80.02
759.6	78.58
759.8	77.58
760.0	79.77
760.2	81.10
760.4	81.09
760.6	80.36
760.8	77.66
761.0	76.80
761.2	76.80
761.4	77.22
761.6	77.50
761.8	77.32
762.0	77.41
762.2	76.57
762.4	74.44
762.6	73.97
762.8	74.63
763.0	73.91
763.2	74.61
763.4	72.91
763.6	70.51
763.8	70.58
764.0	69.55
764.2	69.31
764.4	68.28
764.6	66.99
764.8	65.80
765.0	66.14
765.2	65.53
765.4	66.46
765.6	65.15
765.8	64.50
766.0	63.83
766.2	63.51
766.4	64.21
766.6	65.08
766.8	64.56
767.0	63.50
767.2	62.32
767.4	60.26
767.6	59.75
767.8	60.38
768.0	60.29
768.2	59.63
768.4	59.73
768.6	59.42
768.8	59.24
769.0	59.47
769.2	58.25
769.4	56.49
769.6	55.49
769.8	53.89
770.0	53.80
770.2	53.46
770.4	52.89
770.6	52.93
770.8	53.93
771.0	54.38
771.2	54.65
771.4	53.02
771.6	51.07
771.8	49.54
772.0	49.65
772.2	51.88
772.4	51.66
772.6	50.38
772.8	49.55
773.0	48.52
773.2	48.11
773.4	48.46
773.6	46.94
773.8	46.75
774.0	47.17
774.2	47.29
774.4	47.54
774.6	47.30
774.8	47.57
775.0	47.41
775.2	46.30
775.4	45.33
775.6	45.61
775.8	44.42
776.0	45.79
776.2	44.50
776.4	43.90
776.6	44.27
776.8	45.27
777.0	44.21
777.2	44.60
777.4	42.86
777.6	42.40
777.8	41.12
778.0	41.96
778.2	42.29
778.4	42.91
778.6	42.53
778.8	41.77
779.0	40.70
779.2	41.32
779.4	41.97
779.6	42.63
779.8	41.99
780.0	40.70
780.2	39.81
780.4	39.64
780.6	40.38
780.8	39.90
781.0	39.09
781.2	38.26
781.4	38.25
781.6	38.60
781.8	38.36
782.0	37.23
782.2	35.98
782.4	34.02
782.6	34.60
782.8	36.07
783.0	36.87
783.2	37.72
783.4	37.84
783.6	36.48
783.8	35.55
784.0	35.59
784.2	35.77
784.4	35.14
784.6	34.80
784.8	33.90
785.0	32.47
785.2	32.75
785.4	33.75
785.6	33.45
785.8	34.38
786.0	34.43
786.2	34.28
786.4	34.37
786.6	34.00
786.8	33.42
787.0	33.67
787.2	33.11
787.4	33.30
787.6	33.04
787.8	32.22
788.0	31.80
788.2	31.20
788.4	31.13
788.6	31.55
788.8	31.29
789.0	30.97
789.2	30.80
789.4	30.13
789.6	30.51
789.8	31.88
790.0	32.63
790.2	32.51
790.4	32.19
790.6	31.82
790.8	31.61
791.0	31.57
791.2	31.78
791.4	30.61
791.6	29.69
791.8	29.82
792.0	30.32
792.2	29.80
792.4	29.95
792.6	29.51
792.8	29.58
793.0	29.33
793.2	29.33
793.4	29.60
793.6	29.43
793.8	29.31
794.0	29.99
794.2	29.47
794.4	28.38
794.6	27.97
794.8	27.20
795.0	27.05
795.2	27.21
795.4	27.46
795.6	27.86
795.8	28.17
796.0	28.28
796.2	29.13
796.4	28.46
796.6	27.44
796.8	26.96
797.0	25.85
797.2	25.68
797.4	26.63
797.6	26.07
797.8	26.13
798.0	26.49
798.2	26.39
798.4	26.22
798.6	26.16
798.8	25.82
799.0	26.38
799.2	26.70
799.4	26.16
799.6	25.10
799.8	24.57
800.0	25.05
800.2	25.74
800.4	25.48
800.6	24.90
800.8	24.65
801.0	24.48
801.2	25.08
801.4	25.71
801.6	25.49
801.8	25.17
802.0	24.78
802.2	24.00
802.4	23.51
802.6	23.48
802.8	23.86
803.0	23.82
803.2	24.17
803.4	24.41
803.6	24.50
803.8	24.32
804.0	24.94
804.2	24.69
804.4	24.99
804.6	24.82
804.8	24.37
805.0	23.09
805.2	22.20
805.4	21.90
805.6	22.14
805.8	22.55
806.0	23.27
806.2	22.82
806.4	21.78
806.6	20.97
806.8	20.23
807.0	20.29
807.2	21.18
807.4	21.63
807.6	21.54
807.8	20.97
808.0	20.53
808.2	20.46
808.4	21.31
808.6	22.11
808.8	22.22
809.0	22.06
809.2	21.04
809.4	20.68
809.6	20.42
809.8	20.55
810.0	20.65
810.2	20.44
810.4	19.85
810.6	19.81
810.8	19.35
811.0	19.02
811.2	19.07
811.4	19.04
811.6	19.44
811.8	19.37
812.0	20.15
812.2	19.84
812.4	19.13
812.6	19.33
812.8	19.32
813.0	19.06
813.2	19.58
813.4	18.95
813.6	18.07
813.8	17.70
814.0	17.36
814.2	17.57
814.4	17.54
814.6	17.22
814.8	17.16
815.0	17.29
815.2	17.53
815.4	17.70
815.6	17.28
815.8	17.21
816.0	17.54
816.2	18.12
816.4	18.05
816.6	17.42
816.8	16.75
817.0	17.09
817.2	17.13
817.4	17.06
817.6	17.28
817.8	17.05
818.0	16.90
818.2	16.90
818.4	16.62
818.6	16.28
818.8	16.48
819.0	16.29
819.2	16.13
819.4	15.57
819.6	15.43
819.8	14.59
820.0	13.97
820.2	13.79
820.4	14.07
820.6	14.01
820.8	14.62
821.0	14.40
821.2	14.43
821.4	14.77
821.6	15.05
821.8	14.74
822.0	14.60
822.2	14.36
822.4	14.02
822.6	13.87
822.8	13.80
823.0	13.81
823.2	13.97
823.4	14.25
823.6	13.45
823.8	12.71
824.0	12.29
824.2	12.22
824.4	12.19
824.6	12.99
824.8	13.15
825.0	13.29
825.2	13.43
825.4	13.31
825.6	12.68
825.8	12.31
826.0	12.06
826.2	11.80
826.4	11.78
826.6	11.71
826.8	12.07
827.0	11.88
827.2	11.93
827.4	11.71
827.6	11.51
827.8	11.03
828.0	11.12
828.2	11.30
828.4	11.49
828.6	11.05
828.8	10.76
829.0	10.45
829.2	10.49
829.4	10.70
829.6	10.71
829.8	10.45
830.0	10.24
830.2	10.44
830.4	10.64
830.6	10.53
830.8	10.60
831.0	10.83
831.2	10.65
831.4	10.65
831.6	10.39
831.8	9.955
832.0	9.903
832.2	10.01
832.4	10.09
832.6	9.616
832.8	9.354
833.0	9.014
833.2	9.117
833.4	9.267
833.6	9.494
833.8	9.028
834.0	8.628
834.2	8.395
834.4	8.262
834.6	8.576
834.8	8.645
835.0	8.854
835.2	8.550
835.4	8.033
835.6	7.659
835.8	7.715
836.0	7.858
836.2	8.347
836.4	8.340
836.6	8.222
836.8	8.069
837.0	7.839
837.2	7.693
837.4	7.576
837.6	7.227
837.8	7.438
838.0	7.169
838.2	7.341
838.4	7.178
838.6	7.246
838.8	7.004
839.0	7.140
839.2	7.102
839.4	6.875
839.6	6.774
839.8	7.057
840.0	6.853
840.2	6.833
840.4	6.890
840.6	6.517
840.8	6.906
841.0	6.975
841.2	6.773
841.4	6.314
841.6	6.220
841.8	6.124
842.0	6.871
842.2	6.714
842.4	6.722
842.6	6.237
842.8	6.339
843.0	6.483
843.2	6.670
843.4	6.309
843.6	6.223
843.8	5.889
844.0	5.924
844.2	6.036
844.4	5.820
844.6	6.142
