Sample:	'20211010A(EM)
File name:	R-CDS-CHO-300-S2- 20h.FDS
Run date:	'08:07:29, 03/23/2023
Operator:	Administrator
Comment:	'

Instrument
Model:	F-4700 FL Spectrophotometer
Serial number:	2019-001
ROM Version:	5J24010 00

Instrument parameters
Measurement type:	Wavelength scan
Scan mode:	Emission
Data mode:	Fluorescence
EX WL:	530.0 nm
EM  Start WL:	550.0 nm
EM  End WL:	900.0 nm
Scan speed:	1200 nm/min
Delay:	0.0 s
EX Slit:	10.0 nm
EM Slit:	10.0 nm
PMT Voltage:	640 V
Response:	0.002 s
Corrected spectra:	Off
Shutter control:	On

Processing performed
Savitsky-Golay smoothed
Smoothing order:	3
Number of points:	7
Number of times:	1

Peak integration
Integration method:	Rectangular
Sensitivity:	1
Threshold:	1.000

Peaks
No.	Start(nm)	Apex(nm)	End(nm)	Height(Data)	Valley(nm)	Valley(Data)
1	550.0	620.0	620.8	3663	620.8	3640
2	620.8	623.6	625.4	3740	625.4	3709
3	625.4	626.4	627.8	3770	627.8	3753
4	627.8	629.4	631.2	3774	631.2	3744
5	631.2	633.4	636.2	3778	636.2	3717
6	636.2	636.6	782.6	3734	782.6	36.68
7	782.6	783.2	786.0	38.58	786.0	34.22
8	786.0	787.0	792.8	36.34	792.8	29.62
9	792.8	794.0	795.0	31.75	795.0	27.86
10	795.0	796.0	797.6	30.63	797.6	28.30
11	797.6	798.4	800.8	29.76	800.8	26.55
12	800.8	801.2	802.0	27.81	802.0	24.84
13	802.0	803.6	805.8	26.50	805.8	23.64
14	805.8	807.6	815.6	25.34	815.6	16.91
15	815.6	817.0	820.2	18.78	820.2	14.15
16	820.2	821.2	821.6	15.51	821.6	14.36
17	821.6	823.2	830.0	16.18	830.0	10.10
18	830.0	830.6	838.8	11.35	838.8	7.361
19	838.8	839.4	851.6	8.617	851.6	4.772
20	851.6	853.6	856.4	6.267	856.4	4.966
21	856.4	860.2	862.6	6.427	862.6	4.596
22	862.6	865.6	867.8	5.899	867.8	4.682
23	867.8	871.2	882.4	6.101	882.4	4.362
24	882.4	884.6	885.4	6.193	885.4	4.631
25	885.4	889.6	900.0	5.746	900.0	4.324

Data points
nm	Data
550.0	1096
550.2	1099
550.4	1107
550.6	1118
550.8	1122
551.0	1126
551.2	1127
551.4	1129
551.6	1143
551.8	1156
552.0	1160
552.2	1163
552.4	1164
552.6	1169
552.8	1180
553.0	1191
553.2	1197
553.4	1201
553.6	1202
553.8	1207
554.0	1217
554.2	1229
554.4	1237
554.6	1244
554.8	1246
555.0	1252
555.2	1260
555.4	1273
555.6	1274
555.8	1277
556.0	1281
556.2	1285
556.4	1289
556.6	1295
556.8	1299
557.0	1302
557.2	1312
557.4	1320
557.6	1333
557.8	1341
558.0	1351
558.2	1358
558.4	1362
558.6	1367
558.8	1372
559.0	1378
559.2	1386
559.4	1399
559.6	1407
559.8	1411
560.0	1414
560.2	1420
560.4	1424
560.6	1425
560.8	1430
561.0	1428
561.2	1435
561.4	1443
561.6	1447
561.8	1452
562.0	1458
562.2	1461
562.4	1472
562.6	1483
562.8	1498
563.0	1509
563.2	1517
563.4	1521
563.6	1524
563.8	1529
564.0	1538
564.2	1546
564.4	1553
564.6	1554
564.8	1558
565.0	1567
565.2	1580
565.4	1590
565.6	1598
565.8	1598
566.0	1605
566.2	1618
566.4	1628
566.6	1632
566.8	1641
567.0	1644
567.2	1646
567.4	1658
567.6	1666
567.8	1670
568.0	1679
568.2	1686
568.4	1694
568.6	1714
568.8	1724
569.0	1725
569.2	1735
569.4	1735
569.6	1744
569.8	1754
570.0	1758
570.2	1762
570.4	1772
570.6	1781
570.8	1793
571.0	1803
571.2	1817
571.4	1822
571.6	1825
571.8	1839
572.0	1847
572.2	1856
572.4	1871
572.6	1874
572.8	1881
573.0	1893
573.2	1904
573.4	1906
573.6	1913
573.8	1915
574.0	1918
574.2	1923
574.4	1928
574.6	1939
574.8	1953
575.0	1971
575.2	1978
575.4	1980
575.6	1982
575.8	1989
576.0	2001
576.2	2015
576.4	2028
576.6	2040
576.8	2047
577.0	2053
577.2	2069
577.4	2073
577.6	2085
577.8	2089
578.0	2089
578.2	2089
578.4	2100
578.6	2109
578.8	2121
579.0	2126
579.2	2133
579.4	2145
579.6	2161
579.8	2176
580.0	2186
580.2	2202
580.4	2205
580.6	2222
580.8	2226
581.0	2225
581.2	2226
581.4	2236
581.6	2242
581.8	2258
582.0	2264
582.2	2268
582.4	2276
582.6	2283
582.8	2295
583.0	2310
583.2	2323
583.4	2335
583.6	2338
583.8	2337
584.0	2347
584.2	2361
584.4	2376
584.6	2386
584.8	2392
585.0	2393
585.2	2401
585.4	2413
585.6	2419
585.8	2422
586.0	2424
586.2	2427
586.4	2434
586.6	2454
586.8	2477
587.0	2493
587.2	2497
587.4	2502
587.6	2501
587.8	2512
588.0	2526
588.2	2534
588.4	2546
588.6	2553
588.8	2556
589.0	2556
589.2	2564
589.4	2574
589.6	2586
589.8	2600
590.0	2608
590.2	2612
590.4	2623
590.6	2631
590.8	2640
591.0	2660
591.2	2666
591.4	2667
591.6	2675
591.8	2680
592.0	2693
592.2	2713
592.4	2726
592.6	2725
592.8	2734
593.0	2732
593.2	2736
593.4	2751
593.6	2771
593.8	2779
594.0	2794
594.2	2803
594.4	2805
594.6	2813
594.8	2819
595.0	2821
595.2	2829
595.4	2843
595.6	2847
595.8	2850
596.0	2854
596.2	2857
596.4	2867
596.6	2889
596.8	2910
597.0	2930
597.2	2937
597.4	2931
597.6	2929
597.8	2933
598.0	2942
598.2	2958
598.4	2961
598.6	2968
598.8	2981
599.0	2996
599.2	3009
599.4	3014
599.6	3014
599.8	3012
600.0	3006
600.2	3016
600.4	3030
600.6	3045
600.8	3058
601.0	3067
601.2	3063
601.4	3065
601.6	3074
601.8	3081
602.0	3087
602.2	3104
602.4	3113
602.6	3115
602.8	3123
603.0	3121
603.2	3123
603.4	3144
603.6	3160
603.8	3173
604.0	3177
604.2	3170
604.4	3167
604.6	3180
604.8	3191
605.0	3205
605.2	3212
605.4	3216
605.6	3225
605.8	3229
606.0	3233
606.2	3240
606.4	3243
606.6	3257
606.8	3277
607.0	3285
607.2	3291
607.4	3293
607.6	3299
607.8	3314
608.0	3322
608.2	3325
608.4	3333
608.6	3335
608.8	3341
609.0	3345
609.2	3350
609.4	3348
609.6	3365
609.8	3363
610.0	3369
610.2	3371
610.4	3375
610.6	3379
610.8	3392
611.0	3405
611.2	3411
611.4	3414
611.6	3416
611.8	3422
612.0	3419
612.2	3432
612.4	3429
612.6	3437
612.8	3458
613.0	3475
613.2	3486
613.4	3494
613.6	3493
613.8	3489
614.0	3491
614.2	3493
614.4	3505
614.6	3518
614.8	3526
615.0	3524
615.2	3520
615.4	3522
615.6	3532
615.8	3544
616.0	3556
616.2	3554
616.4	3552
616.6	3557
616.8	3562
617.0	3561
617.2	3576
617.4	3581
617.6	3590
617.8	3598
618.0	3608
618.2	3609
618.4	3615
618.6	3618
618.8	3626
619.0	3621
619.2	3630
619.4	3641
619.6	3646
619.8	3659
620.0	3663
620.2	3660
620.4	3662
620.6	3651
620.8	3640
621.0	3648
621.2	3652
621.4	3667
621.6	3671
621.8	3660
622.0	3659
622.2	3667
622.4	3675
622.6	3685
622.8	3689
623.0	3697
623.2	3717
623.4	3733
623.6	3740
623.8	3734
624.0	3725
624.2	3722
624.4	3727
624.6	3735
624.8	3733
625.0	3722
625.2	3716
625.4	3709
625.6	3713
625.8	3726
626.0	3736
626.2	3752
626.4	3770
626.6	3762
626.8	3769
627.0	3768
627.2	3762
627.4	3759
627.6	3763
627.8	3753
628.0	3760
628.2	3766
628.4	3764
628.6	3754
628.8	3755
629.0	3762
629.2	3771
629.4	3774
629.6	3771
629.8	3755
630.0	3750
630.2	3753
630.4	3757
630.6	3759
630.8	3754
631.0	3748
631.2	3744
631.4	3757
631.6	3766
631.8	3768
632.0	3759
632.2	3754
632.4	3752
632.6	3752
632.8	3766
633.0	3772
633.2	3777
633.4	3778
633.6	3764
633.8	3748
634.0	3749
634.2	3743
634.4	3751
634.6	3744
634.8	3739
635.0	3737
635.2	3730
635.4	3725
635.6	3723
635.8	3719
636.0	3726
636.2	3717
636.4	3722
636.6	3734
636.8	3727
637.0	3720
637.2	3707
637.4	3687
637.6	3669
637.8	3671
638.0	3667
638.2	3665
638.4	3668
638.6	3670
638.8	3653
639.0	3651
639.2	3644
639.4	3645
639.6	3642
639.8	3634
640.0	3623
640.2	3609
640.4	3606
640.6	3603
640.8	3601
641.0	3599
641.2	3601
641.4	3593
641.6	3590
641.8	3577
642.0	3573
642.2	3567
642.4	3564
642.6	3553
642.8	3538
643.0	3524
643.2	3508
643.4	3502
643.6	3497
643.8	3488
644.0	3485
644.2	3481
644.4	3473
644.6	3472
644.8	3467
645.0	3456
645.2	3448
645.4	3434
645.6	3421
645.8	3414
646.0	3418
646.2	3416
646.4	3406
646.6	3388
646.8	3367
647.0	3350
647.2	3340
647.4	3333
647.6	3320
647.8	3313
648.0	3306
648.2	3299
648.4	3287
648.6	3284
648.8	3269
649.0	3258
649.2	3240
649.4	3230
649.6	3229
649.8	3228
650.0	3222
650.2	3206
650.4	3182
650.6	3167
650.8	3166
651.0	3156
651.2	3158
651.4	3151
651.6	3133
651.8	3125
652.0	3108
652.2	3090
652.4	3080
652.6	3070
652.8	3057
653.0	3051
653.2	3033
653.4	3018
653.6	3001
653.8	2982
654.0	2973
654.2	2963
654.4	2961
654.6	2960
654.8	2955
655.0	2939
655.2	2921
655.4	2901
655.6	2888
655.8	2874
656.0	2861
656.2	2850
656.4	2842
656.6	2833
656.8	2827
657.0	2809
657.2	2786
657.4	2771
657.6	2761
657.8	2748
658.0	2744
658.2	2724
658.4	2705
658.6	2690
658.8	2680
659.0	2672
659.2	2663
659.4	2649
659.6	2635
659.8	2623
660.0	2614
660.2	2598
660.4	2582
660.6	2571
660.8	2560
661.0	2556
661.2	2549
661.4	2532
661.6	2506
661.8	2486
662.0	2466
662.2	2453
662.4	2453
662.6	2448
662.8	2430
663.0	2419
663.2	2401
663.4	2386
663.6	2385
663.8	2374
664.0	2361
664.2	2342
664.4	2319
664.6	2303
664.8	2289
665.0	2280
665.2	2277
665.4	2275
665.6	2266
665.8	2254
666.0	2229
666.2	2209
666.4	2194
666.6	2192
666.8	2186
667.0	2179
667.2	2165
667.4	2150
667.6	2137
667.8	2118
668.0	2099
668.2	2086
668.4	2068
668.6	2062
668.8	2057
669.0	2046
669.2	2037
669.4	2035
669.6	2022
669.8	2008
670.0	1987
670.2	1966
670.4	1953
670.6	1948
670.8	1934
671.0	1917
671.2	1905
671.4	1890
671.6	1879
671.8	1873
672.0	1858
672.2	1848
672.4	1835
672.6	1822
672.8	1809
673.0	1805
673.2	1795
673.4	1780
673.6	1771
673.8	1767
674.0	1757
674.2	1748
674.4	1733
674.6	1712
674.8	1702
675.0	1687
675.2	1676
675.4	1667
675.6	1659
675.8	1651
676.0	1643
676.2	1629
676.4	1617
676.6	1608
676.8	1600
677.0	1591
677.2	1588
677.4	1582
677.6	1569
677.8	1554
678.0	1538
678.2	1523
678.4	1511
678.6	1498
678.8	1489
679.0	1479
679.2	1472
679.4	1470
679.6	1456
679.8	1446
680.0	1440
680.2	1425
680.4	1418
680.6	1415
680.8	1396
681.0	1388
681.2	1383
681.4	1367
681.6	1365
681.8	1359
682.0	1346
682.2	1337
682.4	1331
682.6	1317
682.8	1307
683.0	1295
683.2	1289
683.4	1281
683.6	1282
683.8	1273
684.0	1260
684.2	1247
684.4	1242
684.6	1235
684.8	1225
685.0	1218
685.2	1209
685.4	1199
685.6	1195
685.8	1193
686.0	1184
686.2	1175
686.4	1166
686.6	1159
686.8	1150
687.0	1140
687.2	1131
687.4	1116
687.6	1111
687.8	1110
688.0	1107
688.2	1102
688.4	1095
688.6	1086
688.8	1085
689.0	1074
689.2	1066
689.4	1054
689.6	1038
689.8	1022
690.0	1020
690.2	1016
690.4	1016
690.6	1012
690.8	1004
691.0	989.4
691.2	985.9
691.4	981.1
691.6	976.1
691.8	969.4
692.0	967.4
692.2	960.1
692.4	954.0
692.6	944.3
692.8	935.1
693.0	929.6
693.2	930.2
693.4	933.3
693.6	927.4
693.8	917.0
694.0	908.6
694.2	900.6
694.4	893.0
694.6	889.0
694.8	882.7
695.0	879.0
695.2	879.3
695.4	875.2
695.6	871.4
695.8	865.0
696.0	855.8
696.2	848.3
696.4	841.2
696.6	835.9
696.8	831.7
697.0	827.4
697.2	823.7
697.4	821.1
697.6	819.5
697.8	818.4
698.0	814.5
698.2	808.1
698.4	801.2
698.6	792.1
698.8	783.6
699.0	778.4
699.2	773.9
699.4	770.6
699.6	771.1
699.8	767.6
700.0	761.0
700.2	756.3
700.4	749.3
700.6	745.4
700.8	749.2
701.0	742.3
701.2	731.3
701.4	724.3
701.6	716.7
701.8	714.4
702.0	713.8
702.2	708.8
702.4	705.3
702.6	702.9
702.8	701.1
703.0	696.2
703.2	689.1
703.4	685.7
703.6	680.7
703.8	678.0
704.0	679.4
704.2	674.1
704.4	671.7
704.6	669.0
704.8	662.4
705.0	657.2
705.2	652.1
705.4	645.8
705.6	640.2
705.8	635.6
706.0	627.9
706.2	622.5
706.4	620.8
706.6	620.5
706.8	618.1
707.0	617.7
707.2	611.7
707.4	606.1
707.6	604.8
707.8	605.7
708.0	602.8
708.2	601.1
708.4	594.2
708.6	585.2
708.8	578.8
709.0	576.8
709.2	573.3
709.4	570.7
709.6	565.3
709.8	559.4
710.0	556.4
710.2	556.8
710.4	556.8
710.6	552.5
710.8	546.8
711.0	539.5
711.2	538.9
711.4	539.1
711.6	541.7
711.8	539.3
712.0	533.0
712.2	526.8
712.4	523.2
712.6	517.9
712.8	517.2
713.0	510.8
713.2	502.8
713.4	498.1
713.6	495.8
713.8	493.6
714.0	494.1
714.2	490.7
714.4	484.1
714.6	478.3
714.8	473.3
715.0	469.4
715.2	467.4
715.4	470.7
715.6	470.2
715.8	467.4
716.0	462.8
716.2	457.0
716.4	451.1
716.6	450.7
716.8	447.8
717.0	444.9
717.2	442.5
717.4	436.8
717.6	432.1
717.8	430.0
718.0	429.6
718.2	430.7
718.4	428.9
718.6	424.4
718.8	418.3
719.0	412.9
719.2	411.3
719.4	411.0
719.6	405.2
719.8	401.5
720.0	397.5
720.2	393.6
720.4	393.0
720.6	392.4
720.8	386.9
721.0	379.7
721.2	379.2
721.4	376.3
721.6	374.5
721.8	374.3
722.0	371.1
722.2	366.9
722.4	368.3
722.6	364.8
722.8	362.3
723.0	361.4
723.2	357.6
723.4	354.4
723.6	352.7
723.8	352.0
724.0	351.4
724.2	347.3
724.4	341.3
724.6	332.2
724.8	328.4
725.0	328.1
725.2	327.2
725.4	324.4
725.6	322.3
725.8	319.1
726.0	316.2
726.2	316.6
726.4	311.9
726.6	308.8
726.8	309.0
727.0	307.6
727.2	303.3
727.4	301.9
727.6	298.4
727.8	295.7
728.0	297.7
728.2	297.4
728.4	293.7
728.6	290.2
728.8	287.4
729.0	280.9
729.2	278.2
729.4	277.3
729.6	272.8
729.8	274.0
730.0	273.2
730.2	272.9
730.4	269.9
730.6	266.4
730.8	261.5
731.0	260.5
731.2	257.7
731.4	257.2
731.6	254.8
731.8	250.6
732.0	248.8
732.2	249.9
732.4	249.0
732.6	248.9
732.8	246.2
733.0	242.2
733.2	238.4
733.4	236.1
733.6	231.9
733.8	232.8
734.0	231.0
734.2	232.5
734.4	230.1
734.6	226.3
734.8	222.5
735.0	218.7
735.2	216.0
735.4	217.0
735.6	215.9
735.8	215.5
736.0	216.8
736.2	212.9
736.4	211.3
736.6	209.3
736.8	208.3
737.0	207.9
737.2	208.1
737.4	204.1
737.6	201.3
737.8	195.5
738.0	193.2
738.2	194.4
738.4	196.0
738.6	195.3
738.8	195.5
739.0	190.5
739.2	186.7
739.4	186.0
739.6	185.6
739.8	185.5
740.0	184.2
740.2	180.7
740.4	178.8
740.6	177.0
740.8	176.4
741.0	174.2
741.2	172.7
741.4	169.9
741.6	169.0
741.8	168.0
742.0	167.8
742.2	165.8
742.4	166.2
742.6	166.6
742.8	167.5
743.0	166.6
743.2	164.2
743.4	161.7
743.6	158.0
743.8	157.0
744.0	156.7
744.2	156.1
744.4	154.6
744.6	154.4
744.8	152.0
745.0	150.5
745.2	149.3
745.4	149.3
745.6	147.0
745.8	144.7
746.0	144.0
746.2	144.2
746.4	145.5
746.6	146.4
746.8	143.7
747.0	138.6
747.2	134.7
747.4	132.6
747.6	132.4
747.8	132.8
748.0	132.4
748.2	129.9
748.4	127.6
748.6	127.6
748.8	129.3
749.0	128.8
749.2	128.9
749.4	126.6
749.6	124.2
749.8	123.2
750.0	123.0
750.2	122.0
750.4	123.3
750.6	122.3
750.8	121.8
751.0	120.1
751.2	119.3
751.4	117.9
751.6	115.7
751.8	113.5
752.0	113.8
752.2	112.5
752.4	112.3
752.6	111.1
752.8	110.8
753.0	110.2
753.2	110.6
753.4	109.3
753.6	108.9
753.8	106.9
754.0	107.3
754.2	105.0
754.4	103.2
754.6	102.0
754.8	103.5
755.0	102.9
755.2	102.6
755.4	100.7
755.6	99.83
755.8	99.38
756.0	99.51
756.2	99.26
756.4	97.29
756.6	96.54
756.8	96.06
757.0	95.37
757.2	95.76
757.4	96.48
757.6	95.18
757.8	95.48
758.0	93.02
758.2	90.92
758.4	89.23
758.6	88.87
758.8	88.89
759.0	90.12
759.2	90.41
759.4	90.62
759.6	87.74
759.8	86.08
760.0	85.85
760.2	83.82
760.4	83.75
760.6	82.62
760.8	81.96
761.0	81.12
761.2	81.43
761.4	79.96
761.6	79.78
761.8	78.93
762.0	79.59
762.2	78.44
762.4	77.72
762.6	76.70
762.8	75.40
763.0	74.54
763.2	74.50
763.4	75.80
763.6	76.17
763.8	76.11
764.0	74.18
764.2	72.41
764.4	70.54
764.6	71.16
764.8	70.70
765.0	70.08
765.2	69.25
765.4	67.26
765.6	66.66
765.8	68.25
766.0	69.32
766.2	68.95
766.4	68.07
766.6	65.02
766.8	63.96
767.0	63.50
767.2	63.81
767.4	64.25
767.6	63.39
767.8	63.72
768.0	63.29
768.2	62.48
768.4	61.31
768.6	59.85
768.8	57.37
769.0	57.60
769.2	57.65
769.4	58.86
769.6	58.54
769.8	58.18
770.0	56.72
770.2	56.01
770.4	56.00
770.6	55.76
770.8	56.04
771.0	56.19
771.2	54.66
771.4	54.39
771.6	55.25
771.8	54.58
772.0	55.84
772.2	54.72
772.4	53.35
772.6	53.50
772.8	53.89
773.0	52.27
773.2	52.17
773.4	50.44
773.6	49.51
773.8	50.18
774.0	50.82
774.2	50.27
774.4	50.59
774.6	49.53
774.8	48.86
775.0	48.85
775.2	49.60
775.4	49.81
775.6	49.69
775.8	49.14
776.0	48.68
776.2	47.54
776.4	47.48
776.6	46.59
776.8	44.71
777.0	43.95
777.2	43.58
777.4	43.14
777.6	44.33
777.8	45.01
778.0	44.39
778.2	43.45
778.4	42.99
778.6	43.35
778.8	43.77
779.0	44.01
779.2	43.35
779.4	42.23
779.6	41.68
779.8	42.01
780.0	41.82
780.2	40.91
780.4	40.63
780.6	39.92
780.8	39.77
781.0	39.50
781.2	39.81
781.4	39.34
781.6	39.79
781.8	39.62
782.0	39.12
782.2	37.85
782.4	37.37
782.6	36.68
782.8	37.57
783.0	38.39
783.2	38.58
783.4	38.26
783.6	37.88
783.8	36.88
784.0	36.69
784.2	36.59
784.4	36.64
784.6	36.77
784.8	36.86
785.0	37.17
785.2	37.14
785.4	36.74
785.6	35.38
785.8	35.01
786.0	34.22
786.2	34.81
786.4	35.57
786.6	35.95
786.8	36.29
787.0	36.34
787.2	34.94
787.4	34.16
787.6	33.79
787.8	33.23
788.0	33.95
788.2	34.52
788.4	33.36
788.6	32.76
788.8	32.79
789.0	32.15
789.2	33.71
789.4	34.29
789.6	33.48
789.8	32.43
790.0	32.48
790.2	32.00
790.4	33.27
790.6	33.12
790.8	32.42
791.0	31.62
791.2	31.99
791.4	31.91
791.6	31.92
791.8	32.61
792.0	31.84
792.2	31.67
792.4	31.29
792.6	30.76
792.8	29.62
793.0	30.22
793.2	30.49
793.4	31.31
793.6	31.39
793.8	31.61
794.0	31.75
794.2	31.41
794.4	30.93
794.6	30.42
794.8	28.92
795.0	27.86
795.2	28.42
795.4	28.66
795.6	29.52
795.8	30.58
796.0	30.63
796.2	30.33
796.4	30.37
796.6	30.07
796.8	30.06
797.0	29.79
797.2	29.24
797.4	28.76
797.6	28.30
797.8	28.45
798.0	28.87
798.2	29.25
798.4	29.76
798.6	29.51
798.8	28.60
799.0	28.00
799.2	27.60
799.4	26.96
799.6	26.87
799.8	26.70
800.0	26.76
800.2	26.88
800.4	27.16
800.6	26.79
800.8	26.55
801.0	27.22
801.2	27.81
801.4	27.33
801.6	26.67
801.8	25.73
802.0	24.84
802.2	25.55
802.4	26.24
802.6	26.03
802.8	25.77
803.0	25.23
803.2	25.22
803.4	25.81
803.6	26.50
803.8	25.76
804.0	25.67
804.2	24.43
804.4	24.34
804.6	24.26
804.8	24.20
805.0	23.85
805.2	24.01
805.4	23.72
805.6	23.69
805.8	23.64
806.0	23.80
806.2	23.77
806.4	24.28
806.6	24.70
806.8	24.50
807.0	24.67
807.2	24.70
807.4	24.77
807.6	25.34
807.8	24.88
808.0	23.87
808.2	22.86
808.4	21.63
808.6	21.93
808.8	21.78
809.0	21.74
809.2	22.16
809.4	21.90
809.6	21.43
809.8	21.88
810.0	21.48
810.2	20.99
810.4	21.51
810.6	21.60
810.8	20.95
811.0	21.19
811.2	20.66
811.4	20.13
811.6	19.96
811.8	20.24
812.0	20.42
812.2	21.04
812.4	20.42
812.6	20.06
812.8	19.93
813.0	19.83
813.2	20.76
813.4	20.27
813.6	19.65
813.8	18.70
814.0	18.63
814.2	18.89
814.4	19.55
814.6	19.25
814.8	19.11
815.0	18.59
815.2	18.34
815.4	17.75
815.6	16.91
815.8	17.16
816.0	17.04
816.2	17.75
816.4	18.32
816.6	18.42
816.8	18.19
817.0	18.78
817.2	17.78
817.4	17.47
817.6	16.62
817.8	16.67
818.0	16.81
818.2	16.78
818.4	16.13
818.6	16.19
818.8	16.00
819.0	16.56
819.2	16.69
819.4	16.47
819.6	15.33
819.8	14.97
820.0	14.79
820.2	14.15
820.4	14.30
820.6	14.94
820.8	14.68
821.0	15.31
821.2	15.51
821.4	14.65
821.6	14.36
821.8	14.47
822.0	14.47
822.2	14.72
822.4	15.30
822.6	15.58
822.8	15.56
823.0	15.93
823.2	16.18
823.4	15.81
823.6	15.33
823.8	14.87
824.0	14.36
824.2	14.16
824.4	14.33
824.6	14.21
824.8	13.88
825.0	13.85
825.2	13.49
825.4	13.41
825.6	13.26
825.8	13.15
826.0	12.89
826.2	12.84
826.4	12.60
826.6	12.82
826.8	12.58
827.0	12.33
827.2	12.07
827.4	11.81
827.6	12.09
827.8	12.40
828.0	12.36
828.2	12.07
828.4	11.46
828.6	11.24
828.8	11.47
829.0	11.82
829.2	12.02
829.4	11.56
829.6	10.76
829.8	10.16
830.0	10.10
830.2	10.38
830.4	10.82
830.6	11.35
830.8	11.20
831.0	10.64
831.2	10.49
831.4	10.09
831.6	10.49
831.8	10.97
832.0	11.00
832.2	10.82
832.4	10.49
832.6	9.964
832.8	10.08
833.0	10.01
833.2	9.753
833.4	9.497
833.6	9.353
833.8	9.591
834.0	9.950
834.2	10.29
834.4	9.819
834.6	9.315
834.8	9.472
835.0	9.685
835.2	9.674
835.4	9.492
835.6	9.141
835.8	8.669
836.0	8.857
836.2	8.996
836.4	9.272
836.6	9.303
836.8	9.246
837.0	9.107
837.2	9.297
837.4	9.147
837.6	9.054
837.8	9.065
838.0	8.759
838.2	8.276
838.4	8.121
838.6	7.886
838.8	7.361
839.0	7.903
839.2	8.401
839.4	8.617
839.6	8.515
839.8	8.517
840.0	7.808
