Sample:	'20211010A(EM)
File name:	R-Ni-CDS-CHO-600-S2- 20h.FDS
Run date:	'09:11:09, 03/23/2023
Operator:	Administrator
Comment:	'

Instrument
Model:	F-4700 FL Spectrophotometer
Serial number:	2019-001
ROM Version:	5J24010 00

Instrument parameters
Measurement type:	Wavelength scan
Scan mode:	Emission
Data mode:	Fluorescence
EX WL:	530.0 nm
EM  Start WL:	550.0 nm
EM  End WL:	900.0 nm
Scan speed:	1200 nm/min
Delay:	0.0 s
EX Slit:	10.0 nm
EM Slit:	10.0 nm
PMT Voltage:	660 V
Response:	0.002 s
Corrected spectra:	Off
Shutter control:	On

Processing performed
Savitsky-Golay smoothed
Smoothing order:	3
Number of points:	7
Number of times:	1

Peak integration
Integration method:	Rectangular
Sensitivity:	1
Threshold:	1.000

Peaks
No.	Start(nm)	Apex(nm)	End(nm)	Height(Data)	Valley(nm)	Valley(Data)
1	550.0	613.4	614.2	2107	614.2	2072
2	614.2	618.4	619.0	2119	619.0	2090
3	619.0	620.0	623.6	2109	623.6	2075
4	623.6	624.2	625.2	2095	625.2	2061
5	625.2	626.0	629.2	2081	629.2	2008
6	629.2	630.6	740.4	2021	740.4	113.4
7	740.4	741.2	751.4	116.4	751.4	81.45
8	751.4	752.0	769.4	84.11	769.4	44.18
9	769.4	770.6	775.4	46.36	775.4	36.57
10	775.4	776.8	777.4	38.17	777.4	35.41
11	777.4	778.0	778.8	37.70	778.8	34.62
12	778.8	779.6	788.4	36.69	788.4	26.83
13	788.4	788.8	790.8	28.36	790.8	25.71
14	790.8	791.6	793.8	27.42	793.8	23.82
15	793.8	794.6	798.2	27.48	798.2	23.86
16	798.2	799.0	800.4	25.42	800.4	21.96
17	800.4	801.0	801.8	23.99	801.8	20.70
18	801.8	802.8	806.2	23.55	806.2	19.78
19	806.2	807.0	808.4	21.57	808.4	18.39
20	808.4	809.0	812.4	21.25	812.4	16.67
21	812.4	813.0	813.8	20.10	813.8	17.09
22	813.8	815.0	816.8	18.38	816.8	14.64
23	816.8	817.4	819.2	17.59	819.2	15.75
24	819.2	819.8	821.6	17.62	821.6	14.44
25	821.6	823.4	825.4	16.19	825.4	12.95
26	825.4	826.2	835.2	14.27	835.2	9.166
27	835.2	836.2	837.2	10.88	837.2	8.310
28	837.2	839.8	844.8	10.29	844.8	6.892
29	844.8	845.8	850.6	8.008	850.6	6.036
30	850.6	852.8	855.6	7.208	855.6	5.021
31	855.6	857.2	859.2	6.492	859.2	4.470
32	859.2	859.8	860.6	6.258	860.6	5.059
33	860.6	861.0	862.4	6.194	862.4	5.105
34	862.4	863.0	864.6	6.273	864.6	5.100
35	864.6	866.4	867.2	6.264	867.2	5.002
36	867.2	869.4	873.6	6.534	873.6	4.819
37	873.6	875.4	876.2	5.869	876.2	4.721
38	876.2	878.4	880.8	6.172	880.8	4.542
39	880.8	881.4	883.4	6.309	883.4	4.409
40	883.4	885.4	893.4	6.116	893.4	4.552
41	893.4	896.2	900.0	6.399	900.0	5.105

Data points
nm	Data
550.0	286.6
550.2	291.0
550.4	292.0
550.6	291.5
550.8	292.0
551.0	294.5
551.2	298.6
551.4	302.1
551.6	305.4
551.8	307.4
552.0	307.5
552.2	312.2
552.4	314.3
552.6	316.6
552.8	319.6
553.0	319.7
553.2	320.4
553.4	325.2
553.6	328.1
553.8	332.5
554.0	335.2
554.2	335.4
554.4	337.4
554.6	340.6
554.8	343.2
555.0	347.8
555.2	348.9
555.4	350.7
555.6	352.9
555.8	354.1
556.0	355.2
556.2	359.7
556.4	361.2
556.6	365.6
556.8	368.7
557.0	370.6
557.2	375.3
557.4	377.3
557.6	380.7
557.8	383.4
558.0	385.4
558.2	391.0
558.4	397.1
558.6	401.0
558.8	405.1
559.0	406.4
559.2	410.9
559.4	412.8
559.6	411.1
559.8	412.3
560.0	411.5
560.2	414.6
560.4	424.8
560.6	432.7
560.8	438.3
561.0	441.8
561.2	446.0
561.4	450.2
561.6	458.2
561.8	460.0
562.0	461.4
562.2	461.8
562.4	464.7
562.6	467.9
562.8	475.1
563.0	479.8
563.2	485.8
563.4	493.0
563.6	500.9
563.8	505.2
564.0	511.0
564.2	514.5
564.4	510.8
564.6	510.1
564.8	515.4
565.0	522.6
565.2	533.5
565.4	537.5
565.6	539.2
565.8	543.8
566.0	549.8
566.2	553.7
566.4	560.6
566.6	566.3
566.8	574.5
567.0	581.1
567.2	585.3
567.4	587.9
567.6	591.5
567.8	597.8
568.0	600.7
568.2	607.6
568.4	613.4
568.6	623.4
568.8	631.2
569.0	638.9
569.2	641.6
569.4	648.3
569.6	654.5
569.8	658.6
570.0	662.2
570.2	671.6
570.4	673.8
570.6	677.2
570.8	682.0
571.0	691.0
571.2	698.5
571.4	708.5
571.6	709.9
571.8	715.4
572.0	717.2
572.2	723.7
572.4	727.1
572.6	738.4
572.8	744.1
573.0	755.9
573.2	763.8
573.4	770.8
573.6	776.5
573.8	793.2
574.0	798.9
574.2	801.2
574.4	804.2
574.6	807.6
574.8	809.0
575.0	822.3
575.2	832.3
575.4	839.3
575.6	849.8
575.8	850.8
576.0	856.2
576.2	866.1
576.4	873.7
576.6	886.2
576.8	895.5
577.0	898.2
577.2	906.6
577.4	912.3
577.6	917.7
577.8	928.9
578.0	933.6
578.2	940.5
578.4	944.6
578.6	947.4
578.8	956.7
579.0	965.3
579.2	972.4
579.4	984.4
579.6	997.3
579.8	1006
580.0	1023
580.2	1028
580.4	1032
580.6	1037
580.8	1044
581.0	1053
581.2	1061
581.4	1067
581.6	1072
581.8	1078
582.0	1084
582.2	1098
582.4	1102
582.6	1109
582.8	1108
583.0	1117
583.2	1129
583.4	1145
583.6	1157
583.8	1164
584.0	1163
584.2	1168
584.4	1178
584.6	1192
584.8	1202
585.0	1212
585.2	1217
585.4	1221
585.6	1230
585.8	1243
586.0	1253
586.2	1266
586.4	1275
586.6	1277
586.8	1281
587.0	1287
587.2	1297
587.4	1308
587.6	1321
587.8	1331
588.0	1335
588.2	1342
588.4	1356
588.6	1365
588.8	1378
589.0	1381
589.2	1381
589.4	1392
589.6	1397
589.8	1397
590.0	1411
590.2	1417
590.4	1423
590.6	1443
590.8	1450
591.0	1462
591.2	1480
591.4	1488
591.6	1481
591.8	1478
592.0	1488
592.2	1499
592.4	1517
592.6	1538
592.8	1544
593.0	1549
593.2	1558
593.4	1563
593.6	1569
593.8	1575
594.0	1581
594.2	1585
594.4	1592
594.6	1597
594.8	1598
595.0	1602
595.2	1615
595.4	1626
595.6	1648
595.8	1657
596.0	1666
596.2	1672
596.4	1675
596.6	1670
596.8	1666
597.0	1669
597.2	1678
597.4	1695
597.6	1715
597.8	1726
598.0	1728
598.2	1734
598.4	1732
598.6	1741
598.8	1746
599.0	1753
599.2	1766
599.4	1783
599.6	1800
599.8	1802
600.0	1793
600.2	1788
600.4	1784
600.6	1790
600.8	1807
601.0	1812
601.2	1824
601.4	1843
601.6	1849
601.8	1847
602.0	1845
602.2	1844
602.4	1849
602.6	1863
602.8	1869
603.0	1870
603.2	1873
603.4	1876
603.6	1892
603.8	1905
604.0	1913
604.2	1920
604.4	1917
604.6	1910
604.8	1918
605.0	1929
605.2	1933
605.4	1938
605.6	1939
605.8	1942
606.0	1950
606.2	1965
606.4	1979
606.6	1982
606.8	1984
607.0	1990
607.2	1988
607.4	1988
607.6	1990
607.8	1988
608.0	1989
608.2	1998
608.4	2000
608.6	2005
608.8	2013
609.0	2018
609.2	2023
609.4	2035
609.6	2036
609.8	2039
610.0	2038
610.2	2034
610.4	2034
610.6	2049
610.8	2055
611.0	2059
611.2	2055
611.4	2050
611.6	2054
611.8	2067
612.0	2063
612.2	2064
612.4	2054
612.6	2054
612.8	2066
613.0	2087
613.2	2099
613.4	2107
613.6	2097
613.8	2086
614.0	2073
614.2	2072
614.4	2088
614.6	2102
614.8	2104
615.0	2088
615.2	2084
615.4	2094
615.6	2107
615.8	2118
616.0	2115
616.2	2091
616.4	2092
616.6	2102
616.8	2102
617.0	2105
617.2	2116
617.4	2109
617.6	2115
617.8	2114
618.0	2116
618.2	2117
618.4	2119
618.6	2115
618.8	2108
619.0	2090
619.2	2093
619.4	2102
619.6	2099
619.8	2107
620.0	2109
620.2	2102
620.4	2108
620.6	2105
620.8	2094
621.0	2100
621.2	2101
621.4	2104
621.6	2105
621.8	2095
622.0	2092
622.2	2093
622.4	2083
622.6	2089
622.8	2079
623.0	2080
623.2	2080
623.4	2077
623.6	2075
623.8	2091
624.0	2082
624.2	2095
624.4	2092
624.6	2086
624.8	2080
625.0	2071
625.2	2061
625.4	2070
625.6	2072
625.8	2075
626.0	2081
626.2	2076
626.4	2073
626.6	2066
626.8	2053
627.0	2051
627.2	2051
627.4	2053
627.6	2057
627.8	2048
628.0	2035
628.2	2036
628.4	2032
628.6	2027
628.8	2025
629.0	2013
629.2	2008
629.4	2008
629.6	2011
629.8	2008
630.0	2010
630.2	2013
630.4	2019
630.6	2021
630.8	2018
631.0	2008
631.2	1992
631.4	1981
631.6	1978
631.8	1983
632.0	1981
632.2	1988
632.4	1979
632.6	1964
632.8	1964
633.0	1964
633.2	1953
633.4	1950
633.6	1938
633.8	1926
634.0	1930
634.2	1924
634.4	1916
634.6	1912
634.8	1912
635.0	1915
635.2	1926
635.4	1915
635.6	1903
635.8	1891
636.0	1888
636.2	1889
636.4	1890
636.6	1884
636.8	1871
637.0	1858
637.2	1855
637.4	1857
637.6	1853
637.8	1848
638.0	1840
638.2	1836
638.4	1829
638.6	1832
638.8	1831
639.0	1821
639.2	1813
639.4	1808
639.6	1796
639.8	1791
640.0	1781
640.2	1771
640.4	1770
640.6	1770
640.8	1765
641.0	1758
641.2	1752
641.4	1750
641.6	1747
641.8	1746
642.0	1738
642.2	1729
642.4	1723
642.6	1719
642.8	1708
643.0	1704
643.2	1699
643.4	1693
643.6	1679
643.8	1675
644.0	1671
644.2	1670
644.4	1659
644.6	1659
644.8	1653
645.0	1652
645.2	1644
645.4	1633
645.6	1617
645.8	1616
646.0	1609
646.2	1605
646.4	1594
646.6	1590
646.8	1588
647.0	1590
647.2	1586
647.4	1592
647.6	1587
647.8	1583
648.0	1569
648.2	1556
648.4	1547
648.6	1549
648.8	1542
649.0	1532
649.2	1519
649.4	1509
649.6	1510
649.8	1510
650.0	1509
650.2	1505
650.4	1498
650.6	1490
650.8	1484
651.0	1468
651.2	1469
651.4	1471
651.6	1466
651.8	1456
652.0	1446
652.2	1433
652.4	1436
652.6	1438
652.8	1434
653.0	1429
653.2	1416
653.4	1411
653.6	1403
653.8	1401
654.0	1389
654.2	1384
654.4	1373
654.6	1373
654.8	1363
655.0	1360
655.2	1346
655.4	1335
655.6	1328
655.8	1322
656.0	1321
656.2	1317
656.4	1312
656.6	1305
656.8	1305
657.0	1297
657.2	1292
657.4	1273
657.6	1269
657.8	1274
658.0	1280
658.2	1278
658.4	1270
658.6	1259
658.8	1255
659.0	1255
659.2	1250
659.4	1238
659.6	1224
659.8	1217
660.0	1207
660.2	1201
660.4	1199
660.6	1197
660.8	1188
661.0	1183
661.2	1182
661.4	1178
661.6	1175
661.8	1170
662.0	1161
662.2	1154
662.4	1154
662.6	1151
662.8	1149
663.0	1142
663.2	1129
663.4	1124
663.6	1119
663.8	1118
664.0	1115
664.2	1113
664.4	1101
664.6	1096
664.8	1087
665.0	1080
665.2	1080
665.4	1075
665.6	1065
665.8	1059
666.0	1042
666.2	1037
666.4	1042
666.6	1039
666.8	1037
667.0	1033
667.2	1024
667.4	1020
667.6	1014
667.8	1006
668.0	995.4
668.2	989.3
668.4	986.0
668.6	983.4
668.8	977.9
669.0	977.3
669.2	968.4
669.4	972.7
669.6	967.4
669.8	965.8
670.0	954.8
670.2	945.6
670.4	938.1
670.6	935.7
670.8	933.3
671.0	929.8
671.2	918.6
671.4	909.1
671.6	909.8
671.8	907.8
672.0	906.2
672.2	900.1
672.4	893.9
672.6	891.8
672.8	890.0
673.0	886.5
673.2	880.2
673.4	868.5
673.6	862.9
673.8	858.9
674.0	854.8
674.2	851.3
674.4	850.3
674.6	844.2
674.8	844.1
675.0	841.3
675.2	839.6
675.4	831.9
675.6	828.7
675.8	824.7
676.0	824.6
676.2	821.7
676.4	819.6
676.6	811.4
676.8	805.0
677.0	795.9
677.2	789.0
677.4	781.8
677.6	776.9
677.8	774.3
678.0	777.5
678.2	778.4
678.4	777.2
678.6	768.1
678.8	757.9
679.0	749.2
679.2	747.2
679.4	744.4
679.6	744.9
679.8	739.1
680.0	735.7
680.2	729.0
680.4	721.5
680.6	714.3
680.8	711.3
681.0	708.0
681.2	709.1
681.4	709.4
681.6	707.6
681.8	704.6
682.0	696.3
682.2	689.8
682.4	685.1
682.6	680.8
682.8	683.1
683.0	685.3
683.2	679.3
683.4	674.4
683.6	664.1
683.8	656.8
684.0	653.0
684.2	651.3
684.4	647.0
684.6	643.0
684.8	635.7
685.0	633.3
685.2	630.0
685.4	629.7
685.6	634.7
685.8	633.1
686.0	628.7
686.2	620.9
686.4	614.7
686.6	607.0
686.8	604.7
687.0	600.4
687.2	598.6
687.4	598.2
687.6	596.6
687.8	592.2
688.0	584.0
688.2	580.0
688.4	571.3
688.6	570.0
688.8	566.4
689.0	568.1
689.2	567.3
689.4	566.4
689.6	564.3
689.8	563.3
690.0	553.6
690.2	550.0
690.4	544.6
690.6	537.5
690.8	536.2
691.0	531.8
691.2	525.9
691.4	527.2
691.6	531.1
691.8	530.0
692.0	528.5
692.2	523.5
692.4	517.9
692.6	510.2
692.8	506.1
693.0	504.0
693.2	503.4
693.4	505.3
693.6	508.1
693.8	502.7
694.0	498.1
694.2	496.8
694.4	492.9
694.6	490.3
694.8	492.3
695.0	492.4
695.2	488.8
695.4	488.3
695.6	481.4
695.8	471.3
696.0	466.0
696.2	462.9
696.4	458.5
696.6	458.3
696.8	458.4
697.0	458.1
697.2	456.4
697.4	454.1
697.6	453.2
697.8	450.8
698.0	449.8
698.2	448.7
698.4	442.2
698.6	437.5
698.8	433.4
699.0	427.3
699.2	425.2
699.4	424.9
699.6	424.0
699.8	425.3
700.0	423.3
700.2	421.8
700.4	422.4
700.6	420.2
700.8	417.2
701.0	413.8
701.2	411.6
701.4	412.1
701.6	413.3
701.8	413.0
702.0	409.5
702.2	408.6
702.4	404.2
702.6	393.8
702.8	389.8
703.0	389.5
703.2	390.2
703.4	397.0
703.6	396.7
703.8	387.6
704.0	381.9
704.2	381.0
704.4	378.6
704.6	381.9
704.8	380.9
705.0	376.4
705.2	375.6
705.4	375.8
705.6	368.4
705.8	367.8
706.0	363.1
706.2	357.8
706.4	361.1
706.6	360.5
706.8	356.3
707.0	356.1
707.2	351.3
707.4	347.1
707.6	345.7
707.8	344.6
708.0	343.7
708.2	341.7
708.4	339.4
708.6	340.6
708.8	343.3
709.0	341.3
709.2	337.5
709.4	329.0
709.6	326.1
709.8	326.5
710.0	329.7
710.2	328.8
710.4	326.8
710.6	320.1
710.8	319.8
711.0	316.2
711.2	314.5
711.4	314.1
711.6	312.6
711.8	310.2
712.0	311.9
712.2	308.2
712.4	306.8
712.6	303.4
712.8	301.2
713.0	297.5
713.2	294.9
713.4	292.2
713.6	291.9
713.8	292.5
714.0	293.7
714.2	289.8
714.4	286.9
714.6	283.9
714.8	282.9
715.0	285.4
715.2	286.3
715.4	284.3
715.6	287.2
715.8	283.9
716.0	280.1
716.2	276.6
716.4	270.6
716.6	266.4
716.8	265.6
717.0	263.5
717.2	263.3
717.4	263.5
717.6	261.8
717.8	260.9
718.0	260.7
718.2	258.8
718.4	256.5
718.6	254.8
718.8	251.8
719.0	248.9
719.2	250.4
719.4	247.9
719.6	246.5
719.8	243.6
720.0	240.8
720.2	239.5
720.4	239.1
720.6	237.0
720.8	236.4
721.0	233.0
721.2	230.6
721.4	231.7
721.6	232.1
721.8	231.2
722.0	226.1
722.2	222.8
722.4	217.6
722.6	216.5
722.8	216.8
723.0	218.1
723.2	218.8
723.4	220.8
723.6	218.0
723.8	218.8
724.0	215.0
724.2	210.9
724.4	210.8
724.6	209.6
724.8	205.3
725.0	203.7
725.2	201.1
725.4	199.8
725.6	200.5
725.8	202.5
726.0	202.8
726.2	200.1
726.4	200.2
726.6	198.5
726.8	197.1
727.0	194.1
727.2	191.8
727.4	189.0
727.6	185.8
727.8	185.3
728.0	187.8
728.2	184.5
728.4	181.9
728.6	182.6
728.8	180.1
729.0	180.7
729.2	179.5
729.4	172.4
729.6	169.3
729.8	168.0
730.0	168.6
730.2	168.9
730.4	170.7
730.6	170.9
730.8	170.6
731.0	167.0
731.2	164.8
731.4	162.7
731.6	162.3
731.8	161.9
732.0	160.6
732.2	159.0
732.4	157.3
732.6	156.4
732.8	155.7
733.0	155.1
733.2	156.9
733.4	153.8
733.6	151.8
733.8	148.6
734.0	148.4
734.2	145.3
734.4	144.6
734.6	141.0
734.8	139.8
735.0	138.9
735.2	139.8
735.4	137.5
735.6	136.8
735.8	137.1
736.0	137.3
736.2	138.2
736.4	139.2
736.6	138.6
736.8	135.9
737.0	132.7
737.2	130.7
737.4	130.3
737.6	132.6
737.8	132.7
738.0	131.5
738.2	126.9
738.4	126.2
738.6	125.6
738.8	126.7
739.0	125.1
739.2	124.3
739.4	122.7
739.6	122.1
739.8	120.2
740.0	118.4
740.2	115.6
740.4	113.4
740.6	113.8
740.8	114.1
741.0	115.0
741.2	116.4
741.4	116.3
741.6	114.4
741.8	113.9
742.0	114.5
742.2	112.7
742.4	113.0
742.6	112.1
742.8	111.3
743.0	111.2
743.2	110.8
743.4	108.6
743.6	108.8
743.8	107.8
744.0	107.3
744.2	106.6
744.4	104.5
744.6	102.4
744.8	102.6
745.0	101.4
745.2	102.0
745.4	102.4
745.6	100.9
745.8	99.37
746.0	99.54
746.2	99.97
746.4	100.7
746.6	100.5
746.8	99.68
747.0	98.01
747.2	97.15
747.4	98.25
747.6	96.41
747.8	94.79
748.0	93.84
748.2	93.05
748.4	92.94
748.6	93.85
748.8	92.76
749.0	92.26
749.2	91.16
749.4	89.91
749.6	89.46
749.8	90.00
750.0	89.14
750.2	89.24
750.4	88.20
750.6	86.38
750.8	84.64
751.0	83.30
751.2	81.50
751.4	81.45
751.6	81.89
751.8	83.57
752.0	84.11
752.2	83.65
752.4	82.08
752.6	82.90
752.8	81.19
753.0	82.12
753.2	82.27
753.4	81.23
753.6	79.12
753.8	79.09
754.0	76.11
754.2	76.29
754.4	76.85
754.6	76.39
754.8	76.72
755.0	77.55
755.2	77.13
755.4	76.25
755.6	75.22
755.8	73.36
756.0	72.41
756.2	72.66
756.4	72.12
756.6	70.90
756.8	70.17
757.0	70.10
757.2	68.21
757.4	69.16
757.6	69.60
757.8	69.55
758.0	70.42
758.2	69.86
758.4	67.32
758.6	67.00
758.8	67.16
759.0	65.95
759.2	65.81
759.4	65.02
759.6	63.65
759.8	63.25
760.0	64.58
760.2	62.78
760.4	62.16
760.6	62.79
760.8	62.91
761.0	62.43
761.2	63.46
761.4	61.75
761.6	61.02
761.8	61.35
762.0	61.73
762.2	60.27
762.4	59.00
762.6	57.44
762.8	55.54
763.0	54.77
763.2	56.07
763.4	56.59
763.6	56.91
763.8	57.00
764.0	55.31
764.2	55.70
764.4	55.90
764.6	54.92
764.8	54.00
765.0	53.26
765.2	52.73
765.4	54.27
765.6	53.17
765.8	51.70
766.0	51.36
766.2	51.83
766.4	51.77
766.6	51.67
766.8	50.78
767.0	50.66
767.2	50.87
767.4	50.72
767.6	50.21
767.8	48.25
768.0	48.54
768.2	49.00
768.4	49.34
768.6	49.65
768.8	49.26
769.0	46.09
769.2	44.85
769.4	44.18
769.6	44.32
769.8	44.70
770.0	45.66
770.2	44.66
770.4	45.28
770.6	46.36
770.8	45.48
771.0	43.97
771.2	43.29
771.4	42.09
771.6	43.10
771.8	43.36
772.0	42.53
772.2	42.28
772.4	41.95
772.6	41.51
772.8	41.82
773.0	42.09
773.2	41.62
773.4	40.54
773.6	39.58
773.8	39.49
774.0	39.49
774.2	39.05
774.4	40.20
774.6	40.03
774.8	40.15
775.0	40.39
775.2	38.99
775.4	36.57
775.6	36.99
775.8	36.86
776.0	37.10
776.2	37.39
776.4	37.51
776.6	38.13
776.8	38.17
777.0	36.99
777.2	36.33
777.4	35.41
777.6	35.70
777.8	37.28
778.0	37.70
778.2	37.26
778.4	37.25
778.6	35.72
778.8	34.62
779.0	34.65
779.2	34.64
779.4	35.59
779.6	36.69
779.8	36.00
780.0	35.20
780.2	35.86
780.4	34.68
780.6	35.01
780.8	35.12
781.0	34.64
781.2	34.35
781.4	34.88
781.6	33.56
781.8	33.38
782.0	33.19
782.2	32.69
782.4	32.10
782.6	32.26
782.8	32.94
783.0	32.52
783.2	32.50
783.4	31.72
783.6	30.81
783.8	32.65
784.0	33.20
784.2	31.75
784.4	31.17
784.6	30.48
784.8	29.09
785.0	30.32
785.2	30.41
785.4	30.78
785.6	30.60
785.8	31.15
786.0	30.40
786.2	30.04
786.4	28.55
786.6	29.18
786.8	28.62
787.0	28.83
787.2	28.18
787.4	28.69
787.6	27.99
787.8	27.95
788.0	27.33
788.2	27.35
788.4	26.83
788.6	27.75
788.8	28.36
789.0	28.08
789.2	27.34
789.4	27.70
789.6	27.81
789.8	28.06
790.0	28.07
790.2	27.58
790.4	26.24
790.6	25.81
790.8	25.71
791.0	25.75
791.2	26.73
791.4	27.34
791.6	27.42
791.8	27.20
792.0	26.56
792.2	25.25
792.4	24.57
792.6	24.35
792.8	24.34
793.0	24.74
793.2	25.31
793.4	25.40
793.6	24.32
793.8	23.82
794.0	24.11
794.2	25.01
794.4	26.18
794.6	27.48
794.8	27.02
795.0	25.96
795.2	26.15
795.4	26.17
795.6	25.90
795.8	26.44
796.0	25.95
796.2	25.41
796.4	25.64
796.6	25.31
796.8	24.07
797.0	24.12
797.2	24.22
797.4	24.93
797.6	24.92
797.8	24.87
798.0	24.10
798.2	23.86
798.4	24.34
798.6	24.15
798.8	24.86
799.0	25.42
799.2	25.05
799.4	24.72
799.6	24.20
799.8	23.22
800.0	22.61
800.2	22.49
800.4	21.96
800.6	22.32
800.8	23.01
801.0	23.99
801.2	23.16
801.4	23.04
801.6	22.03
801.8	20.70
802.0	20.96
802.2	22.09
802.4	22.66
802.6	23.47
802.8	23.55
803.0	22.68
803.2	22.08
803.4	22.33
803.6	22.60
803.8	22.45
804.0	21.74
804.2	21.62
804.4	21.19
804.6	21.20
804.8	21.87
805.0	20.80
805.2	20.15
805.4	19.90
805.6	20.17
805.8	20.12
806.0	20.26
806.2	19.78
806.4	20.18
806.6	20.43
806.8	21.20
807.0	21.57
807.2	21.38
807.4	21.25
807.6	21.23
807.8	21.28
808.0	20.19
808.2	19.15
808.4	18.39
808.6	18.76
808.8	20.77
809.0	21.25
809.2	21.18
809.4	20.12
809.6	19.04
809.8	18.50
810.0	19.24
810.2	19.11
810.4	19.99
810.6	19.80
810.8	19.17
811.0	18.10
811.2	18.14
811.4	18.99
811.6	19.08
811.8	18.95
812.0	17.53
812.2	16.81
812.4	16.67
812.6	17.92
812.8	19.01
813.0	20.10
813.2	19.31
813.4	18.46
813.6	17.57
813.8	17.09
814.0	17.19
814.2	17.74
814.4	17.98
814.6	18.14
814.8	18.28
815.0	18.38
815.2	18.01
815.4	17.59
815.6	17.22
815.8	17.24
816.0	16.81
816.2	17.11
816.4	15.85
816.6	14.87
816.8	14.64
817.0	15.96
817.2	16.57
817.4	17.59
817.6	16.97
817.8	16.81
818.0	16.72
818.2	17.11
818.4	17.33
818.6	16.88
818.8	16.12
819.0	15.97
819.2	15.75
819.4	16.29
819.6	17.42
819.8	17.62
820.0	17.35
820.2	16.62
820.4	15.66
820.6	15.57
820.8	15.64
821.0	15.46
821.2	14.98
821.4	14.76
821.6	14.44
821.8	14.44
822.0	14.98
822.2	15.31
822.4	15.62
822.6	15.99
822.8	15.34
823.0	15.22
823.2	15.33
823.4	16.19
823.6	16.13
823.8	15.73
824.0	14.41
824.2	14.08
824.4	14.11
824.6	14.94
824.8	15.11
825.0	14.70
825.2	13.72
825.4	12.95
825.6	13.52
825.8	13.84
826.0	14.01
