Sample:	'20211010A(EM)
File name:	R-NiCDS-yuan-S2- new.FDS
Run date:	'08:57:20, 03/23/2023
Operator:	Administrator
Comment:	'

Instrument
Model:	F-4700 FL Spectrophotometer
Serial number:	2019-001
ROM Version:	5J24010 00

Instrument parameters
Measurement type:	Wavelength scan
Scan mode:	Emission
Data mode:	Fluorescence
EX WL:	530.0 nm
EM  Start WL:	550.0 nm
EM  End WL:	900.0 nm
Scan speed:	1200 nm/min
Delay:	0.0 s
EX Slit:	10.0 nm
EM Slit:	10.0 nm
PMT Voltage:	640 V
Response:	0.002 s
Corrected spectra:	Off
Shutter control:	On

Processing performed
Savitsky-Golay smoothed
Smoothing order:	3
Number of points:	7
Number of times:	1

Peak integration
Integration method:	Rectangular
Sensitivity:	1
Threshold:	1.000

Peaks
No.	Start(nm)	Apex(nm)	End(nm)	Height(Data)	Valley(nm)	Valley(Data)
1	550.0	620.0	622.4	5056	622.4	5006
2	622.4	623.2	787.4	5045	787.4	71.73
3	787.4	788.0	791.8	74.54	791.8	66.35
4	791.8	792.2	793.0	68.78	793.0	64.95
5	793.0	793.6	796.8	66.57	796.8	60.37
6	796.8	797.6	801.4	61.92	801.4	54.09
7	801.4	802.0	803.8	57.76	803.8	52.16
8	803.8	804.8	805.6	55.07	805.6	49.31
9	805.6	807.2	811.4	52.49	811.4	43.36
10	811.4	812.2	814.6	46.98	814.6	42.17
11	814.6	815.4	817.6	43.78	817.6	37.42
12	817.6	818.6	819.6	38.99	819.6	34.96
13	819.6	820.2	823.4	37.70	823.4	31.59
14	823.4	824.0	825.6	33.59	825.6	29.06
15	825.6	826.4	857.2	30.77	857.2	5.433
16	857.2	858.0	862.6	6.748	862.6	4.859
17	862.6	863.0	863.8	5.874	863.8	4.153
18	863.8	866.6	870.4	5.677	870.4	4.066
19	870.4	878.6	886.8	5.177	886.8	3.732
20	886.8	887.8	891.6	4.996	891.6	3.888
21	891.6	892.8	893.8	5.156	893.8	3.450

Data points
nm	Data
550.0	372.5
550.2	376.8
550.4	379.3
550.6	380.7
550.8	381.8
551.0	384.8
551.2	390.2
551.4	393.0
551.6	392.6
551.8	395.3
552.0	400.3
552.2	408.9
552.4	418.8
552.6	426.9
552.8	429.0
553.0	432.3
553.2	431.9
553.4	436.3
553.6	440.1
553.8	444.4
554.0	451.6
554.2	460.2
554.4	464.4
554.6	474.9
554.8	481.2
555.0	485.4
555.2	493.6
555.4	501.5
555.6	505.8
555.8	514.4
556.0	518.2
556.2	522.3
556.4	528.6
556.6	534.9
556.8	542.1
557.0	548.0
557.2	554.3
557.4	559.5
557.6	567.6
557.8	576.1
558.0	586.2
558.2	590.3
558.4	599.0
558.6	603.7
558.8	612.0
559.0	618.7
559.2	628.8
559.4	637.6
559.6	649.3
559.8	654.6
560.0	657.8
560.2	660.2
560.4	668.4
560.6	676.6
560.8	691.3
561.0	699.1
561.2	709.8
561.4	726.1
561.6	736.8
561.8	740.9
562.0	750.7
562.2	751.9
562.4	760.1
562.6	772.2
562.8	781.7
563.0	791.2
563.2	803.0
563.4	811.7
563.6	821.1
563.8	831.3
564.0	843.4
564.2	857.2
564.4	867.6
564.6	875.3
564.8	881.1
565.0	886.4
565.2	892.3
565.4	907.6
565.6	920.6
565.8	938.3
566.0	956.1
566.2	960.2
566.4	967.7
566.6	981.5
566.8	990.8
567.0	1009
567.2	1025
567.4	1032
567.6	1043
567.8	1052
568.0	1059
568.2	1070
568.4	1080
568.6	1091
568.8	1108
569.0	1126
569.2	1138
569.4	1153
569.6	1161
569.8	1175
570.0	1189
570.2	1210
570.4	1223
570.6	1234
570.8	1239
571.0	1253
571.2	1266
571.4	1282
571.6	1300
571.8	1314
572.0	1323
572.2	1333
572.4	1350
572.6	1364
572.8	1385
573.0	1399
573.2	1410
573.4	1420
573.6	1435
573.8	1449
574.0	1467
574.2	1489
574.4	1514
574.6	1532
574.8	1553
575.0	1560
575.2	1573
575.4	1586
575.6	1600
575.8	1617
576.0	1638
576.2	1655
576.4	1678
576.6	1695
576.8	1711
577.0	1725
577.2	1736
577.4	1752
577.6	1765
577.8	1781
578.0	1798
578.2	1822
578.4	1838
578.6	1861
578.8	1877
579.0	1895
579.2	1913
579.4	1935
579.6	1947
579.8	1971
580.0	1991
580.2	2008
580.4	2031
580.6	2049
580.8	2073
581.0	2101
581.2	2118
581.4	2131
581.6	2147
581.8	2160
582.0	2181
582.2	2204
582.4	2219
582.6	2236
582.8	2262
583.0	2273
583.2	2287
583.4	2307
583.6	2326
583.8	2347
584.0	2381
584.2	2401
584.4	2418
584.6	2441
584.8	2453
585.0	2467
585.2	2498
585.4	2527
585.6	2555
585.8	2588
586.0	2593
586.2	2594
586.4	2615
586.6	2632
586.8	2655
587.0	2678
587.2	2693
587.4	2719
587.6	2759
587.8	2788
588.0	2802
588.2	2815
588.4	2834
588.6	2854
588.8	2878
589.0	2893
589.2	2900
589.4	2925
589.6	2951
589.8	2975
590.0	2999
590.2	3015
590.4	3030
590.6	3042
590.8	3060
591.0	3083
591.2	3119
591.4	3143
591.6	3163
591.8	3172
592.0	3182
592.2	3198
592.4	3233
592.6	3265
592.8	3289
593.0	3316
593.2	3333
593.4	3353
593.6	3378
593.8	3402
594.0	3423
594.2	3448
594.4	3468
594.6	3484
594.8	3503
595.0	3518
595.2	3532
595.4	3543
595.6	3567
595.8	3593
596.0	3620
596.2	3641
596.4	3651
596.6	3663
596.8	3691
597.0	3711
597.2	3730
597.4	3753
597.6	3774
597.8	3807
598.0	3834
598.2	3847
598.4	3861
598.6	3867
598.8	3875
599.0	3899
599.2	3924
599.4	3949
599.6	3980
599.8	3995
600.0	4012
600.2	4034
600.4	4048
600.6	4054
600.8	4073
601.0	4095
601.2	4107
601.4	4132
601.6	4143
601.8	4150
602.0	4172
602.2	4203
602.4	4223
602.6	4235
602.8	4247
603.0	4252
603.2	4266
603.4	4289
603.6	4305
603.8	4316
604.0	4337
604.2	4352
604.4	4372
604.6	4393
604.8	4404
605.0	4418
605.2	4437
605.4	4450
605.6	4464
605.8	4474
606.0	4480
606.2	4485
606.4	4507
606.6	4528
606.8	4549
607.0	4556
607.2	4554
607.4	4555
607.6	4567
607.8	4588
608.0	4616
608.2	4629
608.4	4639
608.6	4646
608.8	4664
609.0	4681
609.2	4710
609.4	4725
609.6	4731
609.8	4725
610.0	4729
610.2	4744
610.4	4757
610.6	4765
610.8	4770
611.0	4759
611.2	4774
611.4	4797
611.6	4799
611.8	4824
612.0	4853
612.2	4860
612.4	4874
612.6	4861
612.8	4845
613.0	4861
613.2	4874
613.4	4898
613.6	4913
613.8	4923
614.0	4923
614.2	4937
614.4	4920
614.6	4918
614.8	4918
615.0	4935
615.2	4936
615.4	4962
615.6	4961
615.8	4958
616.0	4966
616.2	4969
616.4	4961
616.6	4982
616.8	4990
617.0	4996
617.2	5012
617.4	5005
617.6	5005
617.8	5001
618.0	5000
618.2	5015
618.4	5028
618.6	5027
618.8	5038
619.0	5025
619.2	5020
619.4	5028
619.6	5034
619.8	5044
620.0	5056
620.2	5055
620.4	5048
620.6	5036
620.8	5029
621.0	5023
621.2	5024
621.4	5036
621.6	5038
621.8	5035
622.0	5023
622.2	5013
622.4	5006
622.6	5016
622.8	5020
623.0	5036
623.2	5045
623.4	5039
623.6	5027
623.8	5024
624.0	5013
624.2	5017
624.4	5012
624.6	4989
624.8	4988
625.0	4986
625.2	4985
625.4	4983
625.6	4974
625.8	4954
626.0	4965
626.2	4981
626.4	4987
626.6	4981
626.8	4973
627.0	4952
627.2	4948
627.4	4950
627.6	4933
627.8	4924
628.0	4923
628.2	4924
628.4	4922
628.6	4918
628.8	4910
629.0	4899
629.2	4899
629.4	4891
629.6	4882
629.8	4869
630.0	4875
630.2	4875
630.4	4871
630.6	4863
630.8	4854
631.0	4836
631.2	4838
631.4	4837
631.6	4822
631.8	4819
632.0	4805
632.2	4782
632.4	4773
632.6	4765
632.8	4755
633.0	4758
633.2	4756
633.4	4752
633.6	4734
633.8	4717
634.0	4698
634.2	4688
634.4	4687
634.6	4688
634.8	4671
635.0	4661
635.2	4643
635.4	4642
635.6	4635
635.8	4628
636.0	4612
636.2	4592
636.4	4575
636.6	4582
636.8	4573
637.0	4561
637.2	4551
637.4	4538
637.6	4535
637.8	4534
638.0	4527
638.2	4504
638.4	4495
638.6	4482
638.8	4470
639.0	4456
639.2	4444
639.4	4422
639.6	4419
639.8	4410
640.0	4396
640.2	4378
640.4	4356
640.6	4348
640.8	4346
641.0	4339
641.2	4326
641.4	4309
641.6	4293
641.8	4289
642.0	4287
642.2	4273
642.4	4259
642.6	4245
642.8	4236
643.0	4217
643.2	4206
643.4	4185
643.6	4165
643.8	4144
644.0	4138
644.2	4126
644.4	4113
644.6	4107
644.8	4085
645.0	4068
645.2	4058
645.4	4048
645.6	4032
645.8	4029
646.0	4022
646.2	4013
646.4	4004
646.6	3986
646.8	3961
647.0	3952
647.2	3947
647.4	3926
647.6	3906
647.8	3886
648.0	3872
648.2	3865
648.4	3863
648.6	3849
648.8	3829
649.0	3823
649.2	3813
649.4	3795
649.6	3785
649.8	3771
650.0	3749
650.2	3737
650.4	3713
650.6	3700
650.8	3694
651.0	3691
651.2	3673
651.4	3663
651.6	3645
651.8	3630
652.0	3621
652.2	3608
652.4	3591
652.6	3581
652.8	3567
653.0	3543
653.2	3525
653.4	3509
653.6	3502
653.8	3484
654.0	3461
654.2	3437
654.4	3420
654.6	3423
654.8	3419
655.0	3410
655.2	3402
655.4	3394
655.6	3381
655.8	3373
656.0	3356
656.2	3345
656.4	3323
656.6	3301
656.8	3282
657.0	3273
657.2	3269
657.4	3259
657.6	3240
657.8	3218
658.0	3213
658.2	3200
658.4	3192
658.6	3168
658.8	3151
659.0	3126
659.2	3124
659.4	3108
659.6	3099
659.8	3078
660.0	3068
660.2	3059
660.4	3063
660.6	3046
660.8	3028
661.0	3001
661.2	2983
661.4	2964
661.6	2956
661.8	2935
662.0	2923
662.2	2914
662.4	2908
662.6	2896
662.8	2880
663.0	2864
663.2	2852
663.4	2840
663.6	2838
663.8	2839
664.0	2822
664.2	2801
664.4	2778
664.6	2756
664.8	2749
665.0	2742
665.2	2732
665.4	2717
665.6	2701
665.8	2695
666.0	2696
666.2	2686
666.4	2680
666.6	2665
666.8	2644
667.0	2626
667.2	2613
667.4	2600
667.6	2595
667.8	2583
668.0	2565
668.2	2549
668.4	2541
668.6	2524
668.8	2515
669.0	2501
669.2	2485
669.4	2474
669.6	2470
669.8	2457
670.0	2450
670.2	2443
670.4	2422
670.6	2410
670.8	2400
671.0	2386
671.2	2372
671.4	2360
671.6	2339
671.8	2333
672.0	2327
672.2	2315
672.4	2301
672.6	2289
672.8	2271
673.0	2254
673.2	2244
673.4	2232
673.6	2222
673.8	2215
674.0	2196
674.2	2188
674.4	2186
674.6	2175
674.8	2171
675.0	2167
675.2	2154
675.4	2142
675.6	2129
675.8	2109
676.0	2092
676.2	2080
676.4	2075
676.6	2067
676.8	2066
677.0	2068
677.2	2046
677.4	2029
677.6	2018
677.8	2011
678.0	2010
678.2	2007
678.4	1986
678.6	1967
678.8	1946
679.0	1937
679.2	1931
679.4	1927
679.6	1922
679.8	1913
680.0	1903
680.2	1889
680.4	1885
680.6	1868
680.8	1853
681.0	1841
681.2	1836
681.4	1829
681.6	1830
681.8	1822
682.0	1807
682.2	1789
682.4	1773
682.6	1759
682.8	1750
683.0	1745
683.2	1736
683.4	1729
683.6	1723
683.8	1712
684.0	1703
684.2	1686
684.4	1677
684.6	1668
684.8	1662
685.0	1652
685.2	1648
685.4	1638
685.6	1635
685.8	1626
686.0	1623
686.2	1614
686.4	1596
686.6	1583
686.8	1572
687.0	1563
687.2	1563
687.4	1560
687.6	1544
687.8	1532
688.0	1525
688.2	1513
688.4	1510
688.6	1505
688.8	1498
689.0	1486
689.2	1483
689.4	1473
689.6	1471
689.8	1465
690.0	1454
690.2	1448
690.4	1442
690.6	1439
690.8	1427
691.0	1420
691.2	1406
691.4	1400
691.6	1395
691.8	1389
692.0	1375
692.2	1363
692.4	1353
692.6	1343
692.8	1340
693.0	1341
693.2	1334
693.4	1325
693.6	1318
693.8	1307
694.0	1302
694.2	1296
694.4	1289
694.6	1288
694.8	1279
695.0	1272
695.2	1271
695.4	1260
695.6	1258
695.8	1253
696.0	1244
696.2	1239
696.4	1234
696.6	1224
696.8	1221
697.0	1213
697.2	1209
697.4	1205
697.6	1194
697.8	1189
698.0	1189
698.2	1184
698.4	1183
698.6	1174
698.8	1159
699.0	1154
699.2	1148
699.4	1144
699.6	1143
699.8	1135
700.0	1130
700.2	1119
700.4	1112
700.6	1108
700.8	1108
701.0	1104
701.2	1105
701.4	1093
701.6	1089
701.8	1086
702.0	1079
702.2	1072
702.4	1067
702.6	1061
702.8	1061
703.0	1057
703.2	1045
703.4	1037
703.6	1024
703.8	1018
704.0	1020
704.2	1022
704.4	1018
704.6	1013
704.8	1001
705.0	991.1
705.2	982.3
705.4	977.6
705.6	968.6
705.8	965.8
706.0	965.6
706.2	966.5
706.4	961.5
706.6	956.2
706.8	945.5
707.0	944.6
707.2	945.1
707.4	939.8
707.6	935.8
707.8	928.7
708.0	919.8
708.2	917.1
708.4	913.3
708.6	910.8
708.8	908.6
709.0	901.1
709.2	893.8
709.4	881.9
709.6	874.1
709.8	874.3
710.0	871.6
710.2	870.3
710.4	868.5
710.6	861.5
710.8	857.1
711.0	854.5
711.2	849.5
711.4	846.8
711.6	840.0
711.8	830.6
712.0	824.3
712.2	818.4
712.4	814.7
712.6	811.0
712.8	808.7
713.0	802.8
713.2	799.2
713.4	793.3
713.6	785.6
713.8	783.2
714.0	787.8
714.2	782.3
714.4	778.2
714.6	771.0
714.8	755.9
715.0	753.3
715.2	751.0
715.4	746.1
715.6	743.7
715.8	741.9
716.0	733.0
716.2	727.5
716.4	720.1
716.6	716.5
716.8	717.8
717.0	716.6
717.2	715.9
717.4	711.3
717.6	705.9
717.8	699.8
718.0	697.1
718.2	686.6
718.4	677.3
718.6	667.9
718.8	668.6
719.0	670.2
719.2	672.6
719.4	667.1
719.6	661.3
719.8	652.0
720.0	649.3
720.2	643.4
720.4	633.3
720.6	622.6
720.8	621.1
721.0	624.3
721.2	626.2
721.4	624.5
721.6	617.8
721.8	609.1
722.0	602.2
722.2	599.1
722.4	595.5
722.6	593.7
722.8	593.5
723.0	585.7
723.2	579.4
723.4	575.5
723.6	573.9
723.8	571.1
724.0	571.9
724.2	560.4
724.4	553.0
724.6	547.6
724.8	545.7
725.0	543.6
725.2	547.4
725.4	543.2
725.6	539.4
725.8	536.2
726.0	528.2
726.2	523.0
726.4	518.2
726.6	516.4
726.8	517.6
727.0	520.2
727.2	515.6
727.4	511.1
727.6	500.9
727.8	494.4
728.0	490.9
728.2	488.7
728.4	483.4
728.6	480.7
728.8	479.3
729.0	480.5
729.2	479.7
729.4	480.3
729.6	473.4
729.8	468.4
730.0	462.7
730.2	459.9
730.4	455.3
730.6	456.5
730.8	454.8
731.0	452.8
731.2	447.7
731.4	446.8
731.6	446.9
731.8	444.0
732.0	438.9
732.2	434.1
732.4	425.5
732.6	423.8
732.8	422.5
733.0	415.9
733.2	412.1
733.4	411.6
733.6	408.0
733.8	411.4
734.0	412.2
734.2	408.1
734.4	400.6
734.6	396.6
734.8	389.6
735.0	384.3
735.2	386.3
735.4	386.9
735.6	386.6
735.8	389.1
736.0	382.7
736.2	377.9
736.4	377.7
736.6	372.8
736.8	369.8
737.0	364.1
737.2	356.4
737.4	355.2
737.6	356.6
737.8	353.6
738.0	350.1
738.2	345.6
738.4	342.5
738.6	342.8
738.8	342.9
739.0	340.5
739.2	338.2
739.4	336.1
739.6	333.3
739.8	332.2
740.0	325.5
740.2	324.0
740.4	319.8
740.6	320.5
740.8	325.2
741.0	327.6
741.2	323.0
741.4	321.4
741.6	313.1
741.8	310.1
742.0	308.6
742.2	307.2
742.4	301.5
742.6	300.5
742.8	298.9
743.0	299.9
743.2	298.9
743.4	299.6
743.6	295.0
743.8	291.1
744.0	287.7
744.2	285.1
744.4	284.7
744.6	284.4
744.8	283.4
745.0	281.9
745.2	278.9
745.4	276.3
745.6	273.0
745.8	268.9
746.0	269.8
746.2	270.2
746.4	268.4
746.6	268.2
746.8	265.4
747.0	259.9
747.2	260.0
747.4	258.4
747.6	255.2
747.8	254.5
748.0	254.0
748.2	247.8
748.4	246.1
748.6	244.7
748.8	243.5
749.0	242.7
749.2	243.7
749.4	240.3
749.6	239.6
749.8	238.2
750.0	236.1
750.2	235.1
750.4	235.8
750.6	234.9
750.8	237.4
751.0	234.8
751.2	230.4
751.4	227.3
751.6	222.5
751.8	221.2
752.0	223.6
752.2	220.1
752.4	218.9
752.6	215.5
752.8	213.1
753.0	212.2
753.2	214.6
753.4	210.8
753.6	210.5
753.8	208.0
754.0	206.6
754.2	204.1
754.4	204.9
754.6	203.7
754.8	203.1
755.0	199.8
755.2	198.1
755.4	197.4
755.6	197.2
755.8	198.2
756.0	196.8
756.2	192.9
756.4	190.8
756.6	188.3
756.8	185.0
757.0	184.7
757.2	184.7
757.4	186.0
757.6	184.7
757.8	181.1
758.0	180.2
758.2	182.0
758.4	184.5
758.6	184.1
758.8	178.5
759.0	171.9
759.2	168.0
759.4	168.5
759.6	170.7
759.8	169.5
760.0	168.4
760.2	167.4
760.4	165.3
760.6	165.1
760.8	163.9
761.0	161.6
761.2	160.9
761.4	158.4
761.6	156.6
761.8	154.3
762.0	153.6
762.2	153.0
762.4	153.1
762.6	150.5
762.8	152.5
763.0	151.3
763.2	151.8
763.4	150.5
763.6	148.4
763.8	147.7
764.0	150.5
764.2	146.4
764.4	144.6
764.6	143.4
764.8	141.4
765.0	139.4
765.2	139.0
765.4	134.8
765.6	136.1
765.8	137.1
766.0	137.2
766.2	135.3
766.4	134.3
766.6	133.6
766.8	133.6
767.0	131.2
767.2	129.0
767.4	127.0
767.6	125.4
767.8	125.2
768.0	125.5
768.2	124.8
768.4	126.3
768.6	125.3
768.8	123.9
769.0	122.6
769.2	122.7
769.4	120.5
769.6	120.3
769.8	118.4
770.0	118.5
770.2	117.8
770.4	118.2
770.6	117.2
770.8	116.4
771.0	115.4
771.2	116.5
771.4	115.2
771.6	115.6
771.8	115.0
772.0	115.1
772.2	113.3
772.4	112.1
772.6	110.5
772.8	110.8
773.0	109.3
773.2	108.7
773.4	107.6
773.6	106.8
773.8	107.6
774.0	107.4
774.2	106.1
774.4	104.6
774.6	102.0
774.8	102.1
775.0	103.6
775.2	103.5
775.4	103.2
775.6	100.8
775.8	98.23
776.0	98.66
776.2	98.91
776.4	97.18
776.6	95.58
776.8	93.72
777.0	94.42
777.2	95.83
777.4	96.10
777.6	94.47
777.8	93.29
778.0	92.70
778.2	93.45
778.4	92.71
778.6	91.84
778.8	90.46
779.0	90.04
779.2	91.45
779.4	92.51
779.6	90.77
779.8	90.50
780.0	89.23
780.2	88.15
780.4	88.45
780.6	88.52
780.8	87.57
781.0	88.66
781.2	87.66
781.4	86.04
781.6	83.89
781.8	82.92
782.0	82.03
782.2	82.85
782.4	82.09
782.6	82.17
782.8	81.69
783.0	81.71
783.2	81.48
783.4	82.61
783.6	81.77
783.8	81.11
784.0	81.09
784.2	80.10
784.4	80.44
784.6	78.58
784.8	76.54
785.0	76.11
785.2	76.83
785.4	77.61
785.6	78.94
785.8	77.10
786.0	75.29
786.2	75.09
786.4	76.01
786.6	75.04
786.8	74.33
787.0	73.44
787.2	72.33
787.4	71.73
787.6	74.10
787.8	74.22
788.0	74.54
788.2	74.00
788.4	73.72
788.6	70.02
788.8	70.09
789.0	69.76
789.2	70.02
789.4	71.37
789.6	71.88
789.8	70.10
790.0	69.62
790.2	68.93
790.4	69.66
790.6	69.51
790.8	68.59
791.0	68.67
791.2	67.68
791.4	66.88
791.6	66.96
791.8	66.35
792.0	67.51
792.2	68.78
792.4	68.47
792.6	67.23
792.8	65.31
793.0	64.95
793.2	65.52
793.4	66.05
793.6	66.57
793.8	65.59
794.0	65.19
794.2	65.76
794.4	66.14
794.6	66.47
794.8	64.90
795.0	63.58
795.2	62.68
795.4	62.46
795.6	62.85
795.8	63.45
796.0	62.97
796.2	63.49
796.4	62.45
796.6	61.13
796.8	60.37
797.0	61.01
797.2	61.52
797.4	61.73
797.6	61.92
797.8	61.56
798.0	61.25
798.2	61.32
798.4	60.57
798.6	58.93
798.8	59.42
799.0	60.03
799.2	59.82
799.4	59.33
799.6	58.12
799.8	56.75
800.0	56.74
800.2	56.39
800.4	56.96
800.6	57.67
800.8	57.70
801.0	56.66
801.2	55.11
801.4	54.09
801.6	55.35
801.8	56.09
802.0	57.76
802.2	57.42
802.4	56.04
802.6	54.71
802.8	54.52
803.0	54.58
803.2	54.60
803.4	55.05
803.6	53.80
803.8	52.16
804.0	52.77
804.2	53.74
804.4	52.73
804.6	54.69
804.8	55.07
805.0	53.89
805.2	52.97
805.4	51.41
805.6	49.31
805.8	49.55
806.0	51.38
806.2	52.10
806.4	52.01
806.6	51.82
806.8	50.91
807.0	51.06
807.2	52.49
807.4	51.99
807.6	50.75
807.8	50.02
808.0	50.11
808.2	49.79
808.4	50.03
808.6	49.61
808.8	48.77
809.0	48.68
809.2	48.80
809.4	47.66
809.6	47.58
809.8	48.76
810.0	48.91
810.2	48.28
810.4	46.60
810.6	45.68
810.8	44.40
811.0	44.69
811.2	43.84
811.4	43.36
811.6	44.06
811.8	46.20
812.0	46.91
812.2	46.98
812.4	46.00
812.6	44.65
812.8	44.50
813.0	44.21
813.2	43.34
813.4	42.13
813.6	42.61
813.8	42.32
814.0	42.62
814.2	43.04
814.4	43.05
814.6	42.17
814.8	42.28
815.0	43.07
815.2	43.67
815.4	43.78
815.6	42.35
815.8	39.99
816.0	39.55
816.2	40.19
816.4	40.42
816.6	40.61
816.8	39.33
817.0	38.17
817.2	38.08
817.4	37.95
817.6	37.42
817.8	37.43
818.0	37.92
818.2	38.48
818.4	38.48
818.6	38.99
818.8	37.52
819.0	36.59
819.2	36.06
819.4	35.29
819.6	34.96
819.8	35.81
820.0	36.50
820.2	37.70
820.4	37.47
820.6	36.71
820.8	35.69
821.0	35.61
821.2	36.30
821.4	36.46
821.6	36.00
821.8	35.52
822.0	33.51
822.2	33.09
822.4	33.01
822.6	32.26
822.8	32.89
823.0	33.10
823.2	31.86
823.4	31.59
823.6	31.62
823.8	31.99
824.0	33.59
824.2	33.56
824.4	32.71
824.6	31.59
824.8	30.80
825.0	30.17
825.2	30.23
825.4	29.36
825.6	29.06
825.8	29.38
826.0	29.54
826.2	29.89
826.4	30.77
826.6	30.16
826.8	29.96
827.0	29.04
827.2	27.97
827.4	27.07
827.6	27.44
827.8	27.53
828.0	28.33
828.2	28.18
828.4	26.93
828.6	25.43
828.8	25.21
829.0	25.67
829.2	26.32
829.4	26.59
829.6	26.11
829.8	26.00
830.0	25.86
830.2	25.53
830.4	25.47
830.6	25.46
830.8	24.38
831.0	24.17
831.2	23.77
831.4	23.30
831.6	23.09
831.8	23.58
832.0	23.00
832.2	23.60
832.4	23.21
832.6	23.02
832.8	22.04
833.0	22.31
833.2	21.81
833.4	21.93
833.6	21.67
833.8	21.43
834.0	21.02
834.2	20.48
834.4	19.40
834.6	19.08
834.8	19.30
835.0	19.68
835.2	19.66
835.4	19.38
835.6	18.34
835.8	17.91
836.0	17.46
836.2	17.48
836.4	17.20
836.6	17.59
836.8	17.53
837.0	18.18
837.2	17.87
837.4	17.52
837.6	16.88
837.8	17.11
838.0	17.12
838.2	17.44
838.4	16.94
838.6	16.48
838.8	16.11
839.0	16.17
839.2	15.58
839.4	15.02
839.6	14.89
839.8	14.66
840.0	15.23
840.2	15.60
840.4	14.53
840.6	13.45
840.8	13.21
841.0	13.43
841.2	13.74
841.4	13.98
841.6	13.42
841.8	12.59
842.0	12.54
