Sample:	'20211010A(EM)
File name:	R-NI-CDS-600-S2- 20h.FDS
Run date:	'08:33:01, 03/23/2023
Operator:	Administrator
Comment:	'

Instrument
Model:	F-4700 FL Spectrophotometer
Serial number:	2019-001
ROM Version:	5J24010 00

Instrument parameters
Measurement type:	Wavelength scan
Scan mode:	Emission
Data mode:	Fluorescence
EX WL:	530.0 nm
EM  Start WL:	550.0 nm
EM  End WL:	900.0 nm
Scan speed:	1200 nm/min
Delay:	0.0 s
EX Slit:	10.0 nm
EM Slit:	10.0 nm
PMT Voltage:	640 V
Response:	0.002 s
Corrected spectra:	Off
Shutter control:	On

Processing performed
Savitsky-Golay smoothed
Smoothing order:	3
Number of points:	7
Number of times:	1

Peak integration
Integration method:	Rectangular
Sensitivity:	1
Threshold:	1.000

Peaks
No.	Start(nm)	Apex(nm)	End(nm)	Height(Data)	Valley(nm)	Valley(Data)
1	550.0	619.2	620.0	6375	620.0	6365
2	620.0	621.0	771.4	6394	771.4	134.9
3	771.4	772.0	781.8	140.6	781.8	101.8
4	781.8	782.6	805.0	105.0	805.0	63.24
5	805.0	805.8	814.2	66.06	814.2	50.88
6	814.2	815.0	822.8	52.89	822.8	37.54
7	822.8	823.8	843.8	38.59	843.8	10.79
8	843.8	844.4	851.6	12.08	851.6	6.278
9	851.6	852.2	870.0	7.281	870.0	3.314
10	870.0	871.8	875.4	4.671	875.4	3.132
11	875.4	879.8	882.2	4.140	882.2	2.824
12	882.2	883.0	886.6	3.919	886.6	2.879
13	886.6	889.6	895.8	3.961	895.8	2.591
14	895.8	896.6	897.4	3.898	897.4	2.866

Data points
nm	Data
550.0	409.4
550.2	417.5
550.4	424.2
550.6	429.8
550.8	435.5
551.0	439.2
551.2	440.2
551.4	447.8
551.6	457.8
551.8	466.0
552.0	473.7
552.2	478.8
552.4	480.4
552.6	486.3
552.8	491.8
553.0	499.3
553.2	508.4
553.4	516.7
553.6	522.8
553.8	529.7
554.0	533.5
554.2	540.9
554.4	548.0
554.6	550.5
554.8	558.3
555.0	567.7
555.2	580.0
555.4	588.2
555.6	595.5
555.8	597.5
556.0	603.9
556.2	606.6
556.4	619.6
556.6	627.3
556.8	641.9
557.0	656.0
557.2	666.6
557.4	675.4
557.6	684.7
557.8	690.7
558.0	694.6
558.2	701.0
558.4	706.5
558.6	719.7
558.8	726.3
559.0	738.2
559.2	749.0
559.4	761.7
559.6	770.4
559.8	781.9
560.0	786.4
560.2	795.4
560.4	805.8
560.6	821.6
560.8	830.3
561.0	841.7
561.2	848.8
561.4	859.3
561.6	868.3
561.8	886.5
562.0	896.2
562.2	912.7
562.4	918.7
562.6	931.3
562.8	946.6
563.0	961.3
563.2	973.6
563.4	990.4
563.6	994.9
563.8	1005
564.0	1016
564.2	1029
564.4	1037
564.6	1053
564.8	1065
565.0	1079
565.2	1097
565.4	1119
565.6	1128
565.8	1142
566.0	1151
566.2	1155
566.4	1170
566.6	1193
566.8	1211
567.0	1228
567.2	1241
567.4	1254
567.6	1270
567.8	1286
568.0	1300
568.2	1316
568.4	1333
568.6	1353
568.8	1368
569.0	1381
569.2	1396
569.4	1407
569.6	1423
569.8	1439
570.0	1456
570.2	1479
570.4	1502
570.6	1513
570.8	1525
571.0	1543
571.2	1560
571.4	1575
571.6	1601
571.8	1627
572.0	1648
572.2	1670
572.4	1691
572.6	1700
572.8	1718
573.0	1747
573.2	1761
573.4	1773
573.6	1792
573.8	1805
574.0	1819
574.2	1842
574.4	1856
574.6	1876
574.8	1896
575.0	1918
575.2	1932
575.4	1953
575.6	1983
575.8	2011
576.0	2035
576.2	2055
576.4	2066
576.6	2090
576.8	2125
577.0	2147
577.2	2169
577.4	2183
577.6	2200
577.8	2228
578.0	2251
578.2	2281
578.4	2293
578.6	2315
578.8	2335
579.0	2357
579.2	2378
579.4	2412
579.6	2426
579.8	2452
580.0	2469
580.2	2492
580.4	2520
580.6	2555
580.8	2583
581.0	2604
581.2	2621
581.4	2649
581.6	2675
581.8	2706
582.0	2732
582.2	2760
582.4	2783
582.6	2802
582.8	2815
583.0	2826
583.2	2844
583.4	2886
583.6	2917
583.8	2949
584.0	2978
584.2	2992
584.4	3017
584.6	3041
584.8	3059
585.0	3083
585.2	3117
585.4	3154
585.6	3192
585.8	3227
586.0	3255
586.2	3270
586.4	3298
586.6	3320
586.8	3336
587.0	3367
587.2	3388
587.4	3408
587.6	3433
587.8	3458
588.0	3497
588.2	3533
588.4	3556
588.6	3577
588.8	3595
589.0	3618
589.2	3655
589.4	3689
589.6	3718
589.8	3746
590.0	3770
590.2	3781
590.4	3800
590.6	3829
590.8	3865
591.0	3908
591.2	3935
591.4	3963
591.6	3985
591.8	4011
592.0	4033
592.2	4065
592.4	4092
592.6	4129
592.8	4141
593.0	4166
593.2	4179
593.4	4214
593.6	4240
593.8	4271
594.0	4293
594.2	4320
594.4	4343
594.6	4377
594.8	4389
595.0	4420
595.2	4452
595.4	4484
595.6	4503
595.8	4524
596.0	4543
596.2	4570
596.4	4599
596.6	4627
596.8	4650
597.0	4678
597.2	4719
597.4	4756
597.6	4787
597.8	4805
598.0	4817
598.2	4831
598.4	4858
598.6	4880
598.8	4911
599.0	4930
599.2	4954
599.4	4978
599.6	5003
599.8	5021
600.0	5051
600.2	5082
600.4	5108
600.6	5127
600.8	5136
601.0	5159
601.2	5185
601.4	5225
601.6	5242
601.8	5261
602.0	5277
602.2	5293
602.4	5320
602.6	5340
602.8	5362
603.0	5371
603.2	5378
603.4	5388
603.6	5411
603.8	5431
604.0	5473
604.2	5485
604.4	5506
604.6	5538
604.8	5569
605.0	5596
605.2	5628
605.4	5642
605.6	5652
605.8	5662
606.0	5682
606.2	5691
606.4	5713
606.6	5725
606.8	5737
607.0	5756
607.2	5773
607.4	5787
607.6	5807
607.8	5814
608.0	5828
608.2	5849
608.4	5866
608.6	5883
608.8	5901
609.0	5918
609.2	5931
609.4	5954
609.6	5968
609.8	5987
610.0	6009
610.2	6028
610.4	6043
610.6	6048
610.8	6039
611.0	6040
611.2	6052
611.4	6071
611.6	6077
611.8	6075
612.0	6091
612.2	6104
612.4	6131
612.6	6155
612.8	6163
613.0	6166
613.2	6187
613.4	6194
613.6	6187
613.8	6190
614.0	6197
614.2	6202
614.4	6229
614.6	6257
614.8	6264
615.0	6272
615.2	6273
615.4	6279
615.6	6293
615.8	6304
616.0	6306
616.2	6312
616.4	6321
616.6	6335
616.8	6345
617.0	6346
617.2	6349
617.4	6350
617.6	6353
617.8	6351
618.0	6352
618.2	6360
618.4	6369
618.6	6367
618.8	6368
619.0	6375
619.2	6375
619.4	6366
619.6	6374
619.8	6366
620.0	6365
620.2	6372
620.4	6378
620.6	6374
620.8	6393
621.0	6394
621.2	6389
621.4	6383
621.6	6392
621.8	6393
622.0	6386
622.2	6380
622.4	6377
622.6	6379
622.8	6380
623.0	6378
623.2	6367
623.4	6361
623.6	6359
623.8	6355
624.0	6354
624.2	6363
624.4	6370
624.6	6367
624.8	6352
625.0	6341
625.2	6336
625.4	6348
625.6	6351
625.8	6345
626.0	6341
626.2	6328
626.4	6323
626.6	6329
626.8	6317
627.0	6299
627.2	6298
627.4	6290
627.6	6294
627.8	6291
628.0	6288
628.2	6282
628.4	6283
628.6	6270
628.8	6250
629.0	6229
629.2	6220
629.4	6198
629.6	6195
629.8	6186
630.0	6183
630.2	6176
630.4	6171
630.6	6144
630.8	6148
631.0	6141
631.2	6139
631.4	6133
631.6	6121
631.8	6102
632.0	6095
632.2	6082
632.4	6080
632.6	6079
632.8	6084
633.0	6074
633.2	6056
633.4	6032
633.6	6015
633.8	5979
634.0	5973
634.2	5961
634.4	5949
634.6	5936
634.8	5926
635.0	5910
635.2	5902
635.4	5894
635.6	5871
635.8	5841
636.0	5823
636.2	5818
636.4	5815
636.6	5824
636.8	5805
637.0	5790
637.2	5785
637.4	5767
637.6	5756
637.8	5748
638.0	5725
638.2	5714
638.4	5699
638.6	5678
638.8	5660
639.0	5649
639.2	5636
639.4	5619
639.6	5591
639.8	5569
640.0	5547
640.2	5539
640.4	5535
640.6	5535
640.8	5518
641.0	5499
641.2	5463
641.4	5429
641.6	5421
641.8	5420
642.0	5419
642.2	5406
642.4	5387
642.6	5361
642.8	5360
643.0	5334
643.2	5334
643.4	5319
643.6	5304
643.8	5278
644.0	5264
644.2	5227
644.4	5219
644.6	5209
644.8	5194
645.0	5169
645.2	5159
645.4	5137
645.6	5132
645.8	5117
646.0	5089
646.2	5062
646.4	5044
646.6	5026
646.8	5018
647.0	5001
647.2	4981
647.4	4966
647.6	4959
647.8	4941
648.0	4929
648.2	4923
648.4	4905
648.6	4886
648.8	4864
649.0	4833
649.2	4802
649.4	4776
649.6	4753
649.8	4746
650.0	4736
650.2	4727
650.4	4706
650.6	4697
650.8	4688
651.0	4681
651.2	4661
651.4	4631
651.6	4594
651.8	4586
652.0	4579
652.2	4566
652.4	4552
652.6	4538
652.8	4516
653.0	4508
653.2	4489
653.4	4459
653.6	4442
653.8	4429
654.0	4399
654.2	4370
654.4	4340
654.6	4327
654.8	4320
655.0	4314
655.2	4293
655.4	4267
655.6	4243
655.8	4231
656.0	4219
656.2	4202
656.4	4189
656.6	4171
656.8	4162
657.0	4148
657.2	4127
657.4	4101
657.6	4079
657.8	4059
658.0	4042
658.2	4025
658.4	3999
658.6	3993
658.8	3983
659.0	3976
659.2	3957
659.4	3948
659.6	3927
659.8	3911
660.0	3882
660.2	3863
660.4	3842
660.6	3829
660.8	3816
661.0	3792
661.2	3767
661.4	3752
661.6	3740
661.8	3729
662.0	3715
662.2	3707
662.4	3697
662.6	3683
662.8	3657
663.0	3631
663.2	3601
663.4	3586
663.6	3579
663.8	3569
664.0	3547
664.2	3535
664.4	3519
664.6	3495
664.8	3485
665.0	3467
665.2	3451
665.4	3441
665.6	3430
665.8	3408
666.0	3398
666.2	3381
666.4	3362
666.6	3344
666.8	3329
667.0	3310
667.2	3304
667.4	3281
667.6	3269
667.8	3255
668.0	3242
668.2	3225
668.4	3209
668.6	3184
668.8	3164
669.0	3150
669.2	3136
669.4	3113
669.6	3094
669.8	3092
670.0	3083
670.2	3081
670.4	3058
670.6	3029
670.8	3008
671.0	2997
671.2	2994
671.4	2988
671.6	2964
671.8	2948
672.0	2940
672.2	2927
672.4	2914
672.6	2891
672.8	2871
673.0	2855
673.2	2859
673.4	2854
673.6	2839
673.8	2821
674.0	2808
674.2	2787
674.4	2775
674.6	2759
674.8	2734
675.0	2723
675.2	2712
675.4	2695
675.6	2671
675.8	2664
676.0	2650
676.2	2645
676.4	2631
676.6	2613
676.8	2595
677.0	2585
677.2	2569
677.4	2553
677.6	2534
677.8	2531
678.0	2533
678.2	2518
678.4	2496
678.6	2473
678.8	2457
679.0	2453
679.2	2447
679.4	2428
679.6	2410
679.8	2398
680.0	2385
680.2	2373
680.4	2363
680.6	2350
680.8	2340
681.0	2334
681.2	2331
681.4	2315
681.6	2301
681.8	2282
682.0	2261
682.2	2245
682.4	2236
682.6	2221
682.8	2213
683.0	2202
683.2	2188
683.4	2177
683.6	2157
683.8	2144
684.0	2134
684.2	2125
684.4	2108
684.6	2107
684.8	2095
685.0	2090
685.2	2089
685.4	2076
685.6	2052
685.8	2040
686.0	2022
686.2	2007
686.4	2006
686.6	1996
686.8	1983
687.0	1969
687.2	1951
687.4	1946
687.6	1945
687.8	1939
688.0	1927
688.2	1910
688.4	1889
688.6	1887
688.8	1877
689.0	1872
689.2	1864
689.4	1857
689.6	1843
689.8	1840
690.0	1826
690.2	1818
690.4	1807
690.6	1804
690.8	1790
691.0	1786
691.2	1776
691.4	1769
691.6	1758
691.8	1744
692.0	1726
692.2	1704
692.4	1690
692.6	1681
692.8	1676
693.0	1672
693.2	1676
693.4	1668
693.6	1660
693.8	1650
694.0	1641
694.2	1636
694.4	1627
694.6	1618
694.8	1607
695.0	1600
695.2	1597
695.4	1590
695.6	1579
695.8	1565
696.0	1550
696.2	1544
696.4	1544
696.6	1539
696.8	1536
697.0	1525
697.2	1514
697.4	1509
697.6	1507
697.8	1495
698.0	1484
698.2	1477
698.4	1467
698.6	1464
698.8	1461
699.0	1455
699.2	1450
699.4	1442
699.6	1433
699.8	1424
700.0	1415
700.2	1408
700.4	1395
700.6	1385
700.8	1377
701.0	1375
701.2	1374
701.4	1367
701.6	1360
701.8	1356
702.0	1349
702.2	1345
702.4	1333
702.6	1323
702.8	1316
703.0	1308
703.2	1302
703.4	1295
703.6	1282
703.8	1281
704.0	1276
704.2	1273
704.4	1271
704.6	1268
704.8	1259
705.0	1256
705.2	1247
705.4	1240
705.6	1230
705.8	1219
706.0	1209
706.2	1202
706.4	1201
706.6	1202
706.8	1198
707.0	1188
707.2	1182
707.4	1171
707.6	1168
707.8	1159
708.0	1155
708.2	1151
708.4	1146
708.6	1142
708.8	1133
709.0	1122
709.2	1113
709.4	1109
709.6	1101
709.8	1100
710.0	1093
710.2	1094
710.4	1084
710.6	1083
710.8	1077
711.0	1068
711.2	1064
711.4	1063
711.6	1054
711.8	1054
712.0	1045
712.2	1029
712.4	1021
712.6	1014
712.8	1008
713.0	1012
713.2	1008
713.4	999.8
713.6	992.4
713.8	986.6
714.0	983.0
714.2	979.5
714.4	972.3
714.6	964.3
714.8	955.0
715.0	949.9
715.2	946.1
715.4	938.6
715.6	930.8
715.8	927.6
716.0	925.0
716.2	927.5
716.4	925.3
716.6	917.9
716.8	902.6
717.0	894.0
717.2	885.2
717.4	879.6
717.6	879.8
717.8	879.4
718.0	871.3
718.2	864.0
718.4	858.7
718.6	852.2
718.8	851.1
719.0	845.9
719.2	839.6
719.4	829.4
719.6	827.3
719.8	826.4
720.0	825.3
720.2	816.6
720.4	807.1
720.6	795.7
720.8	788.5
721.0	790.7
721.2	788.3
721.4	784.0
721.6	781.2
721.8	775.7
722.0	769.1
722.2	768.6
722.4	758.6
722.6	751.3
722.8	746.3
723.0	737.2
723.2	731.7
723.4	736.5
723.6	735.6
723.8	730.5
724.0	725.9
724.2	714.5
724.4	705.8
724.6	706.3
724.8	703.3
725.0	696.1
725.2	690.5
725.4	683.0
725.6	674.8
725.8	670.5
726.0	666.0
726.2	660.8
726.4	653.2
726.6	646.5
726.8	642.6
727.0	639.0
727.2	638.8
727.4	637.8
727.6	638.8
727.8	635.6
728.0	633.6
728.2	627.9
728.4	619.4
728.6	614.2
728.8	612.7
729.0	606.5
729.2	603.6
729.4	597.1
729.6	589.7
729.8	586.0
730.0	582.3
730.2	577.6
730.4	577.7
730.6	573.4
730.8	572.5
731.0	567.4
731.2	562.9
731.4	555.5
731.6	551.9
731.8	548.8
732.0	544.3
732.2	540.8
732.4	536.7
732.6	533.2
732.8	527.8
733.0	528.6
733.2	525.6
733.4	523.0
733.6	515.6
733.8	514.6
734.0	506.6
734.2	504.0
734.4	503.8
734.6	500.8
734.8	497.7
735.0	494.6
735.2	487.3
735.4	479.7
735.6	479.6
735.8	480.2
736.0	482.9
736.2	480.9
736.4	476.4
736.6	468.0
736.8	461.6
737.0	457.8
737.2	454.7
737.4	452.7
737.6	447.3
737.8	441.0
738.0	438.2
738.2	437.1
738.4	435.7
738.6	433.7
738.8	428.8
739.0	424.1
739.2	420.9
739.4	416.8
739.6	418.1
739.8	419.2
740.0	417.6
740.2	413.1
740.4	410.1
740.6	405.8
740.8	405.6
741.0	406.8
741.2	401.4
741.4	398.1
741.6	395.1
741.8	389.5
742.0	384.8
742.2	382.8
742.4	380.0
742.6	381.0
742.8	378.8
743.0	375.5
743.2	371.3
743.4	367.8
743.6	364.9
743.8	366.1
744.0	366.1
744.2	362.2
744.4	359.7
744.6	354.8
744.8	350.6
745.0	348.4
745.2	347.1
745.4	344.0
745.6	345.4
745.8	341.1
746.0	338.7
746.2	334.1
746.4	333.6
746.6	331.7
746.8	330.7
747.0	329.2
747.2	331.1
747.4	328.7
747.6	329.6
747.8	324.7
748.0	318.0
748.2	315.4
748.4	313.8
748.6	311.3
748.8	312.1
749.0	309.7
749.2	308.2
749.4	308.3
749.6	305.7
749.8	301.6
750.0	298.4
750.2	293.0
750.4	291.7
750.6	292.5
750.8	291.4
751.0	288.0
751.2	287.5
751.4	286.1
751.6	284.5
751.8	285.6
752.0	285.4
752.2	281.7
752.4	277.8
752.6	276.9
752.8	271.9
753.0	269.9
753.2	268.1
753.4	264.6
753.6	259.6
753.8	259.3
754.0	255.8
754.2	256.4
754.4	258.4
754.6	257.8
754.8	254.7
755.0	253.2
755.2	249.8
755.4	248.2
755.6	247.4
755.8	245.9
756.0	244.4
756.2	242.6
756.4	240.4
756.6	238.7
756.8	237.5
757.0	235.6
757.2	233.3
757.4	229.6
757.6	228.8
757.8	230.2
758.0	230.8
758.2	228.8
758.4	227.4
758.6	225.0
758.8	222.6
759.0	222.3
759.2	223.4
759.4	221.8
759.6	218.3
759.8	214.9
760.0	210.2
760.2	209.0
760.4	209.5
760.6	209.1
760.8	207.9
761.0	206.9
761.2	205.4
761.4	201.7
761.6	200.5
761.8	200.1
762.0	200.6
762.2	199.3
762.4	197.7
762.6	193.8
762.8	194.0
763.0	191.7
763.2	189.5
763.4	187.5
763.6	185.6
763.8	184.7
764.0	186.8
764.2	186.3
764.4	184.5
764.6	181.1
764.8	180.9
765.0	181.5
765.2	181.2
765.4	179.1
765.6	176.0
765.8	171.9
766.0	172.5
766.2	172.3
766.4	172.8
766.6	172.5
766.8	173.6
767.0	173.2
767.2	170.3
767.4	165.0
767.6	163.6
767.8	161.5
768.0	162.2
768.2	164.2
768.4	162.0
768.6	157.8
768.8	156.7
769.0	156.4
769.2	155.4
769.4	155.2
769.6	152.8
769.8	149.2
770.0	149.1
770.2	149.0
770.4	149.8
770.6	150.4
770.8	148.5
771.0	142.6
771.2	138.1
771.4	134.9
771.6	137.1
771.8	139.9
772.0	140.6
772.2	140.2
772.4	139.0
772.6	139.5
772.8	138.0
773.0	135.6
773.2	133.4
773.4	133.8
773.6	133.8
773.8	133.5
774.0	133.1
774.2	131.7
774.4	129.6
774.6	129.4
774.8	127.1
775.0	121.5
775.2	120.8
775.4	122.2
775.6	123.1
775.8	124.7
776.0	123.7
776.2	119.5
776.4	116.3
776.6	118.1
776.8	118.5
777.0	118.8
777.2	118.4
777.4	116.6
777.6	114.7
777.8	113.7
778.0	114.7
778.2	114.2
778.4	113.1
778.6	111.7
778.8	110.1
779.0	108.5
779.2	110.4
779.4	110.2
779.6	109.3
779.8	109.9
780.0	107.9
780.2	107.9
780.4	107.9
780.6	106.5
780.8	104.8
781.0	106.5
781.2	103.7
781.4	103.5
781.6	103.1
781.8	101.8
782.0	102.5
782.2	103.8
782.4	103.7
782.6	105.0
782.8	103.8
783.0	100.9
783.2	99.71
783.4	98.84
783.6	98.63
783.8	101.2
784.0	101.8
784.2	99.99
784.4	100.6
784.6	99.39
784.8	96.10
785.0	96.96
785.2	95.99
785.4	93.48
785.6	95.53
785.8	95.51
786.0	95.28
786.2	94.30
786.4	93.18
786.6	91.17
786.8	91.49
787.0	92.75
787.2	94.55
787.4	94.14
787.6	93.61
787.8	91.89
788.0	90.67
788.2	89.99
788.4	90.07
788.6	89.72
788.8	89.15
789.0	88.17
789.2	88.35
789.4	87.17
789.6	87.41
789.8	88.04
790.0	88.44
790.2	87.44
790.4	87.24
790.6	87.35
790.8	86.82
791.0	87.46
791.2	85.83
791.4	84.52
791.6	83.44
791.8	85.28
792.0	85.12
792.2	84.28
792.4	83.18
792.6	83.01
792.8	82.31
793.0	82.79
793.2	82.32
793.4	82.05
793.6	82.36
793.8	82.83
794.0	82.00
794.2	79.89
794.4	77.97
794.6	78.03
794.8	77.64
795.0	78.57
795.2	79.14
795.4	79.07
795.6	78.29
795.8	77.91
796.0	76.88
796.2	75.85
796.4	75.72
796.6	75.94
796.8	75.55
797.0	74.56
797.2	74.63
797.4	73.98
797.6	75.55
797.8	76.26
798.0	75.97
798.2	74.00
798.4	72.37
798.6	72.63
798.8	72.92
799.0	72.70
799.2	72.32
799.4	72.06
799.6	71.25
799.8	72.04
800.0	71.81
800.2	71.90
800.4	71.58
800.6	71.64
800.8	71.78
801.0	71.17
801.2	70.65
801.4	69.71
801.6	67.81
801.8	67.55
802.0	67.78
802.2	68.43
802.4	68.81
802.6	68.11
802.8	66.70
803.0	67.18
803.2	65.95
803.4	67.32
803.6	67.58
803.8	66.87
804.0	66.49
804.2	67.26
804.4	66.73
804.6	66.52
804.8	65.31
805.0	63.24
805.2	63.44
805.4	64.66
805.6	65.51
805.8	66.06
806.0	65.69
806.2	64.14
806.4	64.28
806.6	63.53
806.8	62.41
807.0	62.65
807.2	61.75
807.4	62.73
807.6	62.66
807.8	63.01
808.0	63.15
808.2	62.43
808.4	61.32
808.6	61.05
808.8	59.04
809.0	59.07
809.2	59.40
809.4	58.61
809.6	58.09
809.8	58.59
810.0	58.50
810.2	58.62
810.4	58.09
810.6	56.62
810.8	55.92
811.0	55.94
811.2	56.30
811.4	55.14
811.6	54.57
811.8	53.80
812.0	54.20
812.2	54.23
812.4	55.28
812.6	54.34
812.8	53.71
813.0	53.27
813.2	53.27
813.4	52.74
813.6	53.18
813.8	52.05
814.0	50.98
814.2	50.88
814.4	51.81
814.6	52.19
814.8	52.69
815.0	52.89
815.2	52.41
815.4	52.13
815.6	51.37
815.8	49.36
816.0	48.10
816.2	47.88
816.4	47.96
816.6	48.62
816.8	48.64
817.0	47.66
817.2	47.12
817.4	46.45
817.6	46.88
817.8	46.60
818.0	46.68
818.2	46.42
818.4	45.34
818.6	44.37
818.8	44.37
819.0	44.43
819.2	44.77
819.4	45.38
819.6	44.93
819.8	44.12
820.0	42.75
820.2	41.46
820.4	40.91
820.6	41.06
820.8	41.57
821.0	42.30
821.2	41.77
821.4	41.26
821.6	41.47
821.8	41.68
822.0	40.68
822.2	39.69
822.4	39.03
822.6	37.86
822.8	37.54
823.0	38.20
823.2	37.59
823.4	38.23
823.6	38.58
823.8	38.59
824.0	38.50
824.2	38.38
824.4	37.45
824.6	36.43
824.8	35.23
825.0	35.03
825.2	35.86
825.4	36.54
825.6	36.25
825.8	35.55
826.0	34.41
826.2	33.84
826.4	33.66
826.6	32.91
826.8	32.76
827.0	32.34
827.2	31.72
827.4	32.07
827.6	32.21
827.8	32.40
828.0	33.29
828.2	32.09
828.4	31.21
828.6	30.70
828.8	30.16
829.0	30.48
829.2	30.59
829.4	29.25
829.6	28.50
829.8	28.36
830.0	27.61
830.2	28.21
830.4	28.40
830.6	27.90
830.8	27.15
831.0	26.49
831.2	25.78
831.4	26.06
831.6	26.03
831.8	26.47
832.0	26.47
832.2	25.62
832.4	25.40
832.6	24.70
832.8	23.97
833.0	24.67
833.2	25.23
833.4	24.46
833.6	24.08
833.8	22.54
834.0	22.11
834.2	22.43
834.4	22.44
834.6	22.00
834.8	21.37
835.0	20.49
835.2	20.85
835.4	20.87
835.6	20.50
835.8	20.69
836.0	20.11
836.2	20.01
836.4	19.48
836.6	19.12
836.8	19.01
837.0	19.31
837.2	18.92
837.4	19.19
837.6	18.79
837.8	18.47
838.0	18.24
838.2	17.57
838.4	17.29
838.6	16.95
838.8	16.60
839.0	16.93
839.2	16.76
839.4	16.02
839.6	15.88
839.8	15.49
840.0	15.48
840.2	16.27
840.4	16.41
840.6	15.69
840.8	14.91
841.0	14.36
841.2	14.05
841.4	13.51
841.6	13.72
841.8	13.51
842.0	13.69
842.2	13.69
842.4	13.03
842.6	12.10
842.8	11.73
843.0	11.21
843.2	11.59
843.4	11.60
843.6	11.07
843.8	10.79
844.0	11.01
844.2	11.62
844.4	12.08
844.6	11.97
844.8	11.41
845.0	10.27
845.2	10.13
845.4	10.82
845.6	10.72
845.8	10.36
846.0	10.18
846.2	9.598
846.4	9.671
846.6	9.973
846.8	10.52
847.0	10.16
847.2	9.917
