Sample:	'20211010A(EM)
File name:	R-Ni-CDS-CHO-300-S2- 20h.FDS
Run date:	'09:09:03, 03/23/2023
Operator:	Administrator
Comment:	'

Instrument
Model:	F-4700 FL Spectrophotometer
Serial number:	2019-001
ROM Version:	5J24010 00

Instrument parameters
Measurement type:	Wavelength scan
Scan mode:	Emission
Data mode:	Fluorescence
EX WL:	530.0 nm
EM  Start WL:	550.0 nm
EM  End WL:	900.0 nm
Scan speed:	1200 nm/min
Delay:	0.0 s
EX Slit:	10.0 nm
EM Slit:	10.0 nm
PMT Voltage:	660 V
Response:	0.002 s
Corrected spectra:	Off
Shutter control:	On

Processing performed
Savitsky-Golay smoothed
Smoothing order:	3
Number of points:	7
Number of times:	1

Peak integration
Integration method:	Rectangular
Sensitivity:	1
Threshold:	1.000

Peaks
No.	Start(nm)	Apex(nm)	End(nm)	Height(Data)	Valley(nm)	Valley(Data)
1	550.0	613.0	613.8	2718	613.8	2689
2	613.8	614.6	615.4	2727	615.4	2703
3	615.4	616.8	618.4	2733	618.4	2712
4	618.4	620.2	737.6	2744	737.6	155.2
5	737.6	738.2	760.0	161.4	760.0	75.86
6	760.0	760.4	770.0	79.72	770.0	52.38
7	770.0	771.8	775.0	54.25	775.0	46.21
8	775.0	775.8	776.8	48.28	776.8	42.37
9	776.8	777.4	778.2	47.13	778.2	40.49
10	778.2	779.4	780.0	42.62	780.0	40.14
11	780.0	780.8	785.0	41.65	785.0	34.73
12	785.0	785.8	787.4	38.11	787.4	32.02
13	787.4	788.4	790.0	33.04	790.0	29.26
14	790.0	790.8	795.4	33.99	795.4	27.59
15	795.4	796.0	798.2	30.39	798.2	26.35
16	798.2	798.8	800.6	28.67	800.6	25.13
17	800.6	802.8	808.2	28.24	808.2	22.71
18	808.2	809.2	815.4	23.91	815.4	18.62
19	815.4	816.0	819.8	19.91	819.8	16.21
20	819.8	821.6	822.8	17.86	822.8	15.44
21	822.8	823.4	828.4	18.16	828.4	12.49
22	828.4	829.2	831.2	13.72	831.2	11.93
23	831.2	833.6	837.2	13.16	837.2	8.392
24	837.2	838.6	839.4	9.942	839.4	8.197
25	839.4	840.2	853.0	9.667	853.0	5.388
26	853.0	854.6	855.8	7.041	855.8	5.847
27	855.8	857.0	859.2	6.881	859.2	5.469
28	859.2	860.2	863.6	6.826	863.6	5.695
29	863.6	865.6	867.6	7.099	867.6	5.959
30	867.6	868.6	870.2	7.234	870.2	5.949
31	870.2	873.4	876.0	7.217	876.0	5.606
32	876.0	876.8	877.6	7.382	877.6	5.371
33	877.6	879.4	884.4	7.535	884.4	5.257
34	884.4	885.8	886.4	7.196	886.4	6.123
35	886.4	887.0	889.0	7.172	889.0	5.957
36	889.0	890.4	894.0	7.148	894.0	5.687
37	894.0	895.0	900.0	7.096	900.0	5.694

Data points
nm	Data
550.0	406.5
550.2	409.0
550.4	413.1
550.6	417.1
550.8	415.8
551.0	416.1
551.2	420.8
551.4	423.9
551.6	429.9
551.8	434.7
552.0	432.6
552.2	434.0
552.4	436.6
552.6	438.9
552.8	444.5
553.0	448.4
553.2	453.9
553.4	458.1
553.6	461.0
553.8	461.2
554.0	461.5
554.2	463.8
554.4	474.2
554.6	480.5
554.8	484.7
555.0	482.0
555.2	481.8
555.4	483.2
555.6	492.7
555.8	498.5
556.0	503.8
556.2	508.3
556.4	513.4
556.6	516.2
556.8	519.1
557.0	514.7
557.2	518.9
557.4	527.8
557.6	533.7
557.8	541.2
558.0	542.6
558.2	544.8
558.4	548.0
558.6	556.3
558.8	564.3
559.0	567.3
559.2	567.5
559.4	572.1
559.6	569.9
559.8	575.1
560.0	585.9
560.2	593.2
560.4	596.6
560.6	606.0
560.8	608.8
561.0	610.7
561.2	619.9
561.4	626.0
561.6	628.5
561.8	635.1
562.0	639.7
562.2	644.4
562.4	654.6
562.6	657.8
562.8	665.4
563.0	670.9
563.2	678.3
563.4	684.2
563.6	690.0
563.8	694.7
564.0	704.8
564.2	711.5
564.4	714.2
564.6	712.3
564.8	719.9
565.0	730.9
565.2	740.7
565.4	754.4
565.6	758.5
565.8	761.7
566.0	768.3
566.2	769.8
566.4	771.5
566.6	779.9
566.8	784.8
567.0	798.2
567.2	811.3
567.4	822.1
567.6	829.3
567.8	830.3
568.0	834.8
568.2	842.2
568.4	855.8
568.6	860.5
568.8	869.1
569.0	877.0
569.2	883.6
569.4	891.5
569.6	905.0
569.8	907.3
570.0	914.9
570.2	923.6
570.4	927.9
570.6	932.5
570.8	943.4
571.0	949.9
571.2	958.6
571.4	969.1
571.6	980.0
571.8	984.6
572.0	992.7
572.2	1007
572.4	1021
572.6	1032
572.8	1040
573.0	1040
573.2	1045
573.4	1056
573.6	1063
573.8	1076
574.0	1088
574.2	1102
574.4	1122
574.6	1133
574.8	1144
575.0	1153
575.2	1157
575.4	1160
575.6	1163
575.8	1168
576.0	1186
576.2	1201
576.4	1218
576.6	1227
576.8	1231
577.0	1244
577.2	1262
577.4	1274
577.6	1290
577.8	1299
578.0	1297
578.2	1305
578.4	1316
578.6	1329
578.8	1342
579.0	1355
579.2	1355
579.4	1363
579.6	1372
579.8	1388
580.0	1401
580.2	1410
580.4	1416
580.6	1425
580.8	1440
581.0	1458
581.2	1467
581.4	1473
581.6	1481
581.8	1495
582.0	1508
582.2	1522
582.4	1529
582.6	1539
582.8	1547
583.0	1560
583.2	1570
583.4	1582
583.6	1593
583.8	1599
584.0	1600
584.2	1610
584.4	1621
584.6	1630
584.8	1644
585.0	1655
585.2	1667
585.4	1688
585.6	1708
585.8	1719
586.0	1732
586.2	1739
586.4	1752
586.6	1759
586.8	1772
587.0	1769
587.2	1776
587.4	1783
587.6	1792
587.8	1810
588.0	1819
588.2	1828
588.4	1842
588.6	1849
588.8	1855
589.0	1874
589.2	1869
589.4	1875
589.6	1877
589.8	1885
590.0	1904
590.2	1929
590.4	1946
590.6	1951
590.8	1960
591.0	1977
591.2	1995
591.4	2010
591.6	2019
591.8	2008
592.0	2010
592.2	2022
592.4	2038
592.6	2057
592.8	2073
593.0	2079
593.2	2085
593.4	2090
593.6	2087
593.8	2091
594.0	2099
594.2	2117
594.4	2138
594.6	2155
594.8	2168
595.0	2174
595.2	2180
595.4	2185
595.6	2190
595.8	2202
596.0	2213
596.2	2222
596.4	2233
596.6	2236
596.8	2241
597.0	2248
597.2	2258
597.4	2269
597.6	2284
597.8	2292
598.0	2300
598.2	2302
598.4	2319
598.6	2325
598.8	2337
599.0	2327
599.2	2335
599.4	2340
599.6	2355
599.8	2371
600.0	2384
600.2	2387
600.4	2411
600.6	2409
600.8	2417
601.0	2411
601.2	2412
601.4	2414
601.6	2422
601.8	2423
602.0	2445
602.2	2451
602.4	2467
602.6	2480
602.8	2487
603.0	2487
603.2	2487
603.4	2489
603.6	2488
603.8	2505
604.0	2512
604.2	2516
604.4	2523
604.6	2532
604.8	2534
605.0	2544
605.2	2540
605.4	2540
605.6	2555
605.8	2568
606.0	2584
606.2	2586
606.4	2583
606.6	2579
606.8	2590
607.0	2598
607.2	2612
607.4	2612
607.6	2616
607.8	2618
608.0	2613
608.2	2615
608.4	2618
608.6	2614
608.8	2614
609.0	2624
609.2	2630
609.4	2655
609.6	2670
609.8	2672
610.0	2664
610.2	2668
610.4	2668
610.6	2665
610.8	2670
611.0	2675
611.2	2682
611.4	2687
611.6	2685
611.8	2687
612.0	2686
612.2	2692
612.4	2699
612.6	2697
612.8	2701
613.0	2718
613.2	2711
613.4	2710
613.6	2697
613.8	2689
614.0	2696
614.2	2715
614.4	2722
614.6	2727
614.8	2719
615.0	2720
615.2	2708
615.4	2703
615.6	2705
615.8	2706
616.0	2713
616.2	2725
616.4	2722
616.6	2724
616.8	2733
617.0	2733
617.2	2730
617.4	2726
617.6	2729
617.8	2721
618.0	2718
618.2	2713
618.4	2712
618.6	2716
618.8	2721
619.0	2726
619.2	2726
619.4	2721
619.6	2732
619.8	2736
620.0	2731
620.2	2744
620.4	2742
620.6	2734
620.8	2740
621.0	2738
621.2	2733
621.4	2739
621.6	2728
621.8	2721
622.0	2710
622.2	2698
622.4	2695
622.6	2701
622.8	2707
623.0	2703
623.2	2694
623.4	2678
623.6	2678
623.8	2674
624.0	2685
624.2	2689
624.4	2688
624.6	2686
624.8	2679
625.0	2658
625.2	2660
625.4	2662
625.6	2654
625.8	2655
626.0	2647
626.2	2643
626.4	2654
626.6	2653
626.8	2651
627.0	2655
627.2	2644
627.4	2639
627.6	2635
627.8	2619
628.0	2606
628.2	2604
628.4	2595
628.6	2599
628.8	2602
629.0	2600
629.2	2599
629.4	2596
629.6	2588
629.8	2581
630.0	2582
630.2	2575
630.4	2563
630.6	2550
630.8	2549
631.0	2545
631.2	2556
631.4	2554
631.6	2548
631.8	2535
632.0	2518
632.2	2506
632.4	2499
632.6	2490
632.8	2490
633.0	2486
633.2	2485
633.4	2483
633.6	2484
633.8	2481
634.0	2467
634.2	2452
634.4	2442
634.6	2429
634.8	2433
635.0	2438
635.2	2437
635.4	2436
635.6	2426
635.8	2426
636.0	2416
636.2	2410
636.4	2398
636.6	2391
636.8	2380
637.0	2377
637.2	2369
637.4	2367
637.6	2350
637.8	2349
638.0	2335
638.2	2329
638.4	2320
638.6	2314
638.8	2302
639.0	2309
639.2	2298
639.4	2299
639.6	2290
639.8	2281
640.0	2275
640.2	2271
640.4	2258
640.6	2252
640.8	2241
641.0	2231
641.2	2232
641.4	2231
641.6	2227
641.8	2222
642.0	2213
642.2	2189
642.4	2178
642.6	2168
642.8	2163
643.0	2159
643.2	2165
643.4	2152
643.6	2144
643.8	2135
644.0	2116
644.2	2108
644.4	2117
644.6	2111
644.8	2109
645.0	2102
645.2	2079
645.4	2071
645.6	2069
645.8	2060
646.0	2064
646.2	2055
646.4	2040
646.6	2025
646.8	2012
647.0	2000
647.2	2005
647.4	2003
647.6	2002
647.8	1989
648.0	1972
648.2	1956
648.4	1951
648.6	1948
648.8	1948
649.0	1944
649.2	1937
649.4	1930
649.6	1925
649.8	1912
650.0	1896
650.2	1897
650.4	1894
650.6	1885
650.8	1878
651.0	1862
651.2	1845
651.4	1843
651.6	1840
651.8	1836
652.0	1830
652.2	1821
652.4	1812
652.6	1801
652.8	1804
653.0	1803
653.2	1790
653.4	1781
653.6	1771
653.8	1754
654.0	1747
654.2	1732
654.4	1718
654.6	1717
654.8	1716
655.0	1713
655.2	1710
655.4	1706
655.6	1696
655.8	1682
656.0	1670
656.2	1657
656.4	1650
656.6	1645
656.8	1641
657.0	1639
657.2	1639
657.4	1634
657.6	1622
657.8	1617
658.0	1602
658.2	1596
658.4	1594
658.6	1584
658.8	1570
659.0	1569
659.2	1550
659.4	1542
659.6	1540
659.8	1528
660.0	1519
660.2	1515
660.4	1512
660.6	1504
660.8	1501
661.0	1488
661.2	1481
661.4	1474
661.6	1473
661.8	1468
662.0	1463
662.2	1451
662.4	1445
662.6	1437
662.8	1433
663.0	1425
663.2	1418
663.4	1404
663.6	1390
663.8	1382
664.0	1379
664.2	1372
664.4	1371
664.6	1365
664.8	1359
665.0	1349
665.2	1347
665.4	1343
665.6	1342
665.8	1338
666.0	1329
666.2	1314
666.4	1309
666.6	1304
666.8	1296
667.0	1290
667.2	1280
667.4	1269
667.6	1257
667.8	1246
668.0	1239
668.2	1245
668.4	1249
668.6	1245
668.8	1237
669.0	1222
669.2	1209
669.4	1208
669.6	1204
669.8	1200
670.0	1197
670.2	1193
670.4	1188
670.6	1181
670.8	1171
671.0	1154
671.2	1142
671.4	1137
671.6	1136
671.8	1140
672.0	1137
672.2	1127
672.4	1125
672.6	1115
672.8	1106
673.0	1102
673.2	1093
673.4	1084
673.6	1080
673.8	1078
674.0	1079
674.2	1077
674.4	1070
674.6	1060
674.8	1050
675.0	1042
675.2	1041
675.4	1037
675.6	1037
675.8	1037
676.0	1027
676.2	1014
676.4	1002
676.6	991.7
676.8	990.1
677.0	992.3
677.2	989.7
677.4	985.4
677.6	974.5
677.8	964.1
678.0	953.2
678.2	948.2
678.4	943.7
678.6	944.9
678.8	948.4
679.0	943.8
679.2	938.1
679.4	931.9
679.6	923.0
679.8	920.0
680.0	918.9
680.2	918.8
680.4	913.1
680.6	908.5
680.8	898.5
681.0	886.4
681.2	880.1
681.4	879.5
681.6	874.9
681.8	876.3
682.0	872.2
682.2	865.1
682.4	860.0
682.6	852.7
682.8	848.1
683.0	842.1
683.2	835.9
683.4	831.1
683.6	828.3
683.8	824.1
684.0	821.8
684.2	818.3
684.4	812.9
684.6	803.7
684.8	802.7
685.0	794.2
685.2	787.4
685.4	788.8
685.6	779.3
685.8	771.1
686.0	768.0
686.2	762.0
686.4	758.1
686.6	761.4
686.8	756.2
687.0	752.3
687.2	747.6
687.4	739.8
687.6	732.0
687.8	727.8
688.0	720.7
688.2	725.0
688.4	729.7
688.6	726.7
688.8	718.5
689.0	712.1
689.2	701.0
689.4	701.8
689.6	700.5
689.8	698.4
690.0	691.6
690.2	685.5
690.4	676.6
690.6	671.7
690.8	669.3
691.0	669.8
691.2	669.6
691.4	663.7
691.6	657.7
691.8	652.9
692.0	650.0
692.2	646.6
692.4	644.0
692.6	635.9
692.8	628.5
693.0	621.2
693.2	617.8
693.4	614.2
693.6	619.6
693.8	619.3
694.0	619.2
694.2	614.5
694.4	611.1
694.6	606.2
694.8	607.3
695.0	599.3
695.2	597.7
695.4	592.4
695.6	590.3
695.8	590.3
696.0	589.0
696.2	582.0
696.4	579.2
696.6	569.5
696.8	564.8
697.0	563.4
697.2	563.6
697.4	563.9
697.6	560.8
697.8	555.0
698.0	551.3
698.2	549.1
698.4	547.3
698.6	543.6
698.8	541.9
699.0	541.6
699.2	538.3
699.4	541.7
699.6	539.2
699.8	533.5
700.0	525.7
700.2	518.9
700.4	511.3
700.6	512.3
700.8	509.5
701.0	508.9
701.2	506.1
701.4	504.2
701.6	503.3
701.8	502.9
702.0	499.4
702.2	496.9
702.4	495.8
702.6	495.3
702.8	492.6
703.0	489.1
703.2	485.7
703.4	481.9
703.6	482.5
703.8	481.9
704.0	476.9
704.2	472.3
704.4	469.5
704.6	466.4
704.8	462.5
705.0	461.1
705.2	461.5
705.4	462.4
705.6	464.1
705.8	464.1
706.0	461.2
706.2	460.1
706.4	453.8
706.6	447.7
706.8	439.7
707.0	435.4
707.2	434.6
707.4	432.6
707.6	427.6
707.8	427.1
708.0	424.2
708.2	423.0
708.4	421.3
708.6	416.7
708.8	412.2
709.0	409.9
709.2	409.8
709.4	412.5
709.6	414.2
709.8	410.9
710.0	404.7
710.2	398.1
710.4	394.9
710.6	392.2
710.8	391.4
711.0	385.5
711.2	381.2
711.4	383.1
711.6	387.8
711.8	388.0
712.0	386.0
712.2	378.6
712.4	370.8
712.6	369.0
712.8	371.7
713.0	369.3
713.2	368.6
713.4	368.5
713.6	367.4
713.8	368.8
714.0	367.5
714.2	361.9
714.4	353.9
714.6	346.8
714.8	344.5
715.0	347.4
715.2	348.6
715.4	348.5
715.6	344.1
715.8	337.5
716.0	333.2
716.2	332.8
716.4	333.9
716.6	332.4
716.8	332.0
717.0	331.3
717.2	327.7
717.4	324.2
717.6	324.4
717.8	320.8
718.0	319.3
718.2	318.9
718.4	313.3
718.6	311.3
718.8	310.8
719.0	309.9
719.2	308.2
719.4	306.5
719.6	300.5
719.8	299.5
720.0	300.7
720.2	302.5
720.4	298.2
720.6	296.5
720.8	290.9
721.0	288.1
721.2	285.5
721.4	283.2
721.6	280.0
721.8	280.8
722.0	280.9
722.2	279.1
722.4	276.2
722.6	275.5
722.8	272.8
723.0	272.2
723.2	268.7
723.4	265.5
723.6	265.5
723.8	265.7
724.0	265.7
724.2	263.8
724.4	260.2
724.6	255.9
724.8	251.3
725.0	248.5
725.2	249.5
725.4	248.5
725.6	247.6
725.8	245.2
726.0	242.0
726.2	238.3
726.4	237.1
726.6	237.3
726.8	238.2
727.0	238.4
727.2	236.7
727.4	233.7
727.6	231.0
727.8	229.5
728.0	231.1
728.2	229.3
728.4	225.6
728.6	224.7
728.8	221.7
729.0	217.8
729.2	216.2
729.4	215.8
729.6	214.1
729.8	214.0
730.0	213.9
730.2	210.7
730.4	207.6
730.6	207.4
730.8	205.5
731.0	205.5
731.2	203.1
731.4	201.7
731.6	198.6
731.8	197.1
732.0	196.3
732.2	198.0
732.4	195.3
732.6	193.8
732.8	189.0
733.0	185.1
733.2	185.9
733.4	186.9
733.6	186.5
733.8	185.8
734.0	185.3
734.2	183.7
734.4	185.3
734.6	182.8
734.8	179.8
735.0	177.7
735.2	175.8
735.4	174.8
735.6	175.8
735.8	174.4
736.0	173.6
736.2	169.6
736.4	166.9
736.6	166.1
736.8	162.8
737.0	160.2
737.2	158.1
737.4	155.6
737.6	155.2
737.8	158.1
738.0	161.1
738.2	161.4
738.4	159.8
738.6	156.7
738.8	153.2
739.0	151.6
739.2	154.8
739.4	155.0
739.6	153.6
739.8	148.7
740.0	145.6
740.2	141.4
740.4	141.7
740.6	143.8
740.8	143.6
741.0	141.7
741.2	140.6
741.4	141.5
741.6	141.2
741.8	140.5
742.0	137.0
742.2	134.3
742.4	135.4
742.6	136.2
742.8	135.2
743.0	132.5
743.2	127.6
743.4	125.4
743.6	127.1
743.8	126.7
744.0	125.8
744.2	124.7
744.4	124.9
744.6	124.3
744.8	124.5
745.0	124.1
745.2	122.9
745.4	120.0
745.6	119.5
745.8	118.1
746.0	118.3
746.2	118.1
746.4	119.0
746.6	117.0
746.8	117.1
747.0	117.9
747.2	118.4
747.4	118.3
747.6	118.7
747.8	118.1
748.0	116.9
748.2	114.3
748.4	112.6
748.6	111.7
748.8	111.7
749.0	111.6
749.2	109.7
749.4	106.9
749.6	106.4
749.8	103.9
750.0	103.9
750.2	103.0
750.4	102.5
750.6	102.2
750.8	101.6
751.0	99.24
751.2	100.5
751.4	101.7
751.6	102.0
751.8	102.1
752.0	99.93
752.2	98.73
752.4	98.49
752.6	98.39
752.8	95.91
753.0	93.85
753.2	92.48
753.4	92.94
753.6	94.34
753.8	95.45
754.0	93.56
754.2	91.80
754.4	89.90
754.6	90.05
754.8	91.61
755.0	92.84
755.2	92.13
755.4	90.33
755.6	87.87
755.8	85.09
756.0	85.24
756.2	85.57
756.4	85.81
756.6	85.87
756.8	84.69
757.0	83.70
757.2	84.45
757.4	85.33
757.6	84.87
757.8	82.93
758.0	81.83
758.2	81.95
758.4	80.15
758.6	79.89
758.8	77.48
759.0	76.47
759.2	77.51
759.4	77.77
759.6	76.99
759.8	76.53
760.0	75.86
760.2	78.77
760.4	79.72
760.6	77.83
760.8	76.15
761.0	73.88
761.2	73.47
761.4	74.35
761.6	73.66
761.8	70.96
762.0	69.82
762.2	70.93
762.4	72.03
762.6	71.56
762.8	69.35
763.0	68.56
763.2	67.63
763.4	68.64
763.6	69.12
763.8	68.57
764.0	67.82
764.2	67.78
764.4	66.32
764.6	64.79
764.8	64.00
765.0	63.25
765.2	64.31
765.4	64.13
765.6	63.40
765.8	62.56
766.0	61.54
766.2	60.81
766.4	62.49
766.6	62.50
766.8	60.90
767.0	60.95
767.2	60.11
767.4	60.17
767.6	60.94
767.8	60.15
768.0	57.76
768.2	58.25
768.4	58.12
768.6	57.40
768.8	55.22
769.0	54.68
769.2	54.34
769.4	55.56
769.6	55.97
769.8	53.92
770.0	52.38
770.2	52.42
770.4	52.77
770.6	53.17
770.8	52.88
771.0	52.91
771.2	53.49
771.4	53.76
771.6	53.75
771.8	54.25
772.0	52.87
772.2	53.46
772.4	53.15
772.6	51.68
772.8	49.87
773.0	48.80
773.2	46.48
773.4	47.17
773.6	48.65
773.8	49.08
774.0	49.12
774.2	48.71
774.4	47.02
774.6	46.66
774.8	46.90
775.0	46.21
775.2	46.29
775.4	47.19
775.6	47.14
775.8	48.28
776.0	47.84
776.2	46.52
776.4	44.49
776.6	42.99
776.8	42.37
777.0	42.99
777.2	44.64
777.4	47.13
777.6	46.56
777.8	43.89
778.0	42.19
778.2	40.49
778.4	41.03
778.6	41.37
778.8	41.21
779.0	41.11
779.2	42.40
779.4	42.62
779.6	42.49
779.8	40.76
780.0	40.14
780.2	40.84
780.4	41.29
780.6	40.97
780.8	41.65
781.0	41.35
781.2	40.99
781.4	41.10
781.6	39.89
781.8	39.25
782.0	39.59
782.2	39.22
782.4	37.91
782.6	37.71
782.8	37.21
783.0	36.78
783.2	36.92
783.4	37.26
783.6	36.52
783.8	36.33
784.0	36.17
784.2	35.45
784.4	35.64
784.6	35.66
784.8	35.00
785.0	34.73
785.2	35.52
785.4	36.85
785.6	37.97
785.8	38.11
786.0	37.55
786.2	36.34
786.4	35.61
786.6	35.41
786.8	34.74
787.0	33.85
787.2	32.95
787.4	32.02
787.6	32.21
787.8	32.51
788.0	32.49
788.2	32.66
788.4	33.04
788.6	32.76
788.8	32.68
789.0	32.79
789.2	32.88
789.4	32.77
789.6	32.38
789.8	30.04
790.0	29.26
790.2	30.69
790.4	32.26
790.6	33.18
790.8	33.99
791.0	32.57
791.2	31.85
791.4	32.38
791.6	31.84
791.8	31.27
792.0	31.00
792.2	30.21
792.4	29.51
792.6	30.38
792.8	29.82
793.0	29.83
793.2	30.16
793.4	30.07
793.6	30.56
793.8	30.57
794.0	29.70
794.2	29.35
794.4	29.54
794.6	28.88
794.8	29.02
795.0	27.95
795.2	27.62
795.4	27.59
795.6	28.21
795.8	29.47
796.0	30.39
796.2	29.49
796.4	28.88
796.6	28.54
796.8	28.11
797.0	28.19
797.2	28.52
797.4	26.99
797.6	27.02
797.8	26.95
798.0	26.41
798.2	26.35
798.4	27.43
798.6	27.78
798.8	28.67
799.0	27.62
799.2	27.14
799.4	26.69
799.6	27.24
799.8	27.30
800.0	27.25
800.2	26.00
800.4	25.68
800.6	25.13
800.8	25.70
801.0	26.03
801.2	26.92
801.4	27.08
801.6	27.54
801.8	26.92
802.0	26.72
802.2	26.45
802.4	26.34
802.6	26.82
802.8	28.24
803.0	27.93
803.2	27.72
803.4	26.36
803.6	25.06
803.8	24.90
804.0	25.75
804.2	25.17
804.4	24.81
804.6	23.84
804.8	23.44
805.0	24.31
805.2	24.72
805.4	24.28
805.6	24.65
805.8	23.38
806.0	23.05
806.2	24.60
806.4	23.55
806.6	23.82
806.8	23.99
807.0	22.26
807.2	22.37
807.4	23.36
807.6	23.12
807.8	23.96
808.0	23.55
808.2	22.71
808.4	22.99
808.6	22.99
808.8	23.23
809.0	23.24
809.2	23.91
809.4	23.63
809.6	23.49
809.8	22.91
810.0	21.83
810.2	21.20
810.4	22.39
810.6	22.47
810.8	22.82
811.0	22.27
811.2	21.00
811.4	20.93
811.6	20.96
811.8	21.38
812.0	21.72
812.2	20.91
812.4	20.16
812.6	20.89
812.8	20.57
813.0	21.16
813.2	21.31
813.4	20.92
813.6	20.82
813.8	20.80
814.0	20.41
814.2	20.26
814.4	20.50
814.6	21.45
814.8	21.68
815.0	20.61
815.2	19.33
815.4	18.62
815.6	18.73
815.8	19.39
816.0	19.91
816.2	19.75
816.4	19.07
816.6	19.69
816.8	19.64
817.0	19.53
817.2	19.20
817.4	19.34
817.6	18.95
817.8	19.47
818.0	18.65
818.2	18.18
818.4	17.37
818.6	17.49
818.8	17.87
819.0	17.88
819.2	17.08
819.4	16.34
819.6	16.27
819.8	16.21
820.0	17.04
820.2	17.05
820.4	17.19
820.6	16.62
820.8	16.41
821.0	16.74
821.2	17.40
821.4	17.48
821.6	17.86
821.8	17.21
822.0	16.15
822.2	16.63
822.4	16.53
822.6	15.77
822.8	15.44
823.0	16.08
823.2	17.06
823.4	18.16
823.6	17.89
823.8	16.88
824.0	14.91
824.2	15.19
824.4	15.63
824.6	16.24
824.8	15.84
825.0	15.99
825.2	15.45
825.4	15.32
825.6	14.73
825.8	14.89
826.0	14.12
826.2	14.72
826.4	14.86
826.6	14.58
826.8	14.31
827.0	14.34
827.2	14.20
827.4	14.97
827.6	14.39
827.8	14.28
828.0	13.73
828.2	13.00
828.4	12.49
828.6	12.62
828.8	12.68
829.0	13.37
829.2	13.72
829.4	13.62
829.6	13.46
