Sample:	'20211010A(EM)
File name:	R-NI-CDS-300-S2- 20h.FDS
Run date:	'08:25:00, 03/23/2023
Operator:	Administrator
Comment:	'

Instrument
Model:	F-4700 FL Spectrophotometer
Serial number:	2019-001
ROM Version:	5J24010 00

Instrument parameters
Measurement type:	Wavelength scan
Scan mode:	Emission
Data mode:	Fluorescence
EX WL:	530.0 nm
EM  Start WL:	550.0 nm
EM  End WL:	900.0 nm
Scan speed:	1200 nm/min
Delay:	0.0 s
EX Slit:	10.0 nm
EM Slit:	10.0 nm
PMT Voltage:	640 V
Response:	0.002 s
Corrected spectra:	Off
Shutter control:	On

Processing performed
Savitsky-Golay smoothed
Smoothing order:	3
Number of points:	7
Number of times:	1

Peak integration
Integration method:	Rectangular
Sensitivity:	1
Threshold:	1.000

Peaks
No.	Start(nm)	Apex(nm)	End(nm)	Height(Data)	Valley(nm)	Valley(Data)
1	550.0	617.8	618.4	6376	618.4	6358
2	618.4	620.6	621.6	6410	621.6	6356
3	621.6	622.4	779.2	6391	779.2	105.6
4	779.2	780.0	793.4	109.5	793.4	75.58
5	793.4	794.2	797.0	79.90	797.0	71.74
6	797.0	797.8	804.0	73.63	804.0	61.58
7	804.0	805.6	812.4	62.95	812.4	49.97
8	812.4	812.8	817.2	52.39	817.2	44.18
9	817.2	818.0	825.6	46.25	825.6	31.85
10	825.6	826.8	852.4	33.42	852.4	5.924
11	852.4	853.2	858.0	7.004	858.0	4.000
12	858.0	858.8	865.6	5.111	865.6	3.337
13	865.6	866.4	888.0	4.526	888.0	2.562
14	888.0	898.6	900.0	4.054	900.0	2.722

Data points
nm	Data
550.0	427.2
550.2	430.6
550.4	436.7
550.6	444.5
550.8	453.8
551.0	457.9
551.2	464.5
551.4	463.5
551.6	464.5
551.8	470.1
552.0	480.4
552.2	495.2
552.4	505.2
552.6	505.6
552.8	509.7
553.0	517.5
553.2	521.8
553.4	533.6
553.6	539.1
553.8	542.8
554.0	553.2
554.2	562.7
554.4	566.8
554.6	578.6
554.8	584.0
555.0	587.6
555.2	595.5
555.4	601.4
555.6	606.7
555.8	618.6
556.0	629.7
556.2	640.6
556.4	648.1
556.6	656.2
556.8	665.1
557.0	675.4
557.2	684.7
557.4	694.3
557.6	698.9
557.8	707.9
558.0	716.6
558.2	726.9
558.4	736.6
558.6	749.7
558.8	758.6
559.0	769.0
559.2	777.8
559.4	790.8
559.6	798.8
559.8	808.2
560.0	818.4
560.2	829.6
560.4	843.8
560.6	856.5
560.8	863.6
561.0	870.1
561.2	878.9
561.4	892.0
561.6	909.8
561.8	926.8
562.0	940.5
562.2	947.8
562.4	956.0
562.6	965.4
562.8	973.6
563.0	983.9
563.2	999.5
563.4	1013
563.6	1027
563.8	1036
564.0	1049
564.2	1059
564.4	1076
564.6	1092
564.8	1107
565.0	1125
565.2	1144
565.4	1154
565.6	1167
565.8	1180
566.0	1196
566.2	1213
566.4	1228
566.6	1241
566.8	1257
567.0	1275
567.2	1294
567.4	1307
567.6	1324
567.8	1332
568.0	1342
568.2	1364
568.4	1383
568.6	1403
568.8	1418
569.0	1429
569.2	1437
569.4	1454
569.6	1472
569.8	1503
570.0	1526
570.2	1545
570.4	1557
570.6	1568
570.8	1575
571.0	1604
571.2	1630
571.4	1652
571.6	1672
571.8	1692
572.0	1702
572.2	1721
572.4	1743
572.6	1761
572.8	1779
573.0	1802
573.2	1822
573.4	1849
573.6	1874
573.8	1886
574.0	1907
574.2	1924
574.4	1946
574.6	1976
574.8	1998
575.0	2018
575.2	2046
575.4	2058
575.6	2071
575.8	2090
576.0	2109
576.2	2139
576.4	2173
576.6	2190
576.8	2200
577.0	2212
577.2	2229
577.4	2260
577.6	2285
577.8	2309
578.0	2331
578.2	2350
578.4	2374
578.6	2393
578.8	2416
579.0	2439
579.2	2467
579.4	2494
579.6	2528
579.8	2546
580.0	2576
580.2	2595
580.4	2621
580.6	2647
580.8	2679
581.0	2706
581.2	2728
581.4	2748
581.6	2773
581.8	2792
582.0	2817
582.2	2844
582.4	2870
582.6	2905
582.8	2923
583.0	2939
583.2	2967
583.4	2982
583.6	3020
583.8	3058
584.0	3085
584.2	3113
584.4	3145
584.6	3157
584.8	3177
585.0	3197
585.2	3223
585.4	3256
585.6	3297
585.8	3330
586.0	3344
586.2	3360
586.4	3372
586.6	3396
586.8	3422
587.0	3457
587.2	3487
587.4	3517
587.6	3541
587.8	3568
588.0	3594
588.2	3634
588.4	3660
588.6	3696
588.8	3719
589.0	3741
589.2	3763
589.4	3788
589.6	3806
589.8	3834
590.0	3855
590.2	3887
590.4	3915
590.6	3955
590.8	3988
591.0	4017
591.2	4037
591.4	4053
591.6	4080
591.8	4115
592.0	4146
592.2	4178
592.4	4193
592.6	4196
592.8	4215
593.0	4238
593.2	4272
593.4	4306
593.6	4345
593.8	4367
594.0	4390
594.2	4415
594.4	4440
594.6	4477
594.8	4521
595.0	4543
595.2	4554
595.4	4579
595.6	4594
595.8	4621
596.0	4644
596.2	4666
596.4	4679
596.6	4719
596.8	4752
597.0	4784
597.2	4804
597.4	4839
597.6	4865
597.8	4889
598.0	4904
598.2	4915
598.4	4931
598.6	4959
598.8	4988
599.0	5013
599.2	5029
599.4	5049
599.6	5086
599.8	5112
600.0	5129
600.2	5153
600.4	5171
600.6	5197
600.8	5229
601.0	5260
601.2	5273
601.4	5299
601.6	5318
601.8	5336
602.0	5358
602.2	5386
602.4	5403
602.6	5428
602.8	5447
603.0	5453
603.2	5466
603.4	5487
603.6	5516
603.8	5543
604.0	5557
604.2	5572
604.4	5585
604.6	5607
604.8	5628
605.0	5649
605.2	5652
605.4	5676
605.6	5695
605.8	5719
606.0	5739
606.2	5752
606.4	5758
606.6	5778
606.8	5787
607.0	5802
607.2	5829
607.4	5846
607.6	5881
607.8	5907
608.0	5919
608.2	5927
608.4	5940
608.6	5953
608.8	5974
609.0	5983
609.2	6000
609.4	5990
609.6	5998
609.8	6024
610.0	6042
610.2	6059
610.4	6083
610.6	6073
610.8	6076
611.0	6094
611.2	6105
611.4	6112
611.6	6130
611.8	6151
612.0	6180
612.2	6208
612.4	6212
612.6	6200
612.8	6198
613.0	6203
613.2	6228
613.4	6237
613.6	6243
613.8	6250
614.0	6271
614.2	6278
614.4	6278
614.6	6272
614.8	6268
615.0	6266
615.2	6270
615.4	6273
615.6	6280
615.8	6301
616.0	6327
616.2	6334
616.4	6345
616.6	6354
616.8	6351
617.0	6349
617.2	6360
617.4	6354
617.6	6372
617.8	6376
618.0	6367
618.2	6362
618.4	6358
618.6	6367
618.8	6370
619.0	6367
619.2	6367
619.4	6371
619.6	6373
619.8	6389
620.0	6387
620.2	6392
620.4	6405
620.6	6410
620.8	6401
621.0	6390
621.2	6372
621.4	6360
621.6	6356
621.8	6360
622.0	6367
622.2	6381
622.4	6391
622.6	6385
622.8	6368
623.0	6357
623.2	6352
623.4	6346
623.6	6339
623.8	6328
624.0	6332
624.2	6345
624.4	6351
624.6	6342
624.8	6332
625.0	6316
625.2	6306
625.4	6311
625.6	6306
625.8	6305
626.0	6310
626.2	6296
626.4	6286
626.6	6297
626.8	6286
627.0	6289
627.2	6283
627.4	6268
627.6	6260
627.8	6251
628.0	6214
628.2	6199
628.4	6182
628.6	6188
628.8	6186
629.0	6184
629.2	6189
629.4	6189
629.6	6185
629.8	6174
630.0	6144
630.2	6121
630.4	6105
630.6	6098
630.8	6092
631.0	6070
631.2	6068
631.4	6061
631.6	6057
631.8	6062
632.0	6054
632.2	6037
632.4	6020
632.6	5994
632.8	5990
633.0	5988
633.2	5977
633.4	5956
633.6	5914
633.8	5884
634.0	5885
634.2	5893
634.4	5893
634.6	5888
634.8	5867
635.0	5839
635.2	5822
635.4	5803
635.6	5800
635.8	5800
636.0	5800
636.2	5783
636.4	5759
636.6	5728
636.8	5729
637.0	5718
637.2	5717
637.4	5696
637.6	5660
637.8	5642
638.0	5643
638.2	5630
638.4	5621
638.6	5600
638.8	5579
639.0	5563
639.2	5549
639.4	5532
639.6	5518
639.8	5504
640.0	5500
640.2	5488
640.4	5475
640.6	5459
640.8	5444
641.0	5412
641.2	5400
641.4	5392
641.6	5379
641.8	5372
642.0	5345
642.2	5307
642.4	5291
642.6	5265
642.8	5255
643.0	5257
643.2	5242
643.4	5231
643.6	5214
643.8	5181
644.0	5148
644.2	5127
644.4	5117
644.6	5116
644.8	5109
645.0	5097
645.2	5062
645.4	5034
645.6	5012
645.8	4997
646.0	4980
646.2	4970
646.4	4952
646.6	4951
646.8	4951
647.0	4939
647.2	4914
647.4	4889
647.6	4863
647.8	4845
648.0	4830
648.2	4799
648.4	4772
648.6	4756
648.8	4745
649.0	4727
649.2	4719
649.4	4706
649.6	4677
649.8	4669
650.0	4655
650.2	4638
650.4	4622
650.6	4606
650.8	4579
651.0	4574
651.2	4558
651.4	4545
651.6	4522
651.8	4506
652.0	4490
652.2	4475
652.4	4441
652.6	4420
652.8	4404
653.0	4384
653.2	4369
653.4	4354
653.6	4339
653.8	4326
654.0	4302
654.2	4282
654.4	4259
654.6	4246
654.8	4241
655.0	4221
655.2	4198
655.4	4186
655.6	4169
655.8	4151
656.0	4133
656.2	4126
656.4	4111
656.6	4091
656.8	4071
657.0	4048
657.2	4036
657.4	4016
657.6	3994
657.8	3975
658.0	3958
658.2	3947
658.4	3933
658.6	3901
658.8	3873
659.0	3848
659.2	3839
659.4	3828
659.6	3819
659.8	3807
660.0	3789
660.2	3773
660.4	3768
660.6	3755
660.8	3733
661.0	3712
661.2	3699
661.4	3688
661.6	3680
661.8	3663
662.0	3643
662.2	3629
662.4	3614
662.6	3593
662.8	3575
663.0	3559
663.2	3556
663.4	3536
663.6	3517
663.8	3492
664.0	3468
664.2	3451
664.4	3441
664.6	3418
664.8	3410
665.0	3396
665.2	3385
665.4	3374
665.6	3355
665.8	3326
666.0	3311
666.2	3298
666.4	3284
666.6	3268
666.8	3247
667.0	3228
667.2	3220
667.4	3211
667.6	3188
667.8	3168
668.0	3139
668.2	3124
668.4	3119
668.6	3104
668.8	3095
669.0	3084
669.2	3063
669.4	3039
669.6	3030
669.8	3019
670.0	3010
670.2	2998
670.4	2986
670.6	2970
670.8	2956
671.0	2946
671.2	2922
671.4	2904
671.6	2883
671.8	2869
672.0	2849
672.2	2832
672.4	2813
672.6	2803
672.8	2792
673.0	2776
673.2	2769
673.4	2762
673.6	2747
673.8	2727
674.0	2709
674.2	2686
674.4	2680
674.6	2679
674.8	2663
675.0	2640
675.2	2627
675.4	2606
675.6	2587
675.8	2585
676.0	2574
676.2	2568
676.4	2559
676.6	2537
676.8	2519
677.0	2510
677.2	2507
677.4	2503
677.6	2488
677.8	2466
678.0	2443
678.2	2420
678.4	2412
678.6	2399
678.8	2390
679.0	2373
679.2	2362
679.4	2345
679.6	2341
679.8	2331
680.0	2324
680.2	2313
680.4	2307
680.6	2293
680.8	2277
681.0	2256
681.2	2237
681.4	2225
681.6	2220
681.8	2212
682.0	2208
682.2	2194
682.4	2177
682.6	2163
682.8	2142
683.0	2132
683.2	2134
683.4	2128
683.6	2122
683.8	2113
684.0	2097
684.2	2091
684.4	2075
684.6	2057
684.8	2041
685.0	2020
685.2	2013
685.4	1997
685.6	1987
685.8	1977
686.0	1965
686.2	1953
686.4	1944
686.6	1928
686.8	1925
687.0	1914
687.2	1903
687.4	1896
687.6	1881
687.8	1874
688.0	1871
688.2	1863
688.4	1858
688.6	1851
688.8	1839
689.0	1826
689.2	1809
689.4	1793
689.6	1776
689.8	1772
690.0	1770
690.2	1768
690.4	1754
690.6	1741
690.8	1725
691.0	1722
691.2	1720
691.4	1710
691.6	1694
691.8	1679
692.0	1671
692.2	1664
692.4	1659
692.6	1656
692.8	1651
693.0	1636
693.2	1628
693.4	1610
693.6	1602
693.8	1596
694.0	1590
694.2	1581
694.4	1576
694.6	1556
694.8	1552
695.0	1538
695.2	1524
695.4	1524
695.6	1513
695.8	1502
696.0	1505
696.2	1508
696.4	1502
696.6	1502
696.8	1487
697.0	1473
697.2	1462
697.4	1455
697.6	1447
697.8	1442
698.0	1439
698.2	1432
698.4	1427
698.6	1420
698.8	1410
699.0	1399
699.2	1395
699.4	1384
699.6	1378
699.8	1370
700.0	1365
700.2	1357
700.4	1354
700.6	1342
700.8	1337
701.0	1333
701.2	1335
701.4	1329
701.6	1322
701.8	1313
702.0	1306
702.2	1303
702.4	1298
702.6	1288
702.8	1279
703.0	1273
703.2	1262
703.4	1254
703.6	1246
703.8	1241
704.0	1236
704.2	1229
704.4	1225
704.6	1219
704.8	1216
705.0	1212
705.2	1211
705.4	1205
705.6	1199
705.8	1187
706.0	1181
706.2	1167
706.4	1165
706.6	1164
706.8	1155
707.0	1145
707.2	1138
707.4	1128
707.6	1123
707.8	1121
708.0	1117
708.2	1112
708.4	1102
708.6	1099
708.8	1090
709.0	1083
709.2	1074
709.4	1067
709.6	1058
709.8	1059
710.0	1056
710.2	1049
710.4	1040
710.6	1035
710.8	1032
711.0	1031
711.2	1029
711.4	1024
711.6	1017
711.8	1020
712.0	1017
712.2	1013
712.4	1004
712.6	991.5
712.8	979.9
713.0	975.9
713.2	963.8
713.4	957.5
713.6	950.1
713.8	946.5
714.0	946.3
714.2	945.1
714.4	932.8
714.6	927.8
714.8	924.6
715.0	919.9
715.2	915.1
715.4	907.5
715.6	895.4
715.8	889.9
716.0	887.6
716.2	883.1
716.4	876.1
716.6	874.8
716.8	873.7
717.0	867.4
717.2	861.7
717.4	855.3
717.6	845.9
717.8	845.5
718.0	845.2
718.2	835.6
718.4	829.4
718.6	822.5
718.8	817.3
719.0	808.8
719.2	805.1
719.4	801.4
719.6	797.6
719.8	792.5
720.0	786.4
720.2	778.9
720.4	777.7
720.6	779.5
720.8	773.1
721.0	766.7
721.2	756.9
721.4	754.7
721.6	752.9
721.8	747.2
722.0	741.5
722.2	736.1
722.4	728.3
722.6	723.9
722.8	716.2
723.0	707.6
723.2	705.4
723.4	701.0
723.6	695.9
723.8	696.4
724.0	690.7
724.2	691.8
724.4	687.1
724.6	679.1
724.8	675.3
725.0	670.7
725.2	667.2
725.4	665.8
725.6	659.7
725.8	653.8
726.0	650.0
726.2	639.9
726.4	635.7
726.6	626.3
726.8	623.4
727.0	618.0
727.2	614.7
727.4	609.9
727.6	610.3
727.8	607.2
728.0	606.7
728.2	603.8
728.4	598.1
728.6	594.7
728.8	590.9
729.0	586.8
729.2	582.5
729.4	576.9
729.6	567.5
729.8	561.1
730.0	557.2
730.2	556.6
730.4	556.3
730.6	555.0
730.8	552.7
731.0	546.3
731.2	542.1
731.4	537.9
731.6	533.5
731.8	530.7
732.0	527.0
732.2	521.8
732.4	517.2
732.6	510.5
732.8	509.8
733.0	507.5
733.2	503.6
733.4	499.2
733.6	492.3
733.8	486.1
734.0	488.8
734.2	486.8
734.4	486.0
734.6	482.9
734.8	474.7
735.0	469.5
735.2	467.8
735.4	468.1
735.6	464.0
735.8	460.4
736.0	456.2
736.2	452.6
736.4	451.8
736.6	451.9
736.8	450.6
737.0	447.9
737.2	445.2
737.4	439.5
737.6	432.2
737.8	425.7
738.0	425.3
738.2	420.3
738.4	418.8
738.6	416.6
738.8	411.3
739.0	409.6
739.2	407.5
739.4	405.4
739.6	405.7
739.8	407.1
740.0	402.3
740.2	399.9
740.4	398.4
740.6	400.4
740.8	394.2
741.0	390.3
741.2	382.2
741.4	377.8
741.6	378.0
741.8	378.9
742.0	374.2
742.2	371.6
742.4	367.6
742.6	365.8
742.8	361.5
743.0	359.8
743.2	358.5
743.4	356.1
743.6	355.8
743.8	355.1
744.0	352.1
744.2	352.2
744.4	351.7
744.6	347.3
744.8	344.6
745.0	340.5
745.2	338.7
745.4	338.4
745.6	335.5
745.8	329.4
746.0	327.8
746.2	324.4
746.4	322.5
746.6	320.5
746.8	316.1
747.0	311.7
747.2	312.6
747.4	312.2
747.6	313.9
747.8	311.5
748.0	309.1
748.2	305.5
748.4	305.8
748.6	304.2
748.8	304.3
749.0	299.5
749.2	293.6
749.4	288.7
749.6	286.9
749.8	284.7
750.0	284.8
750.2	283.9
750.4	281.5
750.6	278.3
750.8	275.3
751.0	274.4
751.2	276.4
751.4	276.6
751.6	276.1
751.8	271.3
752.0	265.2
752.2	262.5
752.4	260.8
752.6	260.0
752.8	259.8
753.0	255.3
753.2	254.9
753.4	257.3
753.6	254.7
753.8	252.4
754.0	249.4
754.2	245.4
754.4	247.4
754.6	248.8
754.8	248.4
755.0	246.9
755.2	244.5
755.4	241.2
755.6	241.6
755.8	238.6
756.0	235.5
756.2	234.0
756.4	229.9
756.6	227.2
756.8	225.6
757.0	224.4
757.2	221.5
757.4	221.6
757.6	221.3
757.8	219.8
758.0	218.6
758.2	217.8
758.4	216.9
758.6	217.7
758.8	217.1
759.0	215.3
759.2	214.1
759.4	209.8
759.6	207.3
759.8	204.3
760.0	201.9
760.2	200.9
760.4	199.1
760.6	197.9
760.8	197.6
761.0	198.2
761.2	199.3
761.4	197.6
761.6	197.1
761.8	194.3
762.0	193.4
762.2	191.1
762.4	188.7
762.6	185.5
762.8	186.1
763.0	185.5
763.2	186.4
763.4	186.3
763.6	186.3
763.8	183.8
764.0	181.2
764.2	178.6
764.4	176.6
764.6	176.2
764.8	176.6
765.0	174.0
765.2	173.5
765.4	172.5
765.6	171.7
765.8	170.0
766.0	166.3
766.2	162.7
766.4	163.2
766.6	161.1
766.8	159.8
767.0	160.0
767.2	157.5
767.4	157.4
767.6	157.1
767.8	157.7
768.0	158.1
768.2	159.8
768.4	157.1
768.6	153.9
768.8	148.8
769.0	145.6
769.2	143.4
769.4	144.8
769.6	145.2
769.8	144.5
770.0	142.5
770.2	141.0
770.4	140.9
770.6	141.2
770.8	142.5
771.0	139.5
771.2	137.4
771.4	136.3
771.6	135.8
771.8	134.7
772.0	134.5
772.2	132.5
772.4	130.7
772.6	129.2
772.8	129.1
773.0	127.3
773.2	127.1
773.4	126.1
773.6	125.9
773.8	126.7
774.0	127.4
774.2	128.7
774.4	127.8
774.6	125.5
774.8	122.4
775.0	119.0
775.2	116.7
775.4	117.9
775.6	117.6
775.8	119.4
776.0	119.7
776.2	118.7
776.4	116.7
776.6	114.6
776.8	112.9
777.0	112.7
777.2	114.5
777.4	116.6
777.6	116.6
777.8	117.0
778.0	114.9
778.2	112.1
778.4	109.4
778.6	108.2
778.8	107.5
779.0	106.0
779.2	105.6
779.4	105.7
779.6	106.0
779.8	106.5
780.0	109.5
780.2	109.0
780.4	108.2
780.6	106.7
780.8	103.8
781.0	101.0
781.2	101.6
781.4	102.1
781.6	101.5
781.8	102.6
782.0	99.98
782.2	97.87
782.4	97.71
782.6	99.11
782.8	100.7
783.0	101.3
783.2	100.4
783.4	97.74
783.6	96.24
783.8	95.11
784.0	95.45
784.2	95.62
784.4	97.57
784.6	96.81
784.8	96.49
785.0	93.61
785.2	91.43
785.4	91.29
785.6	93.39
785.8	94.52
786.0	95.28
786.2	93.32
786.4	90.96
786.6	89.44
786.8	90.82
787.0	89.41
787.2	88.78
787.4	87.71
787.6	87.05
787.8	87.12
788.0	89.82
788.2	88.87
788.4	88.61
788.6	87.50
788.8	85.74
789.0	84.15
789.2	85.71
789.4	85.85
789.6	86.54
789.8	86.75
790.0	86.25
790.2	85.77
790.4	85.44
790.6	84.64
790.8	83.47
791.0	82.46
791.2	81.41
791.4	80.51
791.6	80.01
791.8	80.73
792.0	79.98
792.2	80.08
792.4	80.85
792.6	79.32
792.8	78.33
793.0	76.56
793.2	75.91
793.4	75.58
793.6	77.52
793.8	78.83
794.0	79.90
794.2	79.90
794.4	79.80
794.6	78.24
794.8	78.00
795.0	77.62
795.2	77.62
795.4	78.18
795.6	75.68
795.8	74.12
796.0	73.47
796.2	73.93
796.4	74.63
796.6	74.46
796.8	72.06
797.0	71.74
797.2	71.89
797.4	73.31
797.6	73.62
797.8	73.63
798.0	73.27
798.2	73.02
798.4	72.39
798.6	70.37
798.8	69.28
799.0	69.71
799.2	70.67
799.4	71.76
799.6	72.13
799.8	70.60
800.0	70.69
800.2	69.66
800.4	68.74
800.6	69.90
800.8	69.60
801.0	68.43
801.2	67.81
801.4	66.26
801.6	65.79
801.8	66.98
802.0	67.49
802.2	67.21
802.4	66.30
802.6	66.00
802.8	65.94
803.0	65.52
803.2	65.44
803.4	64.81
803.6	62.90
803.8	61.97
804.0	61.58
804.2	61.89
804.4	62.76
804.6	62.77
804.8	61.94
805.0	62.14
805.2	62.55
805.4	62.94
805.6	62.95
805.8	62.34
806.0	61.79
806.2	61.01
806.4	61.15
806.6	60.80
806.8	60.87
807.0	61.58
807.2	61.38
807.4	60.37
807.6	59.97
807.8	59.61
808.0	60.60
808.2	60.16
808.4	59.30
808.6	57.86
808.8	56.48
809.0	56.46
809.2	56.85
809.4	56.80
809.6	56.80
809.8	57.41
810.0	57.40
810.2	56.36
810.4	54.63
810.6	54.76
810.8	54.42
811.0	55.23
811.2	54.69
811.4	53.49
811.6	53.10
811.8	52.58
812.0	51.79
812.2	51.09
812.4	49.97
812.6	50.49
812.8	52.39
813.0	52.04
813.2	51.78
813.4	51.58
813.6	50.59
813.8	50.89
814.0	51.53
814.2	50.83
814.4	50.31
814.6	49.68
814.8	48.72
815.0	48.19
815.2	48.03
815.4	47.96
815.6	48.26
815.8	48.94
816.0	49.16
816.2	48.72
816.4	47.86
816.6	46.48
816.8	45.73
817.0	44.22
817.2	44.18
817.4	44.69
817.6	45.64
817.8	45.74
818.0	46.25
818.2	44.43
818.4	44.56
818.6	44.44
818.8	43.90
819.0	42.08
819.2	41.92
819.4	41.32
819.6	41.31
819.8	41.73
820.0	41.83
820.2	41.00
820.4	40.88
820.6	39.62
820.8	38.72
821.0	38.95
821.2	38.92
821.4	39.43
821.6	39.73
821.8	38.33
822.0	37.44
822.2	36.94
822.4	36.37
822.6	35.94
822.8	36.98
823.0	37.48
823.2	37.23
823.4	36.71
823.6	36.26
823.8	34.80
824.0	35.13
824.2	35.71
824.4	35.65
824.6	35.52
824.8	35.51
825.0	34.42
825.2	33.09
825.4	32.20
825.6	31.85
825.8	32.04
826.0	32.81
826.2	32.36
826.4	32.42
826.6	32.92
826.8	33.42
827.0	32.73
827.2	31.44
827.4	29.72
827.6	29.57
827.8	30.45
828.0	30.75
828.2	29.73
828.4	29.20
828.6	28.65
828.8	28.97
829.0	28.86
829.2	28.32
829.4	27.30
829.6	27.15
829.8	26.70
830.0	26.69
830.2	25.89
830.4	26.00
830.6	26.03
830.8	25.82
831.0	25.86
831.2	25.18
831.4	24.70
831.6	24.23
831.8	24.62
832.0	23.79
832.2	24.31
832.4	24.35
832.6	23.82
832.8	23.12
833.0	23.04
833.2	22.01
833.4	23.03
833.6	23.42
833.8	22.59
834.0	21.91
834.2	21.06
834.4	20.11
834.6	20.64
834.8	20.36
835.0	20.08
835.2	20.70
835.4	20.53
835.6	19.33
835.8	19.07
836.0	18.20
836.2	17.84
836.4	17.99
836.6	18.21
836.8	18.76
837.0	18.65
837.2	18.06
837.4	17.17
837.6	16.75
837.8	16.94
838.0	17.40
838.2	16.85
838.4	16.02
838.6	15.38
838.8	15.21
839.0	14.98
839.2	14.72
839.4	14.36
839.6	13.94
839.8	14.57
840.0	14.65
840.2	15.12
840.4	14.86
840.6	14.16
840.8	13.45
841.0	13.21
841.2	12.83
841.4	12.82
841.6	12.44
841.8	12.54
842.0	12.45
842.2	12.02
842.4	11.72
842.6	11.36
842.8	11.05
843.0	11.64
843.2	12.17
843.4	12.17
843.6	12.03
843.8	11.14
844.0	10.77
844.2	10.73
844.4	10.88
844.6	10.88
844.8	10.67
845.0	10.25
845.2	10.45
845.4	9.855
845.6	9.738
845.8	9.730
846.0	9.373
846.2	9.494
846.4	9.649
846.6	9.468
846.8	9.447
847.0	9.291
847.2	8.808
