Sample:	'20211010A(EM)
File name:	R-NI-CDS-100-S2- 20h.FDS
Run date:	'08:23:27, 03/23/2023
Operator:	Administrator
Comment:	'

Instrument
Model:	F-4700 FL Spectrophotometer
Serial number:	2019-001
ROM Version:	5J24010 00

Instrument parameters
Measurement type:	Wavelength scan
Scan mode:	Emission
Data mode:	Fluorescence
EX WL:	530.0 nm
EM  Start WL:	550.0 nm
EM  End WL:	900.0 nm
Scan speed:	1200 nm/min
Delay:	0.0 s
EX Slit:	10.0 nm
EM Slit:	10.0 nm
PMT Voltage:	640 V
Response:	0.002 s
Corrected spectra:	Off
Shutter control:	On

Processing performed
Savitsky-Golay smoothed
Smoothing order:	3
Number of points:	7
Number of times:	1

Peak integration
Integration method:	Rectangular
Sensitivity:	1
Threshold:	1.000

Peaks
No.	Start(nm)	Apex(nm)	End(nm)	Height(Data)	Valley(nm)	Valley(Data)
1	550.0	618.6	619.4	6594	619.4	6561
2	619.4	621.4	764.0	6617	764.0	181.3
3	764.0	764.6	770.2	185.7	770.2	147.3
4	770.2	771.2	785.8	150.5	785.8	93.80
5	785.8	786.8	790.0	95.58	790.0	84.73
6	790.0	790.6	792.2	86.83	792.2	79.75
7	792.2	792.6	796.2	82.15	796.2	74.31
8	796.2	797.2	802.6	76.18	802.6	65.74
9	802.6	803.6	805.4	69.31	805.4	62.02
10	805.4	806.2	826.4	64.03	826.4	30.09
11	826.4	827.4	840.8	33.77	840.8	13.57
12	840.8	842.0	852.6	14.71	852.6	5.198
13	852.6	853.2	856.0	6.206	856.0	4.701
14	856.0	856.8	863.4	5.840	863.4	3.395
15	863.4	865.0	866.4	4.861	866.4	3.232
16	866.4	868.6	877.0	4.274	877.0	2.673
17	877.0	879.4	886.6	3.948	886.6	2.618
18	886.6	890.4	897.6	3.865	897.6	2.671

Data points
nm	Data
550.0	456.5
550.2	457.8
550.4	461.3
550.6	466.2
550.8	470.0
551.0	473.3
551.2	482.0
551.4	491.0
551.6	498.7
551.8	504.2
552.0	509.9
552.2	514.0
552.4	522.8
552.6	533.8
552.8	543.6
553.0	545.8
553.2	548.3
553.4	553.5
553.6	557.5
553.8	564.9
554.0	578.6
554.2	582.7
554.4	590.4
554.6	599.3
554.8	605.3
555.0	614.6
555.2	624.4
555.4	628.4
555.6	642.2
555.8	651.8
556.0	659.9
556.2	667.2
556.4	675.1
556.6	682.4
556.8	695.0
557.0	705.9
557.2	713.4
557.4	720.7
557.6	728.6
557.8	737.2
558.0	747.5
558.2	758.0
558.4	762.5
558.6	777.5
558.8	790.0
559.0	806.9
559.2	820.8
559.4	826.5
559.6	828.4
559.8	838.8
560.0	847.4
560.2	863.4
560.4	879.4
560.6	891.6
560.8	901.5
561.0	910.1
561.2	918.7
561.4	926.7
561.6	941.6
561.8	957.9
562.0	972.7
562.2	986.1
562.4	996.3
562.6	1003
562.8	1017
563.0	1030
563.2	1047
563.4	1064
563.6	1083
563.8	1096
564.0	1104
564.2	1116
564.4	1133
564.6	1150
564.8	1170
565.0	1181
565.2	1186
565.4	1204
565.6	1219
565.8	1234
566.0	1248
566.2	1260
566.4	1279
566.6	1295
566.8	1313
567.0	1327
567.2	1339
567.4	1353
567.6	1375
567.8	1387
568.0	1403
568.2	1413
568.4	1433
568.6	1456
568.8	1480
569.0	1493
569.2	1506
569.4	1521
569.6	1540
569.8	1565
570.0	1593
570.2	1606
570.4	1623
570.6	1642
570.8	1661
571.0	1675
571.2	1693
571.4	1707
571.6	1722
571.8	1749
572.0	1778
572.2	1794
572.4	1812
572.6	1831
572.8	1855
573.0	1880
573.2	1904
573.4	1924
573.6	1941
573.8	1954
574.0	1970
574.2	1984
574.4	2009
574.6	2037
574.8	2071
575.0	2098
575.2	2116
575.4	2134
575.6	2148
575.8	2165
576.0	2197
576.2	2224
576.4	2242
576.6	2266
576.8	2276
577.0	2306
577.2	2339
577.4	2364
577.6	2388
577.8	2409
578.0	2424
578.2	2456
578.4	2482
578.6	2504
578.8	2531
579.0	2547
579.2	2563
579.4	2592
579.6	2617
579.8	2643
580.0	2678
580.2	2709
580.4	2738
580.6	2769
580.8	2786
581.0	2799
581.2	2820
581.4	2837
581.6	2862
581.8	2892
582.0	2919
582.2	2953
582.4	2983
582.6	3017
582.8	3054
583.0	3079
583.2	3104
583.4	3127
583.6	3137
583.8	3163
584.0	3189
584.2	3221
584.4	3261
584.6	3296
584.8	3314
585.0	3332
585.2	3359
585.4	3403
585.6	3425
585.8	3445
586.0	3463
586.2	3479
586.4	3503
586.6	3537
586.8	3562
587.0	3600
587.2	3637
587.4	3669
587.6	3693
587.8	3708
588.0	3738
588.2	3774
588.4	3803
588.6	3837
588.8	3868
589.0	3893
589.2	3924
589.4	3942
589.6	3952
589.8	3964
590.0	3985
590.2	4025
590.4	4061
590.6	4089
590.8	4122
591.0	4145
591.2	4173
591.4	4212
591.6	4231
591.8	4255
592.0	4286
592.2	4312
592.4	4344
592.6	4378
592.8	4407
593.0	4441
593.2	4465
593.4	4489
593.6	4509
593.8	4533
594.0	4569
594.2	4593
594.4	4606
594.6	4623
594.8	4634
595.0	4663
595.2	4707
595.4	4744
595.6	4775
595.8	4799
596.0	4820
596.2	4837
596.4	4870
596.6	4909
596.8	4943
597.0	4971
597.2	5004
597.4	5020
597.6	5041
597.8	5059
598.0	5080
598.2	5096
598.4	5119
598.6	5141
598.8	5175
599.0	5203
599.2	5231
599.4	5256
599.6	5275
599.8	5296
600.0	5328
600.2	5346
600.4	5360
600.6	5387
600.8	5404
601.0	5442
601.2	5468
601.4	5478
601.6	5489
601.8	5504
602.0	5525
602.2	5568
602.4	5603
602.6	5621
602.8	5633
603.0	5651
603.2	5658
603.4	5679
603.6	5710
603.8	5738
604.0	5760
604.2	5786
604.4	5783
604.6	5797
604.8	5821
605.0	5856
605.2	5878
605.4	5895
605.6	5904
605.8	5930
606.0	5956
606.2	5979
606.4	5987
606.6	5990
606.8	5994
607.0	6018
607.2	6048
607.4	6086
607.6	6101
607.8	6094
608.0	6100
608.2	6122
608.4	6149
608.6	6185
608.8	6193
609.0	6170
609.2	6176
609.4	6196
609.6	6209
609.8	6225
610.0	6246
610.2	6252
610.4	6273
610.6	6298
610.8	6320
611.0	6336
611.2	6345
611.4	6345
611.6	6354
611.8	6360
612.0	6375
612.2	6391
612.4	6390
612.6	6393
612.8	6414
613.0	6423
613.2	6441
613.4	6456
613.6	6451
613.8	6439
614.0	6452
614.2	6467
614.4	6496
614.6	6513
614.8	6521
615.0	6521
615.2	6519
615.4	6527
615.6	6541
615.8	6536
616.0	6536
616.2	6542
616.4	6543
616.6	6545
616.8	6552
617.0	6563
617.2	6564
617.4	6563
617.6	6568
617.8	6548
618.0	6554
618.2	6574
618.4	6585
618.6	6594
618.8	6592
619.0	6570
619.2	6563
619.4	6561
619.6	6562
619.8	6571
620.0	6578
620.2	6591
620.4	6597
620.6	6615
620.8	6613
621.0	6604
621.2	6600
621.4	6617
621.6	6602
621.8	6612
622.0	6603
622.2	6592
622.4	6590
622.6	6595
622.8	6581
623.0	6594
623.2	6590
623.4	6590
623.6	6588
623.8	6574
624.0	6555
624.2	6540
624.4	6532
624.6	6536
624.8	6539
625.0	6525
625.2	6513
625.4	6504
625.6	6512
625.8	6518
626.0	6513
626.2	6507
626.4	6498
626.6	6489
626.8	6486
627.0	6470
627.2	6459
627.4	6454
627.6	6436
627.8	6436
628.0	6432
628.2	6428
628.4	6426
628.6	6419
628.8	6407
629.0	6404
629.2	6401
629.4	6399
629.6	6390
629.8	6382
630.0	6363
630.2	6352
630.4	6335
630.6	6324
630.8	6319
631.0	6315
631.2	6297
631.4	6302
631.6	6295
631.8	6283
632.0	6274
632.2	6252
632.4	6217
632.6	6208
632.8	6192
633.0	6182
633.2	6170
633.4	6157
633.6	6133
633.8	6118
634.0	6096
634.2	6096
634.4	6091
634.6	6094
634.8	6077
635.0	6058
635.2	6034
635.4	6026
635.6	6024
635.8	6014
636.0	6001
636.2	5974
636.4	5954
636.6	5940
636.8	5921
637.0	5905
637.2	5887
637.4	5867
637.6	5853
637.8	5850
638.0	5834
638.2	5822
638.4	5795
638.6	5776
638.8	5752
639.0	5743
639.2	5734
639.4	5722
639.6	5710
639.8	5697
640.0	5676
640.2	5653
640.4	5637
640.6	5614
640.8	5609
641.0	5606
641.2	5597
641.4	5577
641.6	5548
641.8	5524
642.0	5507
642.2	5502
642.4	5493
642.6	5475
642.8	5450
643.0	5432
643.2	5411
643.4	5402
643.6	5377
643.8	5350
644.0	5323
644.2	5309
644.4	5300
644.6	5303
644.8	5281
645.0	5251
645.2	5220
645.4	5191
645.6	5186
645.8	5190
646.0	5182
646.2	5157
646.4	5123
646.6	5089
646.8	5076
647.0	5072
647.2	5063
647.4	5057
647.6	5041
647.8	5014
648.0	4985
648.2	4962
648.4	4929
648.6	4913
648.8	4899
649.0	4878
649.2	4867
649.4	4861
649.6	4843
649.8	4823
650.0	4815
650.2	4809
650.4	4797
650.6	4780
650.8	4752
651.0	4721
651.2	4704
651.4	4694
651.6	4684
651.8	4664
652.0	4652
652.2	4627
652.4	4606
652.6	4585
652.8	4568
653.0	4546
653.2	4525
653.4	4505
653.6	4490
653.8	4477
654.0	4455
654.2	4439
654.4	4418
654.6	4398
654.8	4386
655.0	4368
655.2	4350
655.4	4331
655.6	4322
655.8	4304
656.0	4292
656.2	4271
656.4	4258
656.6	4233
656.8	4219
657.0	4200
657.2	4176
657.4	4145
657.6	4121
657.8	4091
658.0	4074
658.2	4063
658.4	4051
658.6	4039
658.8	4031
659.0	4010
659.2	4000
659.4	3985
659.6	3962
659.8	3952
660.0	3938
660.2	3916
660.4	3904
660.6	3882
660.8	3851
661.0	3844
661.2	3822
661.4	3794
661.6	3776
661.8	3752
662.0	3731
662.2	3730
662.4	3721
662.6	3702
662.8	3684
663.0	3668
663.2	3660
663.4	3650
663.6	3636
663.8	3613
664.0	3581
664.2	3561
664.4	3543
664.6	3528
664.8	3526
665.0	3520
665.2	3497
665.4	3485
665.6	3456
665.8	3437
666.0	3423
666.2	3402
666.4	3386
666.6	3370
666.8	3344
667.0	3333
667.2	3316
667.4	3293
667.6	3286
667.8	3266
668.0	3254
668.2	3242
668.4	3234
668.6	3212
668.8	3196
669.0	3179
669.2	3163
669.4	3136
669.6	3117
669.8	3101
670.0	3085
670.2	3084
670.4	3075
670.6	3060
670.8	3046
671.0	3031
671.2	2998
671.4	2986
671.6	2972
671.8	2958
672.0	2946
672.2	2930
672.4	2909
672.6	2904
672.8	2892
673.0	2876
673.2	2855
673.4	2828
673.6	2819
673.8	2807
674.0	2805
674.2	2803
674.4	2791
674.6	2772
674.8	2766
675.0	2742
675.2	2724
675.4	2705
675.6	2679
675.8	2661
676.0	2658
676.2	2648
676.4	2637
676.6	2632
676.8	2612
677.0	2584
677.2	2573
677.4	2560
677.6	2550
677.8	2544
678.0	2532
678.2	2516
678.4	2500
678.6	2491
678.8	2477
679.0	2459
679.2	2448
679.4	2440
679.6	2428
679.8	2423
680.0	2403
680.2	2383
680.4	2363
680.6	2349
680.8	2343
681.0	2336
681.2	2324
681.4	2310
681.6	2293
681.8	2280
682.0	2265
682.2	2253
682.4	2247
682.6	2236
682.8	2226
683.0	2218
683.2	2209
683.4	2190
683.6	2173
683.8	2156
684.0	2143
684.2	2133
684.4	2134
684.6	2126
684.8	2109
685.0	2091
685.2	2083
685.4	2068
685.6	2059
685.8	2046
686.0	2025
686.2	2006
686.4	1998
686.6	1984
686.8	1977
687.0	1971
687.2	1964
687.4	1953
687.6	1947
687.8	1930
688.0	1929
688.2	1920
688.4	1911
688.6	1892
688.8	1896
689.0	1885
689.2	1885
689.4	1872
689.6	1849
689.8	1820
690.0	1815
690.2	1804
690.4	1798
690.6	1794
690.8	1785
691.0	1783
691.2	1773
691.4	1759
691.6	1749
691.8	1739
692.0	1729
692.2	1722
692.4	1701
692.6	1682
692.8	1683
693.0	1684
693.2	1680
693.4	1670
693.6	1663
693.8	1650
694.0	1642
694.2	1632
694.4	1617
694.6	1598
694.8	1594
695.0	1591
695.2	1586
695.4	1579
695.6	1568
695.8	1557
696.0	1548
696.2	1544
696.4	1538
696.6	1535
696.8	1525
697.0	1521
697.2	1512
697.4	1495
697.6	1485
697.8	1479
698.0	1471
698.2	1466
698.4	1459
698.6	1444
698.8	1443
699.0	1438
699.2	1437
699.4	1428
699.6	1419
699.8	1409
700.0	1402
700.2	1398
700.4	1394
700.6	1387
700.8	1381
701.0	1370
701.2	1360
701.4	1349
701.6	1336
701.8	1326
702.0	1324
702.2	1327
702.4	1325
702.6	1325
702.8	1317
703.0	1304
703.2	1300
703.4	1298
703.6	1292
703.8	1291
704.0	1279
704.2	1268
704.4	1261
704.6	1254
704.8	1252
705.0	1246
705.2	1238
705.4	1229
705.6	1220
705.8	1214
706.0	1203
706.2	1197
706.4	1190
706.6	1187
706.8	1186
707.0	1180
707.2	1169
707.4	1162
707.6	1155
707.8	1153
708.0	1152
708.2	1148
708.4	1139
708.6	1122
708.8	1113
709.0	1106
709.2	1111
709.4	1115
709.6	1110
709.8	1098
710.0	1087
710.2	1075
710.4	1071
710.6	1069
710.8	1062
711.0	1055
711.2	1050
711.4	1047
711.6	1044
711.8	1039
712.0	1035
712.2	1031
712.4	1027
712.6	1021
712.8	1010
713.0	1000
713.2	996.5
713.4	989.0
713.6	985.0
713.8	975.3
714.0	961.3
714.2	959.3
714.4	955.1
714.6	951.2
714.8	951.9
715.0	951.4
715.2	945.7
715.4	944.4
715.6	934.0
715.8	921.5
716.0	910.2
716.2	906.4
716.4	902.7
716.6	900.7
716.8	895.1
717.0	888.2
717.2	882.4
717.4	881.9
717.6	876.8
717.8	868.4
718.0	858.9
718.2	852.5
718.4	846.6
718.6	843.7
718.8	841.2
719.0	835.1
719.2	830.9
719.4	825.8
719.6	822.9
719.8	815.5
720.0	813.2
720.2	805.5
720.4	799.4
720.6	790.5
720.8	787.6
721.0	780.0
721.2	782.5
721.4	778.4
721.6	773.9
721.8	764.8
722.0	755.2
722.2	749.5
722.4	749.0
722.6	744.5
722.8	738.9
723.0	734.2
723.2	726.4
723.4	726.7
723.6	720.4
723.8	715.8
724.0	709.9
724.2	709.1
724.4	701.7
724.6	699.5
724.8	690.3
725.0	686.9
725.2	680.5
725.4	672.6
725.6	666.8
725.8	659.7
726.0	657.1
726.2	659.2
726.4	654.7
726.6	650.3
726.8	648.8
727.0	638.2
727.2	634.9
727.4	630.8
727.6	625.2
727.8	623.4
728.0	619.5
728.2	613.0
728.4	610.6
728.6	607.7
728.8	607.2
729.0	606.9
729.2	601.0
729.4	596.9
729.6	592.8
729.8	585.0
730.0	579.3
730.2	578.4
730.4	573.7
730.6	569.4
730.8	565.1
731.0	555.5
731.2	551.1
731.4	551.1
731.6	549.6
731.8	547.3
732.0	544.1
732.2	537.4
732.4	530.7
732.6	527.9
732.8	525.4
733.0	525.0
733.2	525.0
733.4	520.6
733.6	513.8
733.8	508.5
734.0	505.8
734.2	505.9
734.4	508.2
734.6	501.8
734.8	495.0
735.0	487.9
735.2	484.0
735.4	480.0
735.6	478.9
735.8	477.9
736.0	474.7
736.2	473.4
736.4	472.1
736.6	469.2
736.8	463.6
737.0	458.7
737.2	447.2
737.4	442.9
737.6	443.0
737.8	444.8
738.0	443.4
738.2	440.4
738.4	434.5
738.6	432.4
738.8	432.5
739.0	431.2
739.2	429.0
739.4	424.2
739.6	420.7
739.8	416.2
740.0	412.3
740.2	406.6
740.4	406.9
740.6	401.0
740.8	403.4
741.0	404.3
741.2	401.7
741.4	397.7
741.6	398.6
741.8	389.4
742.0	385.4
742.2	381.1
742.4	378.8
742.6	379.2
742.8	380.8
743.0	378.2
743.2	375.6
743.4	369.9
743.6	365.7
743.8	362.6
744.0	362.6
744.2	359.1
744.4	356.7
744.6	353.5
744.8	353.5
745.0	354.4
745.2	352.2
745.4	347.8
745.6	342.1
745.8	337.1
746.0	336.8
746.2	336.4
746.4	332.3
746.6	331.3
746.8	327.3
747.0	324.6
747.2	324.3
747.4	322.7
747.6	320.8
747.8	318.8
748.0	317.7
748.2	315.5
748.4	310.5
748.6	306.6
748.8	305.3
749.0	303.3
749.2	305.8
749.4	306.9
749.6	303.2
749.8	304.5
750.0	304.5
750.2	298.6
750.4	292.9
750.6	286.7
750.8	281.5
751.0	282.7
751.2	281.8
751.4	280.9
751.6	279.2
751.8	275.5
752.0	273.3
752.2	272.9
752.4	273.4
752.6	273.8
752.8	273.0
753.0	269.6
753.2	266.4
753.4	263.7
753.6	262.5
753.8	260.1
754.0	259.6
754.2	259.8
754.4	258.5
754.6	255.8
754.8	255.0
755.0	253.3
755.2	253.6
755.4	251.6
755.6	246.7
755.8	242.0
756.0	241.9
756.2	239.3
756.4	236.5
756.6	234.1
756.8	233.2
757.0	231.6
757.2	233.2
757.4	231.7
757.6	229.0
757.8	230.4
758.0	230.9
758.2	228.5
758.4	225.5
758.6	225.8
758.8	222.0
759.0	220.1
759.2	217.1
759.4	214.2
759.6	211.8
759.8	214.9
760.0	213.6
760.2	212.2
760.4	208.1
760.6	206.8
760.8	205.9
761.0	206.4
761.2	206.3
761.4	204.9
761.6	199.5
761.8	196.3
762.0	194.7
762.2	195.1
762.4	196.5
762.6	197.3
762.8	195.2
763.0	193.8
763.2	190.5
763.4	186.2
763.6	183.7
763.8	182.6
764.0	181.3
764.2	183.6
764.4	184.2
764.6	185.7
764.8	184.6
765.0	183.1
765.2	181.9
765.4	180.9
765.6	180.3
765.8	178.0
766.0	175.2
766.2	171.6
766.4	170.0
766.6	168.6
766.8	169.1
767.0	167.3
767.2	166.4
767.4	163.7
767.6	163.2
767.8	161.7
768.0	161.1
768.2	160.6
768.4	158.3
768.6	156.2
768.8	158.1
769.0	156.2
769.2	154.7
769.4	153.6
769.6	151.5
769.8	149.0
770.0	148.8
770.2	147.3
770.4	147.9
770.6	148.2
770.8	149.6
771.0	149.7
771.2	150.5
771.4	147.6
771.6	144.4
771.8	142.1
772.0	141.0
772.2	140.6
772.4	142.3
772.6	140.3
772.8	137.9
773.0	134.7
773.2	131.4
773.4	128.5
773.6	129.9
773.8	130.6
774.0	132.2
774.2	131.7
774.4	130.5
774.6	127.8
774.8	128.0
775.0	127.0
775.2	125.8
775.4	123.7
775.6	121.9
775.8	121.4
776.0	121.8
776.2	121.2
776.4	119.8
776.6	119.0
776.8	117.0
777.0	116.9
777.2	118.1
777.4	117.7
777.6	117.6
777.8	118.8
778.0	115.5
778.2	115.0
778.4	114.5
778.6	113.8
778.8	114.8
779.0	115.0
779.2	113.1
779.4	112.6
779.6	111.5
779.8	110.5
780.0	109.5
780.2	108.1
780.4	109.1
780.6	109.1
780.8	109.7
781.0	108.9
781.2	106.2
781.4	104.9
781.6	105.7
781.8	104.2
782.0	102.7
782.2	100.9
782.4	100.8
782.6	102.3
782.8	103.6
783.0	103.9
783.2	102.7
783.4	100.7
783.6	99.37
783.8	100.2
784.0	100.1
784.2	101.3
784.4	100.7
784.6	99.31
784.8	97.98
785.0	96.33
785.2	94.91
785.4	93.85
785.6	93.87
785.8	93.80
786.0	95.01
786.2	94.67
786.4	95.06
786.6	94.54
786.8	95.58
787.0	95.34
787.2	94.22
787.4	92.00
787.6	89.57
787.8	88.89
788.0	88.63
788.2	87.47
788.4	88.06
788.6	88.06
788.8	87.45
789.0	88.17
789.2	87.44
789.4	85.00
789.6	85.08
789.8	85.88
790.0	84.73
790.2	85.35
790.4	85.94
790.6	86.83
790.8	86.31
791.0	86.42
791.2	83.61
791.4	83.26
791.6	81.74
791.8	80.72
792.0	80.16
792.2	79.75
792.4	80.53
792.6	82.15
792.8	82.09
793.0	81.52
793.2	80.65
793.4	79.24
793.6	79.23
793.8	77.75
794.0	78.50
794.2	80.25
794.4	80.92
794.6	80.31
794.8	78.80
795.0	76.53
795.2	76.88
795.4	77.07
795.6	76.94
795.8	75.26
796.0	74.38
796.2	74.31
796.4	75.39
796.6	75.66
796.8	75.83
797.0	76.03
797.2	76.18
797.4	75.45
797.6	75.21
797.8	74.73
798.0	72.98
798.2	73.22
798.4	73.61
798.6	73.12
798.8	73.69
799.0	74.39
799.2	73.26
799.4	74.06
799.6	73.03
799.8	71.01
800.0	70.51
800.2	69.74
800.4	69.83
800.6	69.66
800.8	68.91
801.0	69.57
801.2	70.21
801.4	69.39
801.6	69.84
801.8	68.63
802.0	66.77
802.2	66.97
802.4	67.00
802.6	65.74
802.8	66.15
803.0	66.43
803.2	66.31
803.4	68.22
803.6	69.31
803.8	67.52
804.0	67.32
804.2	67.27
804.4	66.74
804.6	67.13
804.8	65.37
805.0	63.01
805.2	62.04
805.4	62.02
805.6	62.13
805.8	62.80
806.0	63.33
806.2	64.03
806.4	63.38
806.6	62.19
806.8	60.40
807.0	59.76
807.2	60.43
807.4	62.33
807.6	62.87
807.8	61.35
808.0	59.90
808.2	59.40
808.4	58.40
808.6	58.47
808.8	58.68
809.0	58.78
809.2	59.08
809.4	59.20
809.6	57.76
809.8	55.71
810.0	56.17
810.2	57.13
810.4	56.43
810.6	56.19
810.8	55.99
811.0	55.89
811.2	56.99
811.4	56.26
811.6	54.38
811.8	53.59
812.0	53.75
812.2	54.28
812.4	54.30
812.6	53.37
812.8	53.04
813.0	52.97
813.2	52.95
813.4	52.90
813.6	52.11
813.8	51.15
814.0	50.84
814.2	50.02
814.4	49.82
814.6	50.67
814.8	50.36
815.0	49.05
815.2	48.98
815.4	48.60
815.6	49.01
815.8	49.25
816.0	48.44
816.2	46.43
816.4	45.80
816.6	46.94
816.8	47.96
817.0	48.65
817.2	46.63
817.4	43.74
817.6	43.45
817.8	44.03
818.0	45.84
818.2	47.39
818.4	46.40
818.6	45.94
818.8	45.27
819.0	43.25
819.2	42.43
819.4	42.11
819.6	42.54
819.8	43.00
820.0	42.50
820.2	41.71
820.4	39.89
820.6	40.54
820.8	41.82
821.0	40.89
821.2	41.04
821.4	41.57
821.6	40.52
821.8	40.72
822.0	41.06
822.2	39.35
822.4	38.58
822.6	38.27
822.8	37.53
823.0	37.55
823.2	38.20
823.4	37.91
823.6	37.24
823.8	35.72
824.0	35.64
824.2	35.46
824.4	35.86
824.6	35.13
824.8	34.68
825.0	34.06
825.2	33.88
825.4	33.43
825.6	33.88
825.8	33.38
826.0	32.43
826.2	32.01
826.4	30.09
826.6	30.10
826.8	31.00
827.0	32.77
827.2	33.33
827.4	33.77
827.6	32.47
827.8	32.05
828.0	31.11
828.2	30.75
828.4	30.29
828.6	29.49
828.8	28.97
829.0	28.72
829.2	28.28
829.4	27.35
829.6	28.01
829.8	27.57
830.0	27.83
830.2	27.38
830.4	27.28
830.6	26.76
830.8	26.58
831.0	26.40
831.2	26.55
831.4	26.12
831.6	25.81
831.8	24.95
832.0	24.50
832.2	24.91
832.4	24.86
832.6	25.23
832.8	24.85
833.0	23.99
833.2	24.01
833.4	23.69
833.6	22.67
833.8	22.35
834.0	21.27
834.2	20.75
834.4	20.59
834.6	20.17
834.8	19.87
835.0	20.19
835.2	20.10
835.4	20.49
835.6	21.05
835.8	20.36
836.0	19.81
836.2	19.90
836.4	19.78
836.6	19.88
836.8	19.86
837.0	18.90
837.2	18.14
837.4	17.52
837.6	17.02
837.8	17.31
838.0	17.42
838.2	17.45
838.4	17.37
838.6	16.98
838.8	16.55
839.0	16.03
839.2	16.00
839.4	15.86
839.6	15.41
839.8	15.58
840.0	15.58
840.2	14.89
840.4	14.18
840.6	13.66
840.8	13.57
841.0	13.92
841.2	14.06
841.4	14.31
841.6	14.20
841.8	14.33
842.0	14.71
842.2	14.16
842.4	13.70
842.6	13.32
842.8	12.90
843.0	13.07
843.2	12.96
843.4	12.66
843.6	12.58
843.8	11.85
844.0	10.89
844.2	10.38
844.4	10.16
844.6	10.73
844.8	11.26
