Sample:	'20211010A(EM)
File name:	R-CDs 5.FDS
Run date:	'15:11:10, 06/09/2023
Operator:	Administrator
Comment:	'

Instrument
Model:	F-4700 FL Spectrophotometer
Serial number:	2019-001
ROM Version:	5J24010 00

Instrument parameters
Measurement type:	Wavelength scan
Scan mode:	Emission
Data mode:	Fluorescence
EX WL:	520.0 nm
EM  Start WL:	540.0 nm
EM  End WL:	800.0 nm
Scan speed:	1200 nm/min
Delay:	0.0 s
EX Slit:	10.0 nm
EM Slit:	10.0 nm
PMT Voltage:	650 V
Response:	0.002 s
Corrected spectra:	Off
Shutter control:	On

Processing performed
Savitsky-Golay smoothed
Smoothing order:	3
Number of points:	7
Number of times:	1

Peak integration
Integration method:	Rectangular
Sensitivity:	1
Threshold:	1.000

Peaks
No.	Start(nm)	Apex(nm)	End(nm)	Height(Data)	Valley(nm)	Valley(Data)
1	540.0	602.0	602.8	9552	602.8	9525
2	602.8	605.4	770.6	9602	770.6	97.08
3	770.6	771.2	772.0	102.5	772.0	92.64
4	772.0	772.6	775.0	96.79	775.0	85.77
5	775.0	774.8	777.8	87.78	777.8	76.21
6	777.8	778.6	784.0	79.94	784.0	64.22
7	784.0	785.0	785.8	68.23	785.8	60.13
8	785.8	786.4	791.2	66.88	791.2	55.39
9	791.2	792.2	793.2	58.12	793.2	51.53
10	793.2	793.8	795.8	54.11	795.8	49.31
11	795.8	796.6	800.0	52.02	800.0	46.13

Data points
nm	Data
540.0	867.5
540.2	870.4
540.4	882.3
540.6	898.6
540.8	914.4
541.0	915.5
541.2	929.0
541.4	943.9
541.6	966.5
541.8	985.7
542.0	1002
542.2	1000
542.4	1007
542.6	1013
542.8	1034
543.0	1052
543.2	1066
543.4	1074
543.6	1081
543.8	1092
544.0	1114
544.2	1138
544.4	1151
544.6	1171
544.8	1179
545.0	1191
545.2	1211
545.4	1228
545.6	1241
545.8	1254
546.0	1254
546.2	1269
546.4	1293
546.6	1312
546.8	1335
547.0	1347
547.2	1350
547.4	1364
547.6	1381
547.8	1395
548.0	1412
548.2	1429
548.4	1443
548.6	1463
548.8	1477
549.0	1501
549.2	1526
549.4	1549
549.6	1571
549.8	1590
550.0	1608
550.2	1636
550.4	1659
550.6	1689
550.8	1708
551.0	1726
551.2	1744
551.4	1747
551.6	1751
551.8	1779
552.0	1797
552.2	1823
552.4	1857
552.6	1879
552.8	1900
553.0	1921
553.2	1940
553.4	1962
553.6	1985
553.8	2008
554.0	2036
554.2	2063
554.4	2078
554.6	2094
554.8	2108
555.0	2131
555.2	2175
555.4	2212
555.6	2235
555.8	2260
556.0	2286
556.2	2308
556.4	2343
556.6	2371
556.8	2401
557.0	2437
557.2	2471
557.4	2503
557.6	2528
557.8	2548
558.0	2561
558.2	2575
558.4	2604
558.6	2645
558.8	2682
559.0	2716
559.2	2740
559.4	2765
559.6	2787
559.8	2816
560.0	2851
560.2	2886
560.4	2916
560.6	2954
560.8	2983
561.0	3022
561.2	3056
561.4	3088
561.6	3119
561.8	3152
562.0	3191
562.2	3233
562.4	3265
562.6	3287
562.8	3324
563.0	3360
563.2	3403
563.4	3442
563.6	3466
563.8	3494
564.0	3532
564.2	3576
564.4	3618
564.6	3655
564.8	3693
565.0	3723
565.2	3755
565.4	3804
565.6	3846
565.8	3896
566.0	3947
566.2	3982
566.4	4017
566.6	4054
566.8	4101
567.0	4147
567.2	4180
567.4	4220
567.6	4253
567.8	4286
568.0	4339
568.2	4382
568.4	4431
568.6	4490
568.8	4557
569.0	4609
569.2	4647
569.4	4673
569.6	4701
569.8	4738
570.0	4787
570.2	4851
570.4	4909
570.6	4955
570.8	4993
571.0	5031
571.2	5065
571.4	5121
571.6	5165
571.8	5202
572.0	5246
572.2	5282
572.4	5327
572.6	5366
572.8	5400
573.0	5448
573.2	5512
573.4	5569
573.6	5618
573.8	5663
574.0	5697
574.2	5741
574.4	5784
574.6	5841
574.8	5887
575.0	5941
575.2	5976
575.4	6034
575.6	6073
575.8	6125
576.0	6155
576.2	6180
576.4	6209
576.6	6262
576.8	6320
577.0	6390
577.2	6421
577.4	6479
577.6	6536
577.8	6567
578.0	6605
578.2	6642
578.4	6666
578.6	6722
578.8	6762
579.0	6800
579.2	6847
579.4	6878
579.6	6915
579.8	6965
580.0	7000
580.2	7039
580.4	7084
580.6	7144
580.8	7207
581.0	7283
581.2	7316
581.4	7328
581.6	7324
581.8	7342
582.0	7396
582.2	7443
582.4	7486
582.6	7508
582.8	7515
583.0	7545
583.2	7596
583.4	7642
583.6	7686
583.8	7700
584.0	7720
584.2	7771
584.4	7822
584.6	7874
584.8	7910
585.0	7935
585.2	7948
585.4	7982
585.6	8023
585.8	8052
586.0	8094
586.2	8126
586.4	8142
586.6	8167
586.8	8196
587.0	8221
587.2	8264
587.4	8305
587.6	8321
587.8	8358
588.0	8385
588.2	8426
588.4	8447
588.6	8477
588.8	8478
589.0	8509
589.2	8547
589.4	8596
589.6	8628
589.8	8652
590.0	8650
590.2	8665
590.4	8692
590.6	8702
590.8	8745
591.0	8772
591.2	8802
591.4	8836
591.6	8879
591.8	8883
592.0	8914
592.2	8901
592.4	8922
592.6	8938
592.8	8972
593.0	9006
593.2	9053
593.4	9067
593.6	9091
593.8	9093
594.0	9092
594.2	9106
594.4	9099
594.6	9120
594.8	9147
595.0	9196
595.2	9236
595.4	9273
595.6	9263
595.8	9266
596.0	9285
596.2	9291
596.4	9298
596.6	9317
596.8	9322
597.0	9328
597.2	9365
597.4	9360
597.6	9396
597.8	9422
598.0	9409
598.2	9392
598.4	9395
598.6	9391
598.8	9409
599.0	9430
599.2	9431
599.4	9446
599.6	9451
599.8	9453
600.0	9440
600.2	9445
600.4	9463
600.6	9490
600.8	9503
601.0	9518
601.2	9539
601.4	9549
601.6	9543
601.8	9548
602.0	9552
602.2	9551
602.4	9544
602.6	9534
602.8	9525
603.0	9548
603.2	9566
603.4	9575
603.6	9550
603.8	9555
604.0	9577
604.2	9602
604.4	9596
604.6	9596
604.8	9560
605.0	9562
605.2	9592
605.4	9602
605.6	9600
605.8	9594
606.0	9554
606.2	9565
606.4	9581
606.6	9577
606.8	9577
607.0	9555
607.2	9533
607.4	9551
607.6	9560
607.8	9578
608.0	9564
608.2	9545
608.4	9528
608.6	9510
608.8	9492
609.0	9493
609.2	9485
609.4	9506
609.6	9507
609.8	9499
610.0	9475
610.2	9473
610.4	9481
610.6	9498
610.8	9489
611.0	9467
611.2	9447
611.4	9438
611.6	9438
611.8	9431
612.0	9425
612.2	9405
612.4	9373
612.6	9358
612.8	9333
613.0	9312
613.2	9327
613.4	9327
613.6	9304
613.8	9301
614.0	9282
614.2	9266
614.4	9284
614.6	9282
614.8	9276
615.0	9248
615.2	9218
615.4	9179
615.6	9161
615.8	9155
616.0	9158
616.2	9147
616.4	9132
616.6	9120
616.8	9096
617.0	9076
617.2	9046
617.4	9028
617.6	9003
617.8	8994
618.0	8975
618.2	8961
618.4	8951
618.6	8933
618.8	8902
619.0	8872
619.2	8847
619.4	8829
619.6	8819
619.8	8796
620.0	8781
620.2	8749
620.4	8719
620.6	8679
620.8	8662
621.0	8649
621.2	8654
621.4	8628
621.6	8609
621.8	8592
622.0	8584
622.2	8583
622.4	8553
622.6	8504
622.8	8470
623.0	8441
623.2	8424
623.4	8420
623.6	8396
623.8	8367
624.0	8332
624.2	8284
624.4	8252
624.6	8221
624.8	8213
625.0	8223
625.2	8202
625.4	8183
625.6	8162
625.8	8127
626.0	8097
626.2	8076
626.4	8041
626.6	8009
626.8	7981
627.0	7960
627.2	7951
627.4	7947
627.6	7937
627.8	7892
628.0	7839
628.2	7799
628.4	7793
628.6	7801
628.8	7787
629.0	7753
629.2	7706
629.4	7665
629.6	7631
629.8	7605
630.0	7580
630.2	7553
630.4	7520
630.6	7500
630.8	7471
631.0	7451
631.2	7440
631.4	7443
631.6	7423
631.8	7388
632.0	7349
632.2	7317
632.4	7296
632.6	7276
632.8	7234
633.0	7193
633.2	7145
633.4	7115
633.6	7097
633.8	7077
634.0	7054
634.2	7047
634.4	7014
634.6	6980
634.8	6947
635.0	6924
635.2	6896
635.4	6880
635.6	6840
635.8	6805
636.0	6778
636.2	6739
636.4	6731
636.6	6717
636.8	6686
637.0	6657
637.2	6638
637.4	6606
637.6	6590
637.8	6556
638.0	6534
638.2	6493
638.4	6461
638.6	6440
638.8	6431
639.0	6399
639.2	6380
639.4	6351
639.6	6316
639.8	6284
640.0	6271
640.2	6213
640.4	6176
640.6	6154
640.8	6134
641.0	6115
641.2	6095
641.4	6058
641.6	6035
641.8	6010
642.0	5986
642.2	5960
642.4	5921
642.6	5881
642.8	5862
643.0	5847
643.2	5837
643.4	5819
643.6	5780
643.8	5731
644.0	5696
644.2	5681
644.4	5686
644.6	5682
644.8	5643
645.0	5600
645.2	5554
645.4	5523
645.6	5507
645.8	5495
646.0	5470
646.2	5450
646.4	5427
646.6	5403
646.8	5381
647.0	5362
647.2	5341
647.4	5314
647.6	5273
647.8	5232
648.0	5207
648.2	5182
648.4	5164
648.6	5146
648.8	5115
649.0	5085
649.2	5076
649.4	5041
649.6	5011
649.8	4984
650.0	4949
650.2	4938
650.4	4928
650.6	4903
650.8	4890
651.0	4854
651.2	4819
651.4	4799
651.6	4777
651.8	4751
652.0	4721
652.2	4682
652.4	4657
652.6	4648
652.8	4639
653.0	4617
653.2	4589
653.4	4558
653.6	4538
653.8	4522
654.0	4497
654.2	4473
654.4	4444
654.6	4399
654.8	4377
655.0	4353
655.2	4334
655.4	4327
655.6	4306
655.8	4272
656.0	4250
656.2	4233
656.4	4216
656.6	4192
656.8	4171
657.0	4137
657.2	4123
657.4	4106
657.6	4090
657.8	4052
658.0	4039
658.2	4019
658.4	4003
658.6	3984
658.8	3951
659.0	3905
659.2	3898
659.4	3881
659.6	3870
659.8	3854
660.0	3819
660.2	3793
660.4	3776
660.6	3750
660.8	3739
661.0	3715
661.2	3694
661.4	3695
661.6	3671
661.8	3649
662.0	3631
662.2	3604
662.4	3584
662.6	3573
662.8	3554
663.0	3534
663.2	3507
663.4	3486
663.6	3472
663.8	3458
664.0	3448
664.2	3423
664.4	3395
664.6	3369
664.8	3354
665.0	3335
665.2	3315
665.4	3298
665.6	3285
665.8	3266
666.0	3248
666.2	3221
666.4	3196
666.6	3184
666.8	3174
667.0	3163
667.2	3138
667.4	3117
667.6	3096
667.8	3078
668.0	3065
668.2	3045
668.4	3012
668.6	2983
668.8	2965
669.0	2946
669.2	2945
669.4	2941
669.6	2931
669.8	2919
670.0	2900
670.2	2870
670.4	2851
670.6	2837
670.8	2828
671.0	2826
671.2	2802
671.4	2781
671.6	2748
671.8	2733
672.0	2711
672.2	2696
672.4	2685
672.6	2677
672.8	2668
673.0	2659
673.2	2638
673.4	2616
673.6	2610
673.8	2596
674.0	2589
674.2	2569
674.4	2545
674.6	2515
674.8	2503
675.0	2482
675.2	2469
675.4	2453
675.6	2445
675.8	2426
676.0	2418
676.2	2394
676.4	2371
676.6	2361
676.8	2363
677.0	2350
677.2	2343
677.4	2333
677.6	2323
677.8	2314
678.0	2298
678.2	2267
678.4	2252
678.6	2239
678.8	2229
679.0	2216
679.2	2203
679.4	2187
679.6	2182
679.8	2165
680.0	2147
680.2	2128
680.4	2113
680.6	2098
680.8	2086
681.0	2079
681.2	2075
681.4	2066
681.6	2043
681.8	2017
682.0	1995
682.2	1977
682.4	1977
682.6	1979
682.8	1968
683.0	1958
683.2	1944
683.4	1917
683.6	1898
683.8	1890
684.0	1889
684.2	1878
684.4	1867
684.6	1861
684.8	1843
685.0	1826
685.2	1818
685.4	1801
685.6	1794
685.8	1802
686.0	1785
686.2	1764
686.4	1751
686.6	1737
686.8	1728
687.0	1725
687.2	1714
687.4	1709
687.6	1712
687.8	1701
688.0	1686
688.2	1664
688.4	1646
688.6	1635
688.8	1635
689.0	1637
689.2	1636
689.4	1616
689.6	1598
689.8	1575
690.0	1557
690.2	1554
690.4	1546
690.6	1538
690.8	1536
691.0	1530
691.2	1521
691.4	1500
691.6	1482
691.8	1472
692.0	1471
692.2	1470
692.4	1471
692.6	1456
692.8	1447
693.0	1436
693.2	1433
693.4	1422
693.6	1413
693.8	1402
694.0	1395
694.2	1378
694.4	1364
694.6	1352
694.8	1340
695.0	1335
695.2	1339
695.4	1336
695.6	1330
695.8	1330
696.0	1323
696.2	1306
696.4	1289
696.6	1274
696.8	1265
697.0	1265
697.2	1261
697.4	1255
697.6	1253
697.8	1244
698.0	1243
698.2	1236
698.4	1227
698.6	1218
698.8	1213
699.0	1203
699.2	1190
699.4	1181
699.6	1185
699.8	1183
700.0	1184
700.2	1176
700.4	1162
700.6	1152
700.8	1155
701.0	1151
701.2	1137
701.4	1124
701.6	1112
701.8	1105
702.0	1102
702.2	1102
702.4	1086
702.6	1080
702.8	1075
703.0	1075
703.2	1072
703.4	1074
703.6	1065
703.8	1057
704.0	1055
704.2	1050
704.4	1042
704.6	1035
704.8	1019
705.0	1013
705.2	1013
705.4	1015
705.6	1014
705.8	1012
706.0	993.2
706.2	986.9
706.4	978.3
706.6	973.8
706.8	966.6
707.0	970.4
707.2	962.2
707.4	952.7
707.6	947.9
707.8	942.9
708.0	935.5
708.2	930.4
708.4	929.0
708.6	913.4
708.8	907.9
709.0	904.6
709.2	901.1
709.4	889.5
709.6	887.6
709.8	878.8
710.0	868.8
710.2	863.3
710.4	861.4
710.6	853.8
710.8	850.1
711.0	844.9
711.2	839.6
711.4	834.7
711.6	832.4
711.8	825.4
712.0	818.2
712.2	812.2
712.4	811.3
712.6	810.8
712.8	807.4
713.0	800.4
713.2	798.9
713.4	795.4
713.6	795.8
713.8	788.8
714.0	771.6
714.2	758.2
714.4	752.8
714.6	755.2
714.8	765.4
715.0	758.0
715.2	747.9
715.4	735.5
715.6	723.1
715.8	721.0
716.0	722.5
716.2	718.3
716.4	721.5
716.6	722.4
716.8	715.4
717.0	706.6
717.2	690.4
717.4	680.5
717.6	673.2
717.8	672.1
718.0	671.7
718.2	673.1
718.4	662.0
718.6	662.6
718.8	655.6
719.0	653.6
719.2	650.0
719.4	642.9
719.6	634.6
719.8	632.2
720.0	631.5
720.2	633.3
720.4	629.8
720.6	617.4
720.8	608.6
721.0	599.6
721.2	601.4
721.4	599.2
721.6	598.6
721.8	592.8
722.0	581.6
722.2	577.7
722.4	577.4
722.6	569.5
722.8	572.9
723.0	571.4
723.2	566.7
723.4	563.6
723.6	557.8
723.8	544.4
724.0	538.9
724.2	530.8
724.4	528.5
724.6	526.8
724.8	528.5
725.0	527.4
725.2	524.5
725.4	520.6
725.6	513.8
725.8	503.8
726.0	498.7
726.2	494.2
726.4	489.0
726.6	485.9
726.8	486.6
727.0	484.8
727.2	486.4
727.4	485.0
727.6	476.2
727.8	467.6
728.0	464.7
728.2	459.1
728.4	457.7
728.6	458.9
728.8	457.6
729.0	455.2
729.2	450.5
729.4	447.7
729.6	446.1
729.8	440.8
730.0	440.3
730.2	435.0
730.4	425.8
730.6	423.4
730.8	418.8
731.0	411.7
731.2	413.1
731.4	413.5
731.6	411.6
731.8	407.3
732.0	403.2
732.2	398.4
732.4	398.5
732.6	396.6
732.8	398.6
733.0	396.6
733.2	391.8
733.4	380.3
733.6	372.2
733.8	366.5
734.0	372.5
734.2	374.8
734.4	378.2
734.6	372.4
734.8	365.2
735.0	360.4
735.2	357.3
735.4	353.2
735.6	351.9
735.8	349.5
736.0	343.8
736.2	342.6
736.4	341.3
736.6	337.5
736.8	332.2
737.0	330.9
737.2	325.0
737.4	323.0
737.6	324.3
737.8	323.3
738.0	323.8
738.2	323.2
738.4	319.9
738.6	318.1
738.8	315.1
739.0	311.3
739.2	308.3
739.4	306.0
739.6	303.8
739.8	301.3
740.0	298.1
740.2	296.5
740.4	298.1
740.6	298.0
740.8	294.9
741.0	289.3
741.2	287.8
741.4	284.9
741.6	285.8
741.8	284.8
742.0	281.5
742.2	278.4
742.4	280.9
742.6	277.3
742.8	276.1
743.0	269.1
743.2	262.7
743.4	257.9
743.6	260.7
743.8	262.9
744.0	263.7
744.2	261.3
744.4	257.0
744.6	254.8
744.8	253.2
745.0	254.1
745.2	250.8
745.4	249.8
745.6	242.5
745.8	240.9
746.0	237.1
746.2	236.7
746.4	236.3
746.6	234.6
746.8	229.8
747.0	230.3
747.2	229.6
747.4	229.5
747.6	228.3
747.8	226.5
748.0	223.8
748.2	222.3
748.4	221.6
748.6	221.2
748.8	221.0
749.0	219.4
749.2	215.7
749.4	209.3
749.6	209.5
749.8	209.9
750.0	211.6
750.2	208.2
750.4	203.6
750.6	201.1
750.8	202.5
751.0	201.1
751.2	200.0
751.4	197.9
751.6	197.8
751.8	197.4
752.0	194.1
752.2	190.6
752.4	186.8
752.6	185.9
752.8	189.4
753.0	191.3
753.2	186.8
753.4	186.0
753.6	182.2
753.8	178.8
754.0	178.9
754.2	180.3
754.4	178.4
754.6	180.2
754.8	176.3
755.0	172.0
755.2	166.8
755.4	165.7
755.6	168.5
755.8	168.9
756.0	167.4
756.2	166.4
756.4	162.1
756.6	164.3
756.8	164.3
757.0	163.8
757.2	163.3
757.4	161.8
757.6	157.8
757.8	158.6
758.0	156.0
758.2	153.9
758.4	152.1
758.6	150.0
758.8	149.5
759.0	148.5
759.2	149.0
759.4	147.2
759.6	146.0
759.8	146.5
760.0	147.1
760.2	143.1
760.4	144.5
760.6	143.2
760.8	139.4
761.0	139.9
761.2	139.2
761.4	137.1
761.6	140.8
761.8	141.9
762.0	137.7
762.2	135.3
762.4	132.5
762.6	132.1
762.8	130.6
763.0	131.2
763.2	129.6
763.4	127.7
763.6	127.3
763.8	128.7
764.0	126.6
764.2	126.9
764.4	126.0
764.6	125.0
764.8	124.9
765.0	124.5
765.2	125.0
765.4	124.2
765.6	122.4
765.8	117.8
766.0	116.9
766.2	115.5
766.4	115.9
766.6	113.4
766.8	112.1
767.0	111.5
767.2	115.7
767.4	117.0
767.6	116.6
767.8	112.6
768.0	109.1
768.2	106.5
768.4	107.2
768.6	107.9
768.8	108.8
769.0	110.4
769.2	108.9
769.4	105.9
769.6	104.5
769.8	102.6
770.0	101.0
770.2	100.1
770.4	98.02
770.6	97.08
770.8	98.53
771.0	99.65
771.2	102.5
771.4	102.1
771.6	99.42
771.8	94.80
772.0	92.64
772.2	92.71
772.4	96.26
772.6	96.79
772.8	95.98
773.0	95.13
773.2	94.22
773.4	94.45
773.6	94.17
773.8	89.90
774.0	87.14
774.2	87.00
774.4	86.98
774.6	87.20
774.8	87.78
775.0	85.77
775.2	85.99
775.4	87.28
775.6	87.50
775.8	87.69
776.0	85.70
776.2	82.97
776.4	82.75
776.6	82.45
776.8	83.75
777.0	85.68
777.2	83.64
777.4	79.83
777.6	78.70
777.8	76.21
778.0	78.04
778.2	79.46
778.4	79.48
778.6	79.94
778.8	78.99
779.0	77.72
779.2	78.29
779.4	77.33
779.6	77.22
779.8	76.93
780.0	73.93
780.2	73.23
780.4	71.01
780.6	71.86
780.8	71.72
781.0	71.87
781.2	71.05
781.4	71.98
781.6	69.94
781.8	70.33
782.0	68.93
782.2	69.19
782.4	68.82
782.6	69.63
782.8	68.61
783.0	68.16
783.2	65.99
783.4	66.33
783.6	66.04
783.8	65.48
784.0	64.22
784.2	64.70
784.4	65.12
784.6	67.69
784.8	68.21
785.0	68.23
785.2	65.31
785.4	63.19
785.6	62.00
785.8	60.13
786.0	62.85
786.2	66.09
786.4	66.88
786.6	66.09
786.8	63.75
787.0	60.22
787.2	62.63
787.4	62.77
787.6	63.09
787.8	62.31
788.0	59.96
788.2	58.63
788.4	60.22
788.6	58.80
788.8	59.65
789.0	59.57
789.2	58.69
789.4	58.92
789.6	59.89
789.8	57.37
790.0	56.91
790.2	57.20
790.4	58.78
790.6	60.14
790.8	59.54
791.0	57.50
791.2	55.39
791.4	55.41
791.6	56.01
791.8	57.11
792.0	57.37
792.2	58.12
792.4	57.45
792.6	55.61
792.8	53.02
793.0	52.14
793.2	51.53
793.4	52.52
793.6	53.81
793.8	54.11
794.0	53.86
794.2	53.69
794.4	53.09
794.6	51.74
794.8	51.54
795.0	51.91
795.2	50.44
795.4	50.66
795.6	50.31
795.8	49.31
796.0	51.09
796.2	51.17
796.4	50.39
796.6	52.02
796.8	51.79
797.0	50.59
797.2	51.13
797.4	48.77
797.6	47.97
797.8	47.57
798.0	47.65
798.2	47.78
798.4	48.06
798.6	48.27
798.8	48.78
799.0	47.08
799.2	46.19
799.4	46.33
799.6	45.89
799.8	45.75
800.0	46.13

