Sample:	'20211010A(EM)
File name:	R-CDs 8.FDS
Run date:	'15:23:54, 06/09/2023
Operator:	Administrator
Comment:	'

Instrument
Model:	F-4700 FL Spectrophotometer
Serial number:	2019-001
ROM Version:	5J24010 00

Instrument parameters
Measurement type:	Wavelength scan
Scan mode:	Emission
Data mode:	Fluorescence
EX WL:	520.0 nm
EM  Start WL:	540.0 nm
EM  End WL:	800.0 nm
Scan speed:	1200 nm/min
Delay:	0.0 s
EX Slit:	10.0 nm
EM Slit:	10.0 nm
PMT Voltage:	650 V
Response:	0.002 s
Corrected spectra:	Off
Shutter control:	On

Processing performed
Savitsky-Golay smoothed
Smoothing order:	3
Number of points:	7
Number of times:	1

Peak integration
Integration method:	Rectangular
Sensitivity:	1
Threshold:	1.000

Peaks
No.	Start(nm)	Apex(nm)	End(nm)	Height(Data)	Valley(nm)	Valley(Data)
1	540.0	603.0	603.6	8662	603.6	8631
2	603.6	604.6	605.4	8657	605.4	8605
3	605.4	607.2	768.6	8663	768.6	92.89
4	768.6	770.2	772.0	97.35	772.0	85.51
5	772.0	772.2	782.0	87.68	782.0	60.72
6	782.0	782.8	785.8	64.83	785.8	56.46
7	785.8	787.4	790.2	59.44	790.2	48.22
8	790.2	792.4	793.4	51.48	793.4	45.13
9	793.4	795.2	800.0	49.89	800.0	43.72

Data points
nm	Data
540.0	804.3
540.2	818.1
540.4	833.2
540.6	847.1
540.8	853.8
541.0	860.0
541.2	864.4
541.4	879.8
541.6	886.3
541.8	899.6
542.0	905.5
542.2	909.9
542.4	919.5
542.6	939.0
542.8	945.8
543.0	966.0
543.2	983.1
543.4	996.0
543.6	1008
543.8	1027
544.0	1034
544.2	1049
544.4	1061
544.6	1072
544.8	1086
545.0	1098
545.2	1110
545.4	1120
545.6	1132
545.8	1151
546.0	1168
546.2	1183
546.4	1200
546.6	1213
546.8	1226
547.0	1242
547.2	1252
547.4	1267
547.6	1281
547.8	1289
548.0	1301
548.2	1318
548.4	1340
548.6	1362
548.8	1378
549.0	1392
549.2	1406
549.4	1409
549.6	1421
549.8	1436
550.0	1456
550.2	1483
550.4	1510
550.6	1533
550.8	1553
551.0	1572
551.2	1588
551.4	1605
551.6	1620
551.8	1638
552.0	1667
552.2	1681
552.4	1709
552.6	1737
552.8	1742
553.0	1742
553.2	1768
553.4	1782
553.6	1820
553.8	1852
554.0	1872
554.2	1894
554.4	1921
554.6	1945
554.8	1967
555.0	1986
555.2	2010
555.4	2022
555.6	2033
555.8	2059
556.0	2084
556.2	2114
556.4	2152
556.6	2171
556.8	2188
557.0	2213
557.2	2233
557.4	2255
557.6	2284
557.8	2309
558.0	2330
558.2	2361
558.4	2385
558.6	2401
558.8	2431
559.0	2456
559.2	2484
559.4	2522
559.6	2564
559.8	2588
560.0	2614
560.2	2635
560.4	2656
560.6	2686
560.8	2722
561.0	2753
561.2	2760
561.4	2787
561.6	2811
561.8	2856
562.0	2907
562.2	2953
562.4	2969
562.6	3002
562.8	3015
563.0	3040
563.2	3071
563.4	3109
563.6	3140
563.8	3176
564.0	3197
564.2	3238
564.4	3280
564.6	3326
564.8	3371
565.0	3399
565.2	3434
565.4	3479
565.6	3504
565.8	3516
566.0	3547
566.2	3598
566.4	3650
566.6	3683
566.8	3699
567.0	3704
567.2	3745
567.4	3810
567.6	3854
567.8	3892
568.0	3921
568.2	3945
568.4	3992
568.6	4041
568.8	4082
569.0	4128
569.2	4152
569.4	4179
569.6	4212
569.8	4245
570.0	4287
570.2	4328
570.4	4369
570.6	4412
570.8	4458
571.0	4486
571.2	4523
571.4	4559
571.6	4622
571.8	4660
572.0	4714
572.2	4755
572.4	4783
572.6	4838
572.8	4898
573.0	4933
573.2	4964
573.4	4998
573.6	5015
573.8	5047
574.0	5072
574.2	5111
574.4	5140
574.6	5201
574.8	5241
575.0	5273
575.2	5306
575.4	5351
575.6	5404
575.8	5461
576.0	5508
576.2	5552
576.4	5585
576.6	5613
576.8	5655
577.0	5680
577.2	5727
577.4	5765
577.6	5800
577.8	5839
578.0	5888
578.2	5929
578.4	5974
578.6	5997
578.8	6012
579.0	6028
579.2	6065
579.4	6107
579.6	6175
579.8	6227
580.0	6251
580.2	6280
580.4	6314
580.6	6349
580.8	6395
581.0	6427
581.2	6450
581.4	6466
581.6	6489
581.8	6530
582.0	6584
582.2	6638
582.4	6698
582.6	6722
582.8	6756
583.0	6774
583.2	6796
583.4	6824
583.6	6861
583.8	6899
584.0	6940
584.2	6988
584.4	7032
584.6	7055
584.8	7077
585.0	7082
585.2	7086
585.4	7114
585.6	7142
585.8	7184
586.0	7228
586.2	7264
586.4	7290
586.6	7311
586.8	7325
587.0	7359
587.2	7386
587.4	7426
587.6	7438
587.8	7471
588.0	7502
588.2	7524
588.4	7559
588.6	7588
588.8	7610
589.0	7632
589.2	7672
589.4	7698
589.6	7725
589.8	7749
590.0	7765
590.2	7776
590.4	7793
590.6	7813
590.8	7842
591.0	7887
591.2	7893
591.4	7923
591.6	7954
591.8	7976
592.0	7995
592.2	8007
592.4	7994
592.6	8019
592.8	8071
593.0	8102
593.2	8121
593.4	8122
593.6	8120
593.8	8120
594.0	8121
594.2	8151
594.4	8201
594.6	8225
594.8	8251
595.0	8251
595.2	8228
595.4	8247
595.6	8289
595.8	8307
596.0	8328
596.2	8335
596.4	8316
596.6	8329
596.8	8359
597.0	8373
597.2	8380
597.4	8388
597.6	8373
597.8	8398
598.0	8425
598.2	8440
598.4	8455
598.6	8472
598.8	8465
599.0	8474
599.2	8474
599.4	8477
599.6	8487
599.8	8508
600.0	8544
600.2	8581
600.4	8611
600.6	8605
600.8	8593
601.0	8594
601.2	8614
601.4	8609
601.6	8630
601.8	8621
602.0	8627
602.2	8651
602.4	8645
602.6	8633
602.8	8656
603.0	8662
603.2	8642
603.4	8649
603.6	8631
603.8	8637
604.0	8644
604.2	8649
604.4	8637
604.6	8657
604.8	8651
605.0	8654
605.2	8630
605.4	8605
605.6	8614
605.8	8641
606.0	8649
606.2	8656
606.4	8632
606.6	8622
606.8	8637
607.0	8653
607.2	8663
607.4	8634
607.6	8597
607.8	8617
608.0	8628
608.2	8629
608.4	8652
608.6	8633
608.8	8610
609.0	8632
609.2	8628
609.4	8619
609.6	8627
609.8	8599
610.0	8582
610.2	8562
610.4	8547
610.6	8535
610.8	8523
611.0	8536
611.2	8559
611.4	8547
611.6	8549
611.8	8509
612.0	8496
612.2	8512
612.4	8513
612.6	8507
612.8	8498
613.0	8459
613.2	8454
613.4	8442
613.6	8426
613.8	8420
614.0	8411
614.2	8378
614.4	8370
614.6	8347
614.8	8338
615.0	8351
615.2	8352
615.4	8319
615.6	8298
615.8	8270
616.0	8269
616.2	8265
616.4	8262
616.6	8239
616.8	8220
617.0	8208
617.2	8211
617.4	8189
617.6	8180
617.8	8156
618.0	8156
618.2	8136
618.4	8137
618.6	8113
618.8	8085
619.0	8053
619.2	8027
619.4	8006
619.6	7999
619.8	7972
620.0	7971
620.2	7963
620.4	7951
620.6	7926
620.8	7912
621.0	7893
621.2	7869
621.4	7832
621.6	7811
621.8	7782
622.0	7780
622.2	7781
622.4	7754
622.6	7728
622.8	7685
623.0	7657
623.2	7629
623.4	7626
623.6	7621
623.8	7608
624.0	7578
624.2	7552
624.4	7536
624.6	7529
624.8	7500
625.0	7475
625.2	7460
625.4	7421
625.6	7404
625.8	7381
626.0	7351
626.2	7333
626.4	7316
626.6	7295
626.8	7278
627.0	7250
627.2	7218
627.4	7185
627.6	7156
627.8	7143
628.0	7135
628.2	7122
628.4	7107
628.6	7092
628.8	7059
629.0	7024
629.2	6996
629.4	6971
629.6	6948
629.8	6917
630.0	6898
630.2	6885
630.4	6855
630.6	6828
630.8	6785
631.0	6743
631.2	6730
631.4	6711
631.6	6686
631.8	6663
632.0	6641
632.2	6632
632.4	6616
632.6	6597
632.8	6580
633.0	6551
633.2	6520
633.4	6497
633.6	6453
633.8	6457
634.0	6440
634.2	6424
634.4	6410
634.6	6383
634.8	6326
635.0	6299
635.2	6251
635.4	6233
635.6	6214
635.8	6187
636.0	6153
636.2	6124
636.4	6105
636.6	6101
636.8	6071
637.0	6057
637.2	6041
637.4	6012
637.6	5980
637.8	5954
638.0	5924
638.2	5912
638.4	5914
638.6	5892
638.8	5850
639.0	5803
639.2	5762
639.4	5746
639.6	5744
639.8	5726
640.0	5694
640.2	5666
640.4	5622
640.6	5604
640.8	5590
641.0	5558
641.2	5552
641.4	5545
641.6	5515
641.8	5486
642.0	5456
642.2	5418
642.4	5409
642.6	5391
642.8	5387
643.0	5361
643.2	5341
643.4	5303
643.6	5281
643.8	5230
644.0	5197
644.2	5163
644.4	5141
644.6	5112
644.8	5112
645.0	5091
645.2	5079
645.4	5074
645.6	5058
645.8	5024
646.0	4984
646.2	4949
646.4	4922
646.6	4915
646.8	4905
647.0	4888
647.2	4868
647.4	4850
647.6	4815
647.8	4791
648.0	4751
648.2	4723
648.4	4701
648.6	4694
648.8	4665
649.0	4644
649.2	4614
649.4	4582
649.6	4560
649.8	4546
650.0	4524
650.2	4500
650.4	4490
650.6	4458
650.8	4443
651.0	4418
651.2	4401
651.4	4374
651.6	4364
651.8	4336
652.0	4310
652.2	4282
652.4	4259
652.6	4237
652.8	4233
653.0	4216
653.2	4190
653.4	4161
653.6	4122
653.8	4097
654.0	4087
654.2	4061
654.4	4049
654.6	4030
654.8	4005
655.0	3986
655.2	3977
655.4	3952
655.6	3940
655.8	3914
656.0	3896
656.2	3883
656.4	3866
656.6	3841
656.8	3803
657.0	3765
657.2	3752
657.4	3740
657.6	3720
657.8	3701
658.0	3666
658.2	3640
658.4	3634
658.6	3621
658.8	3601
659.0	3581
659.2	3565
659.4	3537
659.6	3515
659.8	3492
660.0	3472
660.2	3463
660.4	3457
660.6	3441
660.8	3417
661.0	3374
661.2	3351
661.4	3344
661.6	3345
661.8	3335
662.0	3327
662.2	3299
662.4	3275
662.6	3255
662.8	3246
663.0	3209
663.2	3204
663.4	3183
663.6	3161
663.8	3138
664.0	3121
664.2	3092
664.4	3082
664.6	3068
664.8	3050
665.0	3040
665.2	3030
665.4	3010
665.6	3002
665.8	2990
666.0	2957
666.2	2936
666.4	2919
666.6	2894
666.8	2886
667.0	2871
667.2	2851
667.4	2840
667.6	2821
667.8	2795
668.0	2767
668.2	2752
668.4	2752
668.6	2752
668.8	2731
669.0	2708
669.2	2687
669.4	2671
669.6	2679
669.8	2677
670.0	2652
670.2	2630
670.4	2600
670.6	2573
670.8	2565
671.0	2558
671.2	2540
671.4	2528
671.6	2511
671.8	2497
672.0	2482
672.2	2469
672.4	2457
672.6	2445
672.8	2434
673.0	2412
673.2	2380
673.4	2359
673.6	2351
673.8	2344
674.0	2337
674.2	2326
674.4	2309
674.6	2300
674.8	2295
675.0	2287
675.2	2272
675.4	2254
675.6	2240
675.8	2217
676.0	2199
676.2	2191
676.4	2173
676.6	2166
676.8	2155
677.0	2137
677.2	2120
677.4	2106
677.6	2098
677.8	2096
678.0	2079
678.2	2055
678.4	2031
678.6	2015
678.8	2019
679.0	2019
679.2	2018
679.4	2002
679.6	1981
679.8	1960
680.0	1950
680.2	1950
680.4	1950
680.6	1943
680.8	1916
681.0	1897
681.2	1880
681.4	1869
681.6	1859
681.8	1849
682.0	1831
682.2	1823
682.4	1809
682.6	1793
682.8	1779
683.0	1766
683.2	1760
683.4	1747
683.6	1729
683.8	1715
684.0	1708
684.2	1707
684.4	1715
684.6	1697
684.8	1674
685.0	1661
685.2	1645
685.4	1632
685.6	1634
685.8	1630
686.0	1634
686.2	1632
686.4	1613
686.6	1588
686.8	1571
687.0	1559
687.2	1557
687.4	1543
687.6	1538
687.8	1527
688.0	1525
688.2	1515
688.4	1512
688.6	1493
688.8	1475
689.0	1465
689.2	1468
689.4	1465
689.6	1460
689.8	1449
690.0	1425
690.2	1413
690.4	1405
690.6	1400
690.8	1392
691.0	1392
691.2	1393
691.4	1391
691.6	1379
691.8	1365
692.0	1343
692.2	1330
692.4	1328
692.6	1328
692.8	1326
693.0	1322
693.2	1307
693.4	1292
693.6	1284
693.8	1283
694.0	1286
694.2	1279
694.4	1269
694.6	1249
694.8	1241
695.0	1229
695.2	1223
695.4	1215
695.6	1211
695.8	1206
696.0	1207
696.2	1201
696.4	1195
696.6	1188
696.8	1180
697.0	1169
697.2	1157
697.4	1143
697.6	1133
697.8	1131
698.0	1130
698.2	1134
698.4	1130
698.6	1119
698.8	1112
699.0	1105
699.2	1095
699.4	1096
699.6	1089
699.8	1084
700.0	1074
700.2	1062
700.4	1053
700.6	1053
700.8	1048
701.0	1051
701.2	1041
701.4	1030
701.6	1017
701.8	1004
702.0	998.7
702.2	994.4
702.4	986.1
702.6	994.6
702.8	988.2
703.0	979.8
703.2	981.7
703.4	975.9
703.6	963.3
703.8	967.6
704.0	963.1
704.2	956.8
704.4	951.0
704.6	943.5
704.8	925.9
705.0	913.9
705.2	914.5
705.4	918.5
705.6	924.3
705.8	922.6
706.0	916.1
706.2	900.0
706.4	894.2
706.6	880.7
706.8	872.5
707.0	863.7
707.2	859.9
707.4	859.3
707.6	858.7
707.8	849.4
708.0	847.1
708.2	844.4
708.4	837.5
708.6	834.8
708.8	826.1
709.0	823.8
709.2	814.7
709.4	807.9
709.6	801.0
709.8	801.2
710.0	802.6
710.2	806.4
710.4	794.6
710.6	787.8
710.8	782.7
711.0	773.0
711.2	767.2
711.4	766.5
711.6	759.7
711.8	759.7
712.0	750.5
712.2	738.3
712.4	729.4
712.6	725.3
712.8	723.7
713.0	722.8
713.2	718.4
713.4	713.7
713.6	707.8
713.8	700.7
714.0	703.1
714.2	701.2
714.4	699.6
714.6	694.2
714.8	692.0
715.0	688.3
715.2	684.8
715.4	671.8
715.6	662.5
715.8	657.1
716.0	654.3
716.2	654.0
716.4	652.6
716.6	645.2
716.8	644.9
717.0	638.8
717.2	632.2
717.4	626.6
717.6	623.8
717.8	619.4
718.0	613.6
718.2	604.1
718.4	607.3
718.6	606.3
718.8	606.3
719.0	600.9
719.2	590.0
719.4	577.5
719.6	576.3
719.8	569.7
720.0	569.0
720.2	564.7
720.4	560.1
720.6	559.5
720.8	558.8
721.0	555.5
721.2	552.4
721.4	545.1
721.6	535.6
721.8	531.4
722.0	527.5
722.2	520.5
722.4	517.2
722.6	518.0
722.8	514.7
723.0	512.6
723.2	513.7
723.4	508.0
723.6	505.5
723.8	505.2
724.0	495.7
724.2	486.1
724.4	478.8
724.6	472.5
724.8	470.4
725.0	473.5
725.2	475.7
725.4	473.7
725.6	468.2
725.8	460.2
726.0	452.6
726.2	447.4
726.4	446.9
726.6	446.6
726.8	443.6
727.0	438.9
727.2	432.7
727.4	426.6
727.6	425.6
727.8	425.6
728.0	425.7
728.2	424.2
728.4	421.4
728.6	416.7
728.8	412.6
729.0	405.0
729.2	406.6
729.4	403.9
729.6	403.9
729.8	400.1
730.0	393.4
730.2	386.3
730.4	386.7
730.6	385.6
730.8	385.7
731.0	382.5
731.2	375.2
731.4	365.9
731.6	360.7
731.8	361.8
732.0	361.7
732.2	361.5
732.4	359.4
732.6	357.7
732.8	352.3
733.0	349.1
733.2	345.2
733.4	343.1
733.6	342.6
733.8	343.7
734.0	340.8
734.2	339.9
734.4	337.8
734.6	334.8
734.8	330.3
735.0	324.6
735.2	321.5
735.4	323.0
735.6	324.7
735.8	326.9
736.0	322.5
736.2	319.4
736.4	312.5
736.6	310.0
736.8	309.0
737.0	305.8
737.2	302.6
737.4	300.9
737.6	296.4
737.8	292.9
738.0	290.6
738.2	286.2
738.4	289.0
738.6	289.7
738.8	285.2
739.0	280.0
739.2	277.1
739.4	276.8
739.6	280.9
739.8	281.8
740.0	274.8
740.2	271.2
740.4	270.1
740.6	268.8
740.8	268.3
741.0	265.9
741.2	266.9
741.4	268.2
741.6	266.2
741.8	261.9
742.0	255.3
742.2	250.0
742.4	247.1
742.6	245.0
742.8	240.9
743.0	241.0
743.2	241.5
743.4	239.3
743.6	235.7
743.8	236.6
744.0	235.2
744.2	233.0
744.4	229.3
744.6	223.3
744.8	224.0
745.0	227.5
745.2	227.7
745.4	224.1
745.6	221.3
745.8	217.3
746.0	219.6
746.2	219.1
746.4	218.1
746.6	212.8
746.8	209.3
747.0	203.1
747.2	199.7
747.4	196.5
747.6	199.5
747.8	199.9
748.0	198.5
748.2	195.8
748.4	194.0
748.6	190.5
748.8	192.5
749.0	193.5
749.2	193.1
749.4	189.8
749.6	189.0
749.8	185.5
750.0	187.6
750.2	188.9
750.4	188.6
750.6	186.1
750.8	183.5
751.0	178.1
751.2	180.3
751.4	179.0
751.6	176.8
751.8	173.5
752.0	171.4
752.2	164.9
752.4	167.5
752.6	167.0
752.8	168.7
753.0	167.7
753.2	169.7
753.4	168.7
753.6	168.2
753.8	166.5
754.0	164.9
754.2	163.0
754.4	163.6
754.6	164.0
754.8	162.1
755.0	159.6
755.2	156.1
755.4	153.6
755.6	151.7
755.8	152.9
756.0	152.3
756.2	149.1
756.4	147.5
756.6	146.2
756.8	145.5
757.0	148.2
757.2	147.4
757.4	146.6
757.6	145.9
757.8	145.7
758.0	144.9
758.2	143.2
758.4	138.8
758.6	137.0
758.8	137.1
759.0	138.5
759.2	141.2
759.4	141.4
759.6	137.3
759.8	134.1
760.0	130.2
760.2	127.8
760.4	128.7
760.6	130.5
760.8	130.5
761.0	131.0
761.2	128.8
761.4	126.4
761.6	124.3
761.8	123.2
762.0	121.7
762.2	119.2
762.4	119.2
762.6	119.2
762.8	118.7
763.0	119.3
763.2	120.1
763.4	118.7
763.6	118.5
763.8	116.9
764.0	116.4
764.2	115.3
764.4	112.5
764.6	113.2
764.8	113.3
765.0	111.8
765.2	110.8
765.4	110.4
765.6	107.4
765.8	107.3
766.0	108.2
766.2	107.8
766.4	106.3
766.6	105.3
766.8	102.4
767.0	98.60
767.2	99.44
767.4	100.9
767.6	103.3
767.8	103.3
768.0	103.2
768.2	98.13
768.4	94.96
768.6	92.89
768.8	92.93
769.0	94.19
769.2	95.24
769.4	95.15
769.6	95.16
769.8	95.19
770.0	96.38
770.2	97.35
770.4	95.14
770.6	92.85
770.8	90.02
771.0	87.52
771.2	86.23
771.4	86.17
771.6	86.25
771.8	86.08
772.0	85.51
772.2	87.68
772.4	86.81
772.6	86.88
772.8	85.35
773.0	84.96
773.2	82.78
773.4	83.68
773.6	81.73
773.8	83.39
774.0	82.37
774.2	83.66
774.4	81.35
774.6	79.16
774.8	77.22
775.0	77.38
775.2	78.14
775.4	79.04
775.6	77.60
775.8	77.42
776.0	77.31
776.2	77.38
776.4	78.36
776.6	77.46
776.8	75.51
777.0	74.00
777.2	72.13
777.4	71.73
777.6	72.32
777.8	72.80
778.0	72.19
778.2	70.69
778.4	69.69
778.6	68.47
778.8	68.93
779.0	69.74
779.2	69.38
779.4	68.56
779.6	66.86
779.8	65.28
780.0	64.98
780.2	65.56
780.4	65.76
780.6	66.38
780.8	64.90
781.0	65.70
781.2	65.82
781.4	63.66
781.6	62.56
781.8	61.73
782.0	60.72
782.2	62.05
782.4	64.04
782.6	64.77
782.8	64.83
783.0	64.42
783.2	64.20
783.4	61.79
783.6	59.89
783.8	59.85
784.0	57.22
784.2	57.27
784.4	59.15
784.6	58.39
784.8	58.07
785.0	58.75
785.2	57.15
785.4	57.20
785.6	56.81
785.8	56.46
786.0	57.43
786.2	58.07
786.4	59.00
786.6	58.21
786.8	57.32
787.0	57.99
787.2	58.75
787.4	59.44
787.6	59.24
787.8	57.01
788.0	54.65
788.2	53.37
788.4	52.75
788.6	52.53
788.8	51.84
789.0	52.76
789.2	53.28
789.4	53.52
789.6	52.97
789.8	49.84
790.0	48.38
790.2	48.22
790.4	48.80
790.6	50.30
790.8	52.28
791.0	51.06
791.2	51.29
791.4	50.52
791.6	49.72
791.8	50.56
792.0	51.05
792.2	50.43
792.4	51.48
792.6	50.81
792.8	49.77
793.0	48.50
793.2	47.14
793.4	45.13
793.6	46.15
793.8	45.73
794.0	47.57
794.2	48.92
794.4	49.42
794.6	47.78
794.8	48.25
795.0	48.16
795.2	49.89
795.4	49.42
795.6	48.11
795.8	46.15
796.0	45.17
796.2	45.59
796.4	45.86
796.6	47.04
796.8	47.47
797.0	46.61
797.2	44.98
797.4	43.93
797.6	42.65
797.8	43.78
798.0	44.73
798.2	45.37
798.4	45.33
798.6	43.91
798.8	42.71
799.0	41.90
799.2	42.20
799.4	44.21
799.6	46.13
799.8	46.43
800.0	43.72

