Sample:	'20211010A(EM)
File name:	R-CDs 5 500uM.FDS
Run date:	'15:13:53, 06/09/2023
Operator:	Administrator
Comment:	'

Instrument
Model:	F-4700 FL Spectrophotometer
Serial number:	2019-001
ROM Version:	5J24010 00

Instrument parameters
Measurement type:	Wavelength scan
Scan mode:	Emission
Data mode:	Fluorescence
EX WL:	520.0 nm
EM  Start WL:	540.0 nm
EM  End WL:	800.0 nm
Scan speed:	1200 nm/min
Delay:	0.0 s
EX Slit:	10.0 nm
EM Slit:	10.0 nm
PMT Voltage:	650 V
Response:	0.002 s
Corrected spectra:	Off
Shutter control:	On

Processing performed
Savitsky-Golay smoothed
Smoothing order:	3
Number of points:	7
Number of times:	1

Peak integration
Integration method:	Rectangular
Sensitivity:	1
Threshold:	1.000

Peaks
No.	Start(nm)	Apex(nm)	End(nm)	Height(Data)	Valley(nm)	Valley(Data)
1	540.0	589.8	590.6	2454	590.6	2431
2	590.6	592.6	593.8	2462	593.8	2426
3	593.8	594.6	596.2	2471	596.2	2436
4	596.2	597.0	597.8	2471	597.8	2445
5	597.8	600.2	602.4	2467	602.4	2424
6	602.4	603.2	608.2	2445	608.2	2338
7	608.2	609.0	616.2	2353	616.2	2182
8	616.2	617.2	727.0	2195	727.0	145.8
9	727.0	727.6	743.0	148.7	743.0	84.20
10	743.0	744.0	752.2	89.16	752.2	64.17
11	752.2	753.0	754.0	67.46	754.0	60.49
12	754.0	754.8	764.6	64.99	764.6	42.39
13	764.6	765.6	768.4	45.03	768.4	39.53
14	768.4	769.0	772.2	41.37	772.2	33.93
15	772.2	772.8	776.6	35.95	776.6	29.87
16	776.6	777.6	780.8	35.42	780.8	27.41
17	780.8	781.6	782.2	28.90	782.2	26.62
18	782.2	783.2	786.0	29.04	786.0	23.40
19	786.0	786.6	788.4	26.13	788.4	23.01
20	788.4	789.4	791.8	24.89	791.8	22.26
21	791.8	792.8	794.2	24.04	794.2	19.31
22	794.2	795.0	797.0	22.66	797.0	18.87
23	797.0	798.0	800.0	22.11	800.0	18.67

Data points
nm	Data
540.0	235.1
540.2	233.1
540.4	233.0
540.6	234.1
540.8	235.0
541.0	237.7
541.2	240.8
541.4	239.6
541.6	242.9
541.8	247.2
542.0	250.4
542.2	252.0
542.4	255.7
542.6	256.4
542.8	257.2
543.0	257.1
543.2	253.7
543.4	252.8
543.6	258.0
543.8	265.1
544.0	273.9
544.2	277.6
544.4	275.7
544.6	273.7
544.8	269.5
545.0	273.1
545.2	275.0
545.4	281.0
545.6	282.3
545.8	285.7
546.0	286.4
546.2	290.7
546.4	286.9
546.6	287.3
546.8	287.8
547.0	296.0
547.2	306.5
547.4	314.7
547.6	314.1
547.8	308.5
548.0	302.4
548.2	305.5
548.4	312.1
548.6	318.1
548.8	323.8
549.0	325.3
549.2	325.3
549.4	328.7
549.6	334.5
549.8	339.9
550.0	342.0
550.2	343.3
550.4	343.6
550.6	347.0
550.8	352.4
551.0	359.3
551.2	362.2
551.4	365.6
551.6	369.2
551.8	374.3
552.0	379.2
552.2	385.1
552.4	386.3
552.6	388.4
552.8	392.8
553.0	394.4
553.2	402.4
553.4	410.7
553.6	415.3
553.8	421.3
554.0	427.5
554.2	433.3
554.4	439.5
554.6	445.6
554.8	451.8
555.0	458.3
555.2	461.7
555.4	475.7
555.6	480.7
555.8	489.4
556.0	493.5
556.2	503.3
556.4	502.4
556.6	511.3
556.8	515.7
557.0	523.7
557.2	530.5
557.4	543.5
557.6	546.7
557.8	552.9
558.0	561.8
558.2	574.0
558.4	586.9
558.6	598.9
558.8	612.1
559.0	621.3
559.2	628.7
559.4	639.4
559.6	644.2
559.8	653.7
560.0	667.1
560.2	675.5
560.4	685.1
560.6	695.4
560.8	704.9
561.0	717.9
561.2	727.7
561.4	737.3
561.6	747.7
561.8	758.3
562.0	774.5
562.2	787.7
562.4	793.4
562.6	801.8
562.8	810.7
563.0	828.4
563.2	846.0
563.4	866.2
563.6	877.0
563.8	890.3
564.0	900.2
564.2	917.3
564.4	933.1
564.6	953.0
564.8	968.0
565.0	986.7
565.2	997.6
565.4	1002
565.6	1009
565.8	1022
566.0	1036
566.2	1060
566.4	1080
566.6	1094
566.8	1106
567.0	1128
567.2	1141
567.4	1160
567.6	1178
567.8	1200
568.0	1220
568.2	1250
568.4	1259
568.6	1269
568.8	1282
569.0	1288
569.2	1310
569.4	1338
569.6	1355
569.8	1378
570.0	1401
570.2	1404
570.4	1425
570.6	1439
570.8	1456
571.0	1478
571.2	1497
571.4	1516
571.6	1540
571.8	1559
572.0	1583
572.2	1601
572.4	1614
572.6	1637
572.8	1653
573.0	1669
573.2	1687
573.4	1705
573.6	1726
573.8	1744
574.0	1761
574.2	1780
574.4	1796
574.6	1820
574.8	1842
575.0	1854
575.2	1869
575.4	1881
575.6	1892
575.8	1915
576.0	1931
576.2	1938
576.4	1950
576.6	1970
576.8	1989
577.0	2011
577.2	2023
577.4	2022
577.6	2034
577.8	2053
578.0	2070
578.2	2082
578.4	2088
578.6	2099
578.8	2119
579.0	2143
579.2	2166
579.4	2173
579.6	2182
579.8	2179
580.0	2193
580.2	2214
580.4	2229
580.6	2229
580.8	2237
581.0	2236
581.2	2257
581.4	2268
581.6	2268
581.8	2268
582.0	2276
582.2	2285
582.4	2299
582.6	2308
582.8	2310
583.0	2321
583.2	2327
583.4	2329
583.6	2331
583.8	2344
584.0	2345
584.2	2354
584.4	2362
584.6	2360
584.8	2345
585.0	2346
585.2	2344
585.4	2352
585.6	2370
585.8	2379
586.0	2380
586.2	2377
586.4	2377
586.6	2371
586.8	2386
587.0	2408
587.2	2414
587.4	2412
587.6	2407
587.8	2404
588.0	2413
588.2	2426
588.4	2423
588.6	2427
588.8	2423
589.0	2424
589.2	2419
589.4	2429
589.6	2442
589.8	2454
590.0	2444
590.2	2447
590.4	2436
590.6	2431
590.8	2433
591.0	2433
591.2	2435
591.4	2451
591.6	2453
591.8	2458
592.0	2449
592.2	2447
592.4	2458
592.6	2462
592.8	2461
593.0	2461
593.2	2446
593.4	2439
593.6	2429
593.8	2426
594.0	2437
594.2	2444
594.4	2462
594.6	2471
594.8	2459
595.0	2450
595.2	2452
595.4	2451
595.6	2451
595.8	2450
596.0	2444
596.2	2436
596.4	2443
596.6	2458
596.8	2466
597.0	2471
597.2	2467
597.4	2454
597.6	2449
597.8	2445
598.0	2447
598.2	2449
598.4	2450
598.6	2455
598.8	2458
599.0	2462
599.2	2458
599.4	2462
599.6	2461
599.8	2464
600.0	2467
600.2	2467
600.4	2466
600.6	2459
600.8	2452
601.0	2445
601.2	2442
601.4	2438
601.6	2449
601.8	2427
602.0	2430
602.2	2426
602.4	2424
602.6	2427
602.8	2442
603.0	2438
603.2	2445
603.4	2441
603.6	2437
603.8	2436
604.0	2440
604.2	2441
604.4	2426
604.6	2422
604.8	2426
605.0	2420
605.2	2425
605.4	2426
605.6	2417
605.8	2410
606.0	2389
606.2	2379
606.4	2380
606.6	2389
606.8	2399
607.0	2394
607.2	2374
607.4	2375
607.6	2358
607.8	2346
608.0	2340
608.2	2338
608.4	2345
608.6	2350
608.8	2350
609.0	2353
609.2	2350
609.4	2339
609.6	2327
609.8	2318
610.0	2327
610.2	2339
610.4	2337
610.6	2333
610.8	2316
611.0	2305
611.2	2300
611.4	2298
611.6	2294
611.8	2295
612.0	2297
612.2	2293
612.4	2277
612.6	2276
612.8	2272
613.0	2267
613.2	2255
613.4	2257
613.6	2246
613.8	2241
614.0	2248
614.2	2242
614.4	2237
614.6	2247
614.8	2240
615.0	2228
615.2	2225
615.4	2214
615.6	2209
615.8	2199
616.0	2195
616.2	2182
616.4	2187
616.6	2189
616.8	2187
617.0	2187
617.2	2195
617.4	2189
617.6	2190
617.8	2183
618.0	2178
618.2	2173
618.4	2172
618.6	2163
618.8	2151
619.0	2145
619.2	2136
619.4	2132
619.6	2141
619.8	2134
620.0	2124
620.2	2120
620.4	2114
620.6	2110
620.8	2107
621.0	2095
621.2	2082
621.4	2077
621.6	2085
621.8	2084
622.0	2077
622.2	2066
622.4	2052
622.6	2052
622.8	2050
623.0	2041
623.2	2029
623.4	2018
623.6	2018
623.8	2019
624.0	2015
624.2	2003
624.4	1994
624.6	1993
624.8	1999
625.0	1991
625.2	1990
625.4	1974
625.6	1971
625.8	1966
626.0	1963
626.2	1959
626.4	1955
626.6	1937
626.8	1930
627.0	1924
627.2	1920
627.4	1922
627.6	1927
627.8	1927
628.0	1921
628.2	1915
628.4	1897
628.6	1887
628.8	1874
629.0	1870
629.2	1870
629.4	1875
629.6	1872
629.8	1863
630.0	1844
630.2	1838
630.4	1831
630.6	1835
630.8	1836
631.0	1829
631.2	1826
631.4	1831
631.6	1819
631.8	1811
632.0	1792
632.2	1779
632.4	1775
632.6	1776
632.8	1777
633.0	1777
633.2	1770
633.4	1760
633.6	1763
633.8	1746
634.0	1736
634.2	1724
634.4	1716
634.6	1705
634.8	1709
635.0	1705
635.2	1708
635.4	1711
635.6	1707
635.8	1691
636.0	1676
636.2	1666
636.4	1658
636.6	1653
636.8	1643
637.0	1639
637.2	1633
637.4	1641
637.6	1642
637.8	1629
638.0	1621
638.2	1617
638.4	1609
638.6	1600
638.8	1602
639.0	1591
639.2	1584
639.4	1577
639.6	1567
639.8	1555
640.0	1558
640.2	1563
640.4	1564
640.6	1556
640.8	1542
641.0	1531
641.2	1518
641.4	1522
641.6	1525
641.8	1522
642.0	1508
642.2	1495
642.4	1480
642.6	1481
642.8	1472
643.0	1461
643.2	1457
643.4	1451
643.6	1457
643.8	1467
644.0	1464
644.2	1441
644.4	1421
644.6	1401
644.8	1395
645.0	1395
645.2	1394
645.4	1392
645.6	1391
645.8	1400
646.0	1407
646.2	1400
646.4	1371
646.6	1360
646.8	1349
647.0	1350
647.2	1358
647.4	1351
647.6	1328
647.8	1318
648.0	1311
648.2	1308
648.4	1311
648.6	1302
648.8	1291
649.0	1286
649.2	1281
649.4	1285
649.6	1292
649.8	1288
650.0	1286
650.2	1280
650.4	1269
650.6	1257
650.8	1253
651.0	1239
651.2	1235
651.4	1228
651.6	1228
651.8	1216
652.0	1212
652.2	1201
652.4	1197
652.6	1198
652.8	1199
653.0	1187
653.2	1180
653.4	1174
653.6	1171
653.8	1162
654.0	1156
654.2	1152
654.4	1153
654.6	1158
654.8	1161
655.0	1143
655.2	1130
655.4	1121
655.6	1110
655.8	1111
656.0	1112
656.2	1107
656.4	1104
656.6	1092
656.8	1080
657.0	1075
657.2	1067
657.4	1069
657.6	1079
657.8	1069
658.0	1061
658.2	1053
658.4	1039
658.6	1029
658.8	1023
659.0	1025
659.2	1022
659.4	1024
659.6	1017
659.8	1011
660.0	1005
660.2	1007
660.4	1005
660.6	1001
660.8	993.8
661.0	991.2
661.2	983.3
661.4	975.4
661.6	959.7
661.8	953.4
662.0	950.5
662.2	944.5
662.4	949.8
662.6	946.5
662.8	933.2
663.0	930.5
663.2	923.7
663.4	911.7
663.6	914.4
663.8	913.0
664.0	910.5
664.2	907.4
664.4	904.4
664.6	895.8
664.8	888.4
665.0	884.9
665.2	881.5
665.4	873.5
665.6	868.1
665.8	861.6
666.0	850.8
666.2	852.2
666.4	858.1
666.6	850.2
666.8	850.4
667.0	849.2
667.2	837.6
667.4	830.5
667.6	820.3
667.8	810.7
668.0	814.0
668.2	816.7
668.4	817.0
668.6	812.3
668.8	803.2
669.0	798.4
669.2	790.5
669.4	784.8
669.6	781.9
669.8	777.0
670.0	771.3
670.2	766.5
670.4	755.3
670.6	751.1
670.8	753.0
671.0	747.9
671.2	746.6
671.4	740.0
671.6	733.7
671.8	731.2
672.0	737.4
672.2	734.0
672.4	733.8
672.6	722.3
672.8	714.9
673.0	707.1
673.2	705.4
673.4	708.1
673.6	708.3
673.8	701.1
674.0	690.8
674.2	680.1
674.4	677.5
674.6	678.6
674.8	678.8
675.0	678.8
675.2	674.4
675.4	665.9
675.6	662.6
675.8	654.5
676.0	648.0
676.2	647.7
676.4	649.0
676.6	645.7
676.8	643.2
677.0	641.2
677.2	633.7
677.4	633.0
677.6	634.4
677.8	631.1
678.0	618.8
678.2	613.4
678.4	602.6
678.6	595.9
678.8	597.5
679.0	596.6
679.2	591.4
679.4	590.9
679.6	592.8
679.8	586.0
680.0	586.5
680.2	576.7
680.4	574.0
680.6	568.4
680.8	570.6
681.0	565.9
681.2	564.3
681.4	556.4
681.6	557.2
681.8	551.3
682.0	551.8
682.2	551.3
682.4	545.1
682.6	541.9
682.8	537.4
683.0	530.7
683.2	527.6
683.4	522.7
683.6	517.1
683.8	513.7
684.0	514.6
684.2	516.3
684.4	516.7
684.6	517.0
684.8	516.6
685.0	508.3
685.2	502.5
685.4	493.0
685.6	484.1
685.8	487.7
686.0	494.2
686.2	491.3
686.4	491.2
686.6	487.9
686.8	478.6
687.0	480.0
687.2	482.8
687.4	477.8
687.6	473.9
687.8	467.0
688.0	458.9
688.2	451.9
688.4	453.0
688.6	453.8
688.8	453.0
689.0	453.2
689.2	451.6
689.4	440.0
689.6	439.6
689.8	441.6
690.0	440.9
690.2	442.2
690.4	440.3
690.6	430.8
690.8	426.0
691.0	425.4
691.2	421.8
691.4	420.5
691.6	417.4
691.8	412.8
692.0	410.3
692.2	410.6
692.4	412.8
692.6	412.3
692.8	410.5
693.0	409.0
693.2	404.3
693.4	400.2
693.6	397.2
693.8	397.0
694.0	395.5
694.2	392.7
694.4	383.2
694.6	378.4
694.8	374.0
695.0	376.0
695.2	377.4
695.4	378.1
695.6	377.9
695.8	378.1
696.0	374.7
696.2	371.0
696.4	364.4
696.6	357.6
696.8	356.5
697.0	356.9
697.2	358.7
697.4	357.6
697.6	357.5
697.8	353.0
698.0	352.9
698.2	355.5
698.4	356.5
698.6	352.9
698.8	349.7
699.0	341.9
699.2	338.6
699.4	337.0
699.6	336.9
699.8	335.3
700.0	333.2
700.2	338.3
700.4	337.1
700.6	333.3
700.8	332.0
701.0	327.1
701.2	325.7
701.4	328.4
701.6	321.6
701.8	316.5
702.0	317.8
702.2	316.8
702.4	320.6
702.6	320.8
702.8	316.8
703.0	312.5
703.2	312.9
703.4	307.4
703.6	303.8
703.8	303.0
704.0	298.4
704.2	296.2
704.4	299.1
704.6	298.0
704.8	300.6
705.0	304.6
705.2	299.4
705.4	295.4
705.6	292.8
705.8	289.5
706.0	289.7
706.2	288.5
706.4	282.4
706.6	281.9
706.8	285.2
707.0	282.3
707.2	280.4
707.4	277.1
707.6	273.1
707.8	271.3
708.0	273.8
708.2	272.1
708.4	270.8
708.6	272.5
708.8	275.4
709.0	270.5
709.2	266.8
709.4	262.2
709.6	259.7
709.8	261.3
710.0	263.9
710.2	257.4
710.4	251.8
710.6	248.4
710.8	249.4
711.0	251.5
711.2	255.0
711.4	252.5
711.6	251.9
711.8	246.8
712.0	241.5
712.2	236.1
712.4	235.2
712.6	237.2
712.8	240.2
713.0	238.7
713.2	237.2
713.4	234.9
713.6	233.1
713.8	232.7
714.0	229.0
714.2	223.6
714.4	222.4
714.6	220.1
714.8	223.1
715.0	226.8
715.2	227.6
715.4	227.4
715.6	221.6
715.8	214.6
716.0	210.6
716.2	209.2
716.4	207.5
716.6	208.8
716.8	205.2
717.0	207.3
717.2	205.7
717.4	206.9
717.6	204.7
717.8	202.2
718.0	199.3
718.2	198.6
718.4	194.2
718.6	192.8
718.8	191.8
719.0	189.9
719.2	188.7
719.4	186.6
719.6	187.6
719.8	189.6
720.0	190.0
720.2	189.2
720.4	188.1
720.6	185.1
720.8	185.0
721.0	186.2
721.2	184.8
721.4	186.4
721.6	185.1
721.8	183.3
722.0	179.4
722.2	178.2
722.4	175.1
722.6	173.8
722.8	171.7
723.0	170.6
723.2	169.1
723.4	166.8
723.6	167.8
723.8	167.4
724.0	169.1
724.2	168.9
724.4	166.7
724.6	162.0
724.8	161.0
725.0	158.1
725.2	156.7
725.4	155.1
725.6	154.9
725.8	154.7
726.0	155.1
726.2	152.8
726.4	151.4
726.6	147.5
726.8	146.1
727.0	145.8
727.2	146.3
727.4	147.1
727.6	148.7
727.8	147.9
728.0	147.4
728.2	146.2
728.4	144.8
728.6	144.4
728.8	143.6
729.0	142.1
729.2	140.2
729.4	138.9
729.6	138.2
729.8	138.6
730.0	139.2
730.2	135.8
730.4	134.6
730.6	131.2
730.8	128.9
731.0	130.4
731.2	133.1
731.4	133.0
731.6	132.8
731.8	129.1
732.0	128.3
732.2	128.2
732.4	129.3
732.6	130.0
732.8	127.3
733.0	123.9
733.2	123.0
733.4	119.4
733.6	118.3
733.8	118.5
734.0	118.0
734.2	119.9
734.4	122.4
734.6	120.6
734.8	118.6
735.0	114.6
735.2	112.6
735.4	113.3
735.6	115.2
735.8	113.1
736.0	113.6
736.2	112.4
736.4	112.2
736.6	112.2
736.8	112.4
737.0	110.5
737.2	109.6
737.4	109.1
737.6	107.7
737.8	107.7
738.0	106.6
738.2	105.3
738.4	102.5
738.6	101.6
738.8	101.9
739.0	103.5
739.2	103.5
739.4	102.6
739.6	100.7
739.8	101.2
740.0	100.2
740.2	98.17
740.4	94.65
740.6	91.11
740.8	90.70
741.0	93.50
741.2	93.95
741.4	93.52
741.6	92.33
741.8	91.18
742.0	92.73
742.2	92.46
742.4	92.11
742.6	89.04
742.8	86.87
743.0	84.20
743.2	84.60
743.4	85.85
743.6	87.30
743.8	88.41
744.0	89.16
744.2	87.52
744.4	84.88
744.6	85.43
744.8	83.29
745.0	82.74
745.2	81.88
745.4	83.64
745.6	82.49
745.8	82.67
746.0	80.79
746.2	79.44
746.4	79.09
746.6	82.10
746.8	81.70
747.0	80.15
747.2	78.93
747.4	76.09
747.6	75.96
747.8	77.01
748.0	76.74
748.2	75.34
748.4	73.34
748.6	71.30
748.8	73.89
749.0	76.19
749.2	77.22
749.4	74.97
749.6	73.13
749.8	72.12
750.0	71.75
750.2	71.75
750.4	71.91
750.6	70.41
750.8	69.60
751.0	67.78
751.2	66.49
751.4	66.06
751.6	66.49
751.8	65.94
752.0	64.65
752.2	64.17
752.4	64.31
752.6	65.92
752.8	66.80
753.0	67.46
753.2	65.78
753.4	64.54
753.6	62.79
753.8	61.88
754.0	60.49
754.2	61.94
754.4	62.09
754.6	63.47
754.8	64.99
755.0	63.54
755.2	61.51
755.4	61.06
755.6	59.87
755.8	59.25
756.0	60.76
756.2	60.96
756.4	59.82
756.6	59.84
756.8	58.89
757.0	56.71
757.2	55.19
757.4	53.93
757.6	52.61
757.8	54.11
758.0	56.48
758.2	57.32
758.4	55.52
758.6	53.66
758.8	53.13
759.0	52.35
759.2	53.34
759.4	54.38
759.6	54.24
759.8	55.03
760.0	54.71
760.2	51.81
760.4	51.67
760.6	50.70
760.8	51.10
761.0	51.34
761.2	50.89
761.4	49.76
761.6	50.71
761.8	50.42
762.0	49.78
762.2	48.02
762.4	47.37
762.6	47.57
762.8	47.36
763.0	46.09
763.2	45.27
763.4	44.71
763.6	44.80
763.8	45.78
764.0	45.37
764.2	43.63
764.4	44.44
764.6	42.39
764.8	42.79
765.0	42.69
765.2	42.85
765.4	43.74
765.6	45.03
765.8	43.63
766.0	44.16
766.2	44.66
766.4	44.12
766.6	44.03
766.8	44.09
767.0	43.17
767.2	42.93
767.4	43.08
767.6	41.66
767.8	41.19
768.0	40.42
768.2	39.57
768.4	39.53
768.6	39.61
768.8	40.97
769.0	41.37
769.2	41.18
769.4	39.83
769.6	38.33
769.8	37.63
770.0	37.03
770.2	36.91
770.4	39.20
770.6	39.44
770.8	39.67
771.0	38.60
771.2	36.42
771.4	34.81
771.6	35.12
771.8	34.78
772.0	34.07
772.2	33.93
772.4	34.70
772.6	34.86
772.8	35.95
773.0	35.88
773.2	34.28
773.4	33.28
773.6	33.43
773.8	34.46
774.0	34.64
774.2	34.13
774.4	32.95
774.6	31.86
774.8	32.16
775.0	33.61
775.2	33.35
775.4	32.44
775.6	31.85
775.8	31.11
776.0	31.19
776.2	31.47
776.4	31.10
776.6	29.87
776.8	29.99
777.0	31.60
777.2	33.38
777.4	34.35
777.6	35.42
777.8	33.00
778.0	30.73
778.2	30.62
778.4	30.32
778.6	30.68
778.8	32.61
779.0	31.21
779.2	29.69
779.4	30.13
779.6	29.21
779.8	28.24
780.0	28.59
780.2	27.76
780.4	27.83
780.6	27.86
780.8	27.41
781.0	27.48
781.2	28.51
781.4	28.74
781.6	28.90
781.8	28.14
782.0	27.29
782.2	26.62
782.4	27.84
782.6	28.30
782.8	28.44
783.0	29.00
783.2	29.04
783.4	27.73
783.6	28.43
783.8	28.38
784.0	27.73
784.2	26.74
784.4	26.04
784.6	24.08
784.8	23.66
785.0	24.56
785.2	25.44
785.4	26.33
785.6	25.66
785.8	23.72
786.0	23.40
786.2	25.12
786.4	25.32
786.6	26.13
786.8	25.58
787.0	24.68
787.2	24.35
787.4	25.65
787.6	25.58
787.8	25.66
788.0	25.21
788.2	24.63
788.4	23.01
788.6	23.10
788.8	23.99
789.0	24.72
789.2	24.46
789.4	24.89
789.6	23.97
789.8	23.48
790.0	23.71
790.2	23.31
790.4	22.23
790.6	22.33
790.8	22.33
791.0	22.66
791.2	23.35
791.4	23.46
791.6	22.94
791.8	22.26
792.0	22.58
792.2	22.44
792.4	22.58
792.6	23.13
792.8	24.04
793.0	23.55
793.2	23.54
793.4	22.69
793.6	21.57
793.8	20.68
794.0	20.31
794.2	19.31
794.4	20.55
794.6	21.55
794.8	22.46
795.0	22.66
795.2	22.25
795.4	21.89
795.6	21.82
795.8	21.10
796.0	21.58
796.2	21.57
796.4	21.80
796.6	21.55
796.8	20.14
797.0	18.87
797.2	19.33
797.4	19.83
797.6	21.54
797.8	22.00
798.0	22.11
798.2	21.19
798.4	21.25
798.6	21.48
798.8	21.56
799.0	20.71
799.2	20.36
799.4	19.91
799.6	20.75
799.8	20.72
800.0	18.67

