Sample:	'20211010A(EM)
File name:	R-CDs 9.FDS
Run date:	'15:27:26, 06/09/2023
Operator:	Administrator
Comment:	'

Instrument
Model:	F-4700 FL Spectrophotometer
Serial number:	2019-001
ROM Version:	5J24010 00

Instrument parameters
Measurement type:	Wavelength scan
Scan mode:	Emission
Data mode:	Fluorescence
EX WL:	520.0 nm
EM  Start WL:	540.0 nm
EM  End WL:	800.0 nm
Scan speed:	1200 nm/min
Delay:	0.0 s
EX Slit:	10.0 nm
EM Slit:	10.0 nm
PMT Voltage:	650 V
Response:	0.002 s
Corrected spectra:	Off
Shutter control:	On

Processing performed
Savitsky-Golay smoothed
Smoothing order:	3
Number of points:	7
Number of times:	1

Peak integration
Integration method:	Rectangular
Sensitivity:	1
Threshold:	1.000

Peaks
No.	Start(nm)	Apex(nm)	End(nm)	Height(Data)	Valley(nm)	Valley(Data)
1	540.0	604.6	605.6	8722	605.6	8683
2	605.6	607.4	775.2	8723	775.2	77.82
3	775.2	776.0	781.2	82.76	781.2	62.36
4	781.2	782.0	789.4	66.06	789.4	49.21
5	789.4	790.2	790.8	54.50	790.8	49.99
6	790.8	791.8	793.6	53.00	793.6	46.19
7	793.6	794.0	795.0	50.53	795.0	44.53
8	795.0	796.4	797.2	49.85	797.2	42.90
9	797.2	798.2	800.0	45.96	800.0	44.38

Data points
nm	Data
540.0	817.6
540.2	817.0
540.4	822.8
540.6	833.0
540.8	841.7
541.0	859.9
541.2	878.6
541.4	891.0
541.6	899.8
541.8	912.2
542.0	915.2
542.2	935.5
542.4	951.1
542.6	964.5
542.8	972.2
543.0	982.4
543.2	986.3
543.4	1001
543.6	1011
543.8	1026
544.0	1039
544.2	1049
544.4	1065
544.6	1079
544.8	1085
545.0	1103
545.2	1114
545.4	1124
545.6	1144
545.8	1160
546.0	1173
546.2	1187
546.4	1194
546.6	1208
546.8	1215
547.0	1228
547.2	1246
547.4	1259
547.6	1275
547.8	1288
548.0	1296
548.2	1312
548.4	1327
548.6	1349
548.8	1378
549.0	1391
549.2	1416
549.4	1431
549.6	1447
549.8	1462
550.0	1483
550.2	1497
550.4	1513
550.6	1520
550.8	1533
551.0	1548
551.2	1571
551.4	1602
551.6	1624
551.8	1645
552.0	1660
552.2	1678
552.4	1693
552.6	1713
552.8	1741
553.0	1759
553.2	1779
553.4	1795
553.6	1804
553.8	1823
554.0	1858
554.2	1878
554.4	1906
554.6	1932
554.8	1957
555.0	1983
555.2	2014
555.4	2035
555.6	2053
555.8	2076
556.0	2096
556.2	2113
556.4	2143
556.6	2166
556.8	2184
557.0	2217
557.2	2236
557.4	2264
557.6	2303
557.8	2332
558.0	2348
558.2	2373
558.4	2380
558.6	2411
558.8	2446
559.0	2470
559.2	2484
559.4	2518
559.6	2544
559.8	2596
560.0	2635
560.2	2648
560.4	2656
560.6	2676
560.8	2702
561.0	2740
561.2	2773
561.4	2802
561.6	2826
561.8	2855
562.0	2890
562.2	2930
562.4	2966
562.6	3006
562.8	3034
563.0	3064
563.2	3083
563.4	3111
563.6	3144
563.8	3175
564.0	3216
564.2	3261
564.4	3285
564.6	3300
564.8	3327
565.0	3360
565.2	3416
565.4	3472
565.6	3496
565.8	3513
566.0	3546
566.2	3579
566.4	3628
566.6	3680
566.8	3727
567.0	3760
567.2	3799
567.4	3824
567.6	3864
567.8	3894
568.0	3945
568.2	3970
568.4	4007
568.6	4038
568.8	4082
569.0	4105
569.2	4155
569.4	4187
569.6	4232
569.8	4268
570.0	4314
570.2	4354
570.4	4403
570.6	4441
570.8	4479
571.0	4496
571.2	4528
571.4	4576
571.6	4633
571.8	4694
572.0	4728
572.2	4751
572.4	4772
572.6	4814
572.8	4859
573.0	4912
573.2	4947
573.4	4990
573.6	5023
573.8	5059
574.0	5101
574.2	5156
574.4	5198
574.6	5254
574.8	5300
575.0	5311
575.2	5347
575.4	5387
575.6	5418
575.8	5461
576.0	5496
576.2	5519
576.4	5571
576.6	5620
576.8	5689
577.0	5722
577.2	5745
577.4	5776
577.6	5820
577.8	5852
578.0	5918
578.2	5953
578.4	5966
578.6	6006
578.8	6048
579.0	6087
579.2	6139
579.4	6201
579.6	6221
579.8	6259
580.0	6277
580.2	6308
580.4	6353
580.6	6399
580.8	6426
581.0	6459
581.2	6487
581.4	6531
581.6	6575
581.8	6611
582.0	6632
582.2	6651
582.4	6685
582.6	6721
582.8	6747
583.0	6795
583.2	6830
583.4	6869
583.6	6896
583.8	6923
584.0	6945
584.2	6974
584.4	7006
584.6	7058
584.8	7090
585.0	7107
585.2	7142
585.4	7180
585.6	7202
585.8	7246
586.0	7263
586.2	7261
586.4	7302
586.6	7342
586.8	7371
587.0	7412
587.2	7434
587.4	7473
587.6	7507
587.8	7525
588.0	7543
588.2	7554
588.4	7586
588.6	7649
588.8	7679
589.0	7707
589.2	7691
589.4	7688
589.6	7714
589.8	7765
590.0	7789
590.2	7828
590.4	7840
590.6	7863
590.8	7881
591.0	7914
591.2	7914
591.4	7936
591.6	7969
591.8	7990
592.0	8020
592.2	8053
592.4	8072
592.6	8095
592.8	8119
593.0	8133
593.2	8138
593.4	8129
593.6	8138
593.8	8164
594.0	8187
594.2	8203
594.4	8196
594.6	8221
594.8	8219
595.0	8251
595.2	8289
595.4	8337
595.6	8341
595.8	8357
596.0	8346
596.2	8348
596.4	8381
596.6	8426
596.8	8437
597.0	8428
597.2	8421
597.4	8410
597.6	8417
597.8	8443
598.0	8473
598.2	8483
598.4	8503
598.6	8524
598.8	8542
599.0	8574
599.2	8594
599.4	8581
599.6	8603
599.8	8595
600.0	8600
600.2	8576
600.4	8570
600.6	8573
600.8	8620
601.0	8633
601.2	8634
601.4	8618
601.6	8627
601.8	8633
602.0	8651
602.2	8625
602.4	8613
602.6	8633
602.8	8649
603.0	8667
603.2	8678
603.4	8660
603.6	8665
603.8	8668
604.0	8684
604.2	8717
604.4	8718
604.6	8722
604.8	8710
605.0	8693
605.2	8689
605.4	8692
605.6	8683
605.8	8707
606.0	8714
606.2	8720
606.4	8696
606.6	8684
606.8	8688
607.0	8694
607.2	8694
607.4	8723
607.6	8714
607.8	8690
608.0	8685
608.2	8667
608.4	8638
608.6	8652
608.8	8650
609.0	8631
609.2	8615
609.4	8616
609.6	8604
609.8	8623
610.0	8637
610.2	8636
610.4	8611
610.6	8594
610.8	8563
611.0	8587
611.2	8591
611.4	8595
611.6	8564
611.8	8522
612.0	8506
612.2	8525
612.4	8519
612.6	8529
612.8	8491
613.0	8463
613.2	8461
613.4	8457
613.6	8445
613.8	8442
614.0	8429
614.2	8428
614.4	8414
614.6	8404
614.8	8392
615.0	8370
615.2	8351
615.4	8344
615.6	8331
615.8	8317
616.0	8313
616.2	8284
616.4	8264
616.6	8249
616.8	8230
617.0	8222
617.2	8201
617.4	8166
617.6	8169
617.8	8157
618.0	8156
618.2	8166
618.4	8133
618.6	8098
618.8	8074
619.0	8037
619.2	8028
619.4	8046
619.6	8043
619.8	8028
620.0	7992
620.2	7960
620.4	7928
620.6	7924
620.8	7903
621.0	7885
621.2	7856
621.4	7847
621.6	7825
621.8	7821
622.0	7789
622.2	7764
622.4	7738
622.6	7709
622.8	7687
623.0	7681
623.2	7671
623.4	7667
623.6	7649
623.8	7634
624.0	7611
624.2	7582
624.4	7567
624.6	7546
624.8	7525
625.0	7512
625.2	7497
625.4	7450
625.6	7419
625.8	7389
626.0	7361
626.2	7347
626.4	7352
626.6	7322
626.8	7307
627.0	7286
627.2	7238
627.4	7217
627.6	7194
627.8	7178
628.0	7161
628.2	7157
628.4	7125
628.6	7096
628.8	7061
629.0	7037
629.2	7002
629.4	6998
629.6	6991
629.8	6980
630.0	6952
630.2	6921
630.4	6877
630.6	6840
630.8	6838
631.0	6818
631.2	6778
631.4	6758
631.6	6712
631.8	6692
632.0	6690
632.2	6668
632.4	6644
632.6	6637
632.8	6610
633.0	6609
633.2	6582
633.4	6539
633.6	6500
633.8	6463
634.0	6445
634.2	6424
634.4	6389
634.6	6370
634.8	6351
635.0	6316
635.2	6294
635.4	6265
635.6	6232
635.8	6219
636.0	6188
636.2	6149
636.4	6127
636.6	6107
636.8	6097
637.0	6092
637.2	6067
637.4	6041
637.6	6018
637.8	5986
638.0	5954
638.2	5921
638.4	5891
638.6	5876
638.8	5859
639.0	5845
639.2	5807
639.4	5770
639.6	5736
639.8	5714
640.0	5689
640.2	5683
640.4	5660
640.6	5631
640.8	5605
641.0	5594
641.2	5562
641.4	5544
641.6	5522
641.8	5487
642.0	5464
642.2	5467
642.4	5439
642.6	5404
642.8	5376
643.0	5344
643.2	5317
643.4	5303
643.6	5274
643.8	5246
644.0	5229
644.2	5196
644.4	5181
644.6	5161
644.8	5130
645.0	5105
645.2	5092
645.4	5067
645.6	5057
645.8	5030
646.0	5001
646.2	4976
646.4	4960
646.6	4941
646.8	4923
647.0	4877
647.2	4858
647.4	4836
647.6	4813
647.8	4792
648.0	4764
648.2	4723
648.4	4694
648.6	4669
648.8	4650
649.0	4647
649.2	4629
649.4	4612
649.6	4579
649.8	4555
650.0	4530
650.2	4515
650.4	4500
650.6	4476
650.8	4474
651.0	4454
651.2	4428
651.4	4407
651.6	4379
651.8	4337
652.0	4321
652.2	4285
652.4	4264
652.6	4243
652.8	4219
653.0	4206
653.2	4186
653.4	4174
653.6	4163
653.8	4128
654.0	4095
654.2	4077
654.4	4046
654.6	4039
654.8	4023
655.0	3998
655.2	3969
655.4	3952
655.6	3927
655.8	3926
656.0	3903
656.2	3869
656.4	3828
656.6	3808
656.8	3805
657.0	3811
657.2	3795
657.4	3763
657.6	3731
657.8	3711
658.0	3699
658.2	3675
658.4	3660
658.6	3634
658.8	3625
659.0	3620
659.2	3601
659.4	3586
659.6	3558
659.8	3525
660.0	3495
660.2	3463
660.4	3441
660.6	3436
660.8	3420
661.0	3405
661.2	3380
661.4	3355
661.6	3345
661.8	3321
662.0	3308
662.2	3287
662.4	3276
662.6	3252
662.8	3242
663.0	3233
663.2	3210
663.4	3188
663.6	3177
663.8	3141
664.0	3120
664.2	3115
664.4	3095
664.6	3091
664.8	3098
665.0	3085
665.2	3060
665.4	3029
665.6	3006
665.8	2991
666.0	2983
666.2	2959
666.4	2933
666.6	2908
666.8	2903
667.0	2900
667.2	2885
667.4	2853
667.6	2829
667.8	2811
668.0	2804
668.2	2799
668.4	2779
668.6	2764
668.8	2752
669.0	2732
669.2	2708
669.4	2687
669.6	2661
669.8	2662
670.0	2645
670.2	2632
670.4	2626
670.6	2603
670.8	2582
671.0	2581
671.2	2558
671.4	2548
671.6	2550
671.8	2518
672.0	2494
672.2	2482
672.4	2464
672.6	2441
672.8	2437
673.0	2404
673.2	2395
673.4	2389
673.6	2385
673.8	2374
674.0	2368
674.2	2351
674.4	2335
674.6	2318
674.8	2299
675.0	2279
675.2	2261
675.4	2251
675.6	2231
675.8	2222
676.0	2209
676.2	2192
676.4	2181
676.6	2182
676.8	2178
677.0	2164
677.2	2140
677.4	2105
677.6	2084
677.8	2080
678.0	2073
678.2	2062
678.4	2054
678.6	2042
678.8	2038
679.0	2023
679.2	2011
679.4	1993
679.6	1983
679.8	1977
680.0	1974
680.2	1962
680.4	1940
680.6	1924
680.8	1902
681.0	1898
681.2	1896
681.4	1889
681.6	1864
681.8	1859
682.0	1845
682.2	1838
682.4	1832
682.6	1818
682.8	1788
683.0	1771
683.2	1763
683.4	1754
683.6	1749
683.8	1752
684.0	1742
684.2	1728
684.4	1722
684.6	1715
684.8	1696
685.0	1686
685.2	1670
685.4	1647
685.6	1642
685.8	1646
686.0	1637
686.2	1635
686.4	1625
686.6	1598
686.8	1591
687.0	1576
687.2	1565
687.4	1563
687.6	1559
687.8	1543
688.0	1540
688.2	1523
688.4	1510
688.6	1503
688.8	1488
689.0	1477
689.2	1478
689.4	1464
689.6	1463
689.8	1459
690.0	1439
690.2	1421
690.4	1412
690.6	1398
690.8	1395
691.0	1392
691.2	1388
691.4	1377
691.6	1370
691.8	1364
692.0	1360
692.2	1355
692.4	1349
692.6	1335
692.8	1318
693.0	1309
693.2	1308
693.4	1295
693.6	1279
693.8	1270
694.0	1263
694.2	1265
694.4	1266
694.6	1256
694.8	1243
695.0	1237
695.2	1239
695.4	1236
695.6	1227
695.8	1214
696.0	1198
696.2	1186
696.4	1180
696.6	1164
696.8	1149
697.0	1143
697.2	1143
697.4	1150
697.6	1159
697.8	1157
698.0	1147
698.2	1137
698.4	1129
698.6	1114
698.8	1107
699.0	1099
699.2	1094
699.4	1095
699.6	1106
699.8	1097
700.0	1090
700.2	1077
700.4	1069
700.6	1058
700.8	1054
701.0	1044
701.2	1034
701.4	1027
701.6	1032
701.8	1031
702.0	1032
702.2	1027
702.4	1009
702.6	996.9
702.8	988.5
703.0	983.1
703.2	978.0
703.4	969.1
703.6	962.5
703.8	961.3
704.0	959.0
704.2	953.2
704.4	947.0
704.6	935.7
704.8	925.4
705.0	924.4
705.2	917.1
705.4	915.3
705.6	920.7
705.8	916.6
706.0	908.7
706.2	909.7
706.4	900.9
706.6	901.4
706.8	897.2
707.0	887.1
707.2	871.3
707.4	862.8
707.6	860.8
707.8	855.8
708.0	849.8
708.2	854.7
708.4	851.8
708.6	840.5
708.8	836.6
709.0	822.7
709.2	815.6
709.4	821.7
709.6	822.2
709.8	808.1
710.0	801.3
710.2	796.0
710.4	787.4
710.6	784.4
710.8	780.7
711.0	769.3
711.2	767.0
711.4	770.3
711.6	765.8
711.8	760.1
712.0	755.0
712.2	743.5
712.4	744.3
712.6	744.2
712.8	743.1
713.0	736.9
713.2	733.2
713.4	723.8
713.6	722.5
713.8	715.1
714.0	703.5
714.2	700.4
714.4	695.8
714.6	697.3
714.8	700.5
715.0	697.4
715.2	686.8
715.4	676.0
715.6	660.5
715.8	651.2
716.0	646.7
716.2	644.8
716.4	647.6
716.6	655.0
716.8	653.8
717.0	646.3
717.2	641.8
717.4	631.2
717.6	623.6
717.8	620.7
718.0	616.7
718.2	610.6
718.4	610.3
718.6	607.6
718.8	600.3
719.0	592.9
719.2	587.3
719.4	577.4
719.6	586.5
719.8	584.3
720.0	585.7
720.2	581.9
720.4	566.5
720.6	553.8
720.8	557.8
721.0	547.6
721.2	549.6
721.4	546.0
721.6	537.1
721.8	531.8
722.0	529.5
722.2	525.7
722.4	526.4
722.6	527.4
722.8	521.8
723.0	514.7
723.2	511.7
723.4	505.3
723.6	501.6
723.8	500.1
724.0	491.3
724.2	484.0
724.4	485.9
724.6	481.5
724.8	481.9
725.0	482.7
725.2	478.6
725.4	471.5
725.6	463.5
725.8	455.2
726.0	447.9
726.2	448.8
726.4	450.1
726.6	451.0
726.8	449.2
727.0	448.8
727.2	444.5
727.4	443.4
727.6	438.1
727.8	433.0
728.0	425.5
728.2	425.7
728.4	422.6
728.6	417.3
728.8	412.2
729.0	413.1
729.2	410.7
729.4	409.9
729.6	404.4
729.8	396.9
730.0	388.8
730.2	386.7
730.4	381.3
730.6	380.9
730.8	382.2
731.0	385.9
731.2	387.0
731.4	384.3
731.6	376.7
731.8	374.8
732.0	368.3
732.2	366.9
732.4	364.4
732.6	361.4
732.8	359.3
733.0	359.0
733.2	357.6
733.4	355.3
733.6	348.2
733.8	336.8
734.0	331.4
734.2	330.6
734.4	334.3
734.6	331.4
734.8	329.9
735.0	322.6
735.2	319.7
735.4	320.3
735.6	319.5
735.8	315.7
736.0	315.4
736.2	312.6
736.4	312.7
736.6	312.7
736.8	313.6
737.0	312.6
737.2	311.5
737.4	309.2
737.6	306.9
737.8	300.2
738.0	297.8
738.2	290.9
738.4	289.6
738.6	292.7
738.8	292.0
739.0	288.2
739.2	286.8
739.4	281.9
739.6	279.9
739.8	276.6
740.0	271.8
740.2	271.7
740.4	276.1
740.6	277.3
740.8	276.8
741.0	268.9
741.2	263.1
741.4	260.6
741.6	259.9
741.8	258.4
742.0	255.5
742.2	250.9
742.4	248.3
742.6	246.3
742.8	247.0
743.0	252.0
743.2	248.9
743.4	245.2
743.6	238.3
743.8	233.8
744.0	232.6
744.2	235.0
744.4	232.7
744.6	230.9
744.8	224.3
745.0	222.5
745.2	224.0
745.4	220.6
745.6	220.0
745.8	216.9
746.0	216.2
746.2	215.5
746.4	217.9
746.6	211.8
746.8	209.4
747.0	206.5
747.2	210.0
747.4	206.3
747.6	206.9
747.8	200.0
748.0	194.4
748.2	191.4
748.4	193.9
748.6	193.2
748.8	197.8
749.0	195.9
749.2	191.6
749.4	188.8
749.6	191.2
749.8	190.1
750.0	189.1
750.2	185.3
750.4	181.3
750.6	180.6
750.8	182.4
751.0	182.7
751.2	180.7
751.4	179.4
751.6	178.8
751.8	177.4
752.0	175.7
752.2	174.3
752.4	171.2
752.6	167.7
752.8	167.2
753.0	166.4
753.2	167.6
753.4	168.9
753.6	168.3
753.8	166.1
754.0	165.9
754.2	161.1
754.4	157.9
754.6	156.6
754.8	154.5
755.0	155.6
755.2	156.0
755.4	151.7
755.6	149.2
755.8	146.9
756.0	145.8
756.2	146.7
756.4	147.9
756.6	148.5
756.8	149.2
757.0	147.9
757.2	145.0
757.4	142.8
757.6	142.1
757.8	142.3
758.0	144.6
758.2	144.9
758.4	142.3
758.6	140.9
758.8	141.7
759.0	140.5
759.2	141.1
759.4	139.6
759.6	137.2
759.8	134.3
760.0	133.8
760.2	131.6
760.4	128.8
760.6	128.1
760.8	126.8
761.0	125.8
761.2	127.6
761.4	128.7
761.6	126.3
761.8	124.5
762.0	122.5
762.2	122.4
762.4	121.9
762.6	121.4
762.8	118.9
763.0	115.6
763.2	116.2
763.4	118.6
763.6	117.0
763.8	118.4
764.0	116.2
764.2	115.7
764.4	114.6
764.6	114.6
764.8	113.6
765.0	114.3
765.2	111.2
765.4	112.1
765.6	108.9
765.8	107.7
766.0	107.2
766.2	106.7
766.4	105.4
766.6	105.3
766.8	104.7
767.0	105.2
767.2	103.8
767.4	102.9
767.6	103.5
767.8	104.6
768.0	102.4
768.2	101.9
768.4	101.2
768.6	99.73
768.8	98.49
769.0	99.03
769.2	97.50
769.4	96.91
769.6	97.55
769.8	96.29
770.0	93.37
770.2	93.07
770.4	92.18
770.6	90.70
770.8	90.80
771.0	90.56
771.2	90.42
771.4	91.58
771.6	89.78
771.8	88.57
772.0	86.36
772.2	85.87
772.4	83.85
772.6	83.03
772.8	82.80
773.0	82.00
773.2	82.40
773.4	84.39
773.6	81.87
773.8	80.27
774.0	79.33
774.2	79.26
774.4	80.66
774.6	81.78
774.8	80.79
775.0	79.75
775.2	77.82
775.4	78.13
775.6	79.82
775.8	81.94
776.0	82.76
776.2	81.47
776.4	79.56
776.6	76.95
776.8	74.88
777.0	74.04
777.2	73.28
777.4	72.23
777.6	73.67
777.8	73.33
778.0	71.00
778.2	71.05
778.4	70.38
778.6	69.97
778.8	70.97
779.0	69.09
779.2	67.62
779.4	69.48
779.6	69.12
779.8	69.63
780.0	70.09
780.2	68.00
780.4	67.66
780.6	66.64
780.8	63.86
781.0	63.47
781.2	62.36
781.4	63.09
781.6	65.13
781.8	65.46
782.0	66.06
782.2	66.05
782.4	64.15
782.6	63.62
782.8	61.94
783.0	62.21
783.2	61.67
783.4	60.73
783.6	59.96
783.8	60.98
784.0	60.71
784.2	61.48
784.4	60.40
784.6	59.12
784.8	58.37
785.0	58.80
785.2	58.57
785.4	59.96
785.6	59.84
785.8	59.26
786.0	58.64
786.2	57.57
786.4	56.99
786.6	57.97
786.8	55.80
787.0	55.67
787.2	54.47
787.4	55.31
787.6	55.41
787.8	53.77
788.0	51.77
788.2	51.99
788.4	52.62
788.6	54.88
788.8	53.67
789.0	53.04
789.2	51.39
789.4	49.21
789.6	50.46
789.8	53.71
790.0	53.48
790.2	54.50
790.4	52.85
790.6	50.49
790.8	49.99
791.0	51.02
791.2	51.44
791.4	52.82
791.6	52.89
791.8	53.00
792.0	50.21
792.2	48.27
792.4	47.67
792.6	48.46
792.8	49.44
793.0	49.81
793.2	47.90
793.4	47.19
793.6	46.19
793.8	48.42
794.0	50.53
794.2	50.06
794.4	48.63
794.6	46.92
794.8	44.66
795.0	44.53
795.2	44.99
795.4	45.51
795.6	45.46
795.8	46.42
796.0	47.43
796.2	49.01
796.4	49.85
796.6	48.32
796.8	45.70
797.0	43.50
797.2	42.90
797.4	44.11
797.6	45.48
797.8	45.67
798.0	45.86
798.2	45.96
798.4	45.79
798.6	44.11
798.8	44.70
799.0	44.11
799.2	43.82
799.4	43.92
799.6	42.96
799.8	42.80
800.0	44.38

