Sample:	'20211010A(EM)
File name:	R-CDs 7 700uM.FDS
Run date:	'15:22:11, 06/09/2023
Operator:	Administrator
Comment:	'

Instrument
Model:	F-4700 FL Spectrophotometer
Serial number:	2019-001
ROM Version:	5J24010 00

Instrument parameters
Measurement type:	Wavelength scan
Scan mode:	Emission
Data mode:	Fluorescence
EX WL:	520.0 nm
EM  Start WL:	540.0 nm
EM  End WL:	800.0 nm
Scan speed:	1200 nm/min
Delay:	0.0 s
EX Slit:	10.0 nm
EM Slit:	10.0 nm
PMT Voltage:	650 V
Response:	0.002 s
Corrected spectra:	Off
Shutter control:	On

Processing performed
Savitsky-Golay smoothed
Smoothing order:	3
Number of points:	7
Number of times:	1

Peak integration
Integration method:	Rectangular
Sensitivity:	1
Threshold:	1.000

Peaks
No.	Start(nm)	Apex(nm)	End(nm)	Height(Data)	Valley(nm)	Valley(Data)
1	540.0	594.0	595.0	2102	595.0	2082
2	595.0	596.6	598.4	2126	598.4	2109
3	598.4	600.4	601.0	2144	601.0	2129
4	601.0	602.8	605.0	2144	605.0	2118
5	605.0	606.0	615.6	2141	615.6	2022
6	615.6	617.2	739.4	2046	739.4	90.22
7	739.4	740.4	743.8	95.48	743.8	78.48
8	743.8	744.4	755.4	85.58	755.4	54.51
9	755.4	756.2	761.8	57.60	761.8	45.46
10	761.8	762.6	765.4	48.49	765.4	38.73
11	765.4	766.0	768.8	41.52	768.8	36.28
12	768.8	769.6	775.6	39.32	775.6	27.35
13	775.6	776.2	783.8	30.57	783.8	24.01
14	783.8	784.2	787.4	25.28	787.4	21.75
15	787.4	790.0	791.8	23.62	791.8	19.61
16	791.8	793.4	800.0	22.04	800.0	18.13

Data points
nm	Data
540.0	235.9
540.2	217.1
540.4	215.8
540.6	224.7
540.8	234.2
541.0	240.5
541.2	241.0
541.4	239.8
541.6	239.7
541.8	242.3
542.0	243.8
542.2	246.0
542.4	249.2
542.6	252.2
542.8	254.0
543.0	256.2
543.2	255.4
543.4	256.9
543.6	258.4
543.8	260.0
544.0	262.1
544.2	262.2
544.4	264.6
544.6	262.5
544.8	265.1
545.0	267.8
545.2	274.7
545.4	276.5
545.6	278.0
545.8	275.3
546.0	279.9
546.2	284.4
546.4	290.6
546.6	293.0
546.8	292.5
547.0	290.9
547.2	292.6
547.4	298.7
547.6	302.0
547.8	306.5
548.0	307.9
548.2	307.3
548.4	305.4
548.6	310.8
548.8	312.2
549.0	316.8
549.2	320.4
549.4	325.4
549.6	326.9
549.8	333.8
550.0	336.2
550.2	334.7
550.4	335.5
550.6	335.1
550.8	339.6
551.0	343.3
551.2	346.9
551.4	351.4
551.6	358.7
551.8	364.3
552.0	369.2
552.2	366.6
552.4	368.3
552.6	372.3
552.8	374.3
553.0	383.9
553.2	386.7
553.4	389.1
553.6	393.5
553.8	395.9
554.0	395.6
554.2	404.3
554.4	406.1
554.6	410.2
554.8	417.9
555.0	424.5
555.2	429.1
555.4	441.9
555.6	447.2
555.8	448.1
556.0	449.4
556.2	454.6
556.4	459.9
556.6	471.6
556.8	478.8
557.0	483.0
557.2	487.8
557.4	497.8
557.6	503.1
557.8	513.0
558.0	518.5
558.2	521.9
558.4	522.7
558.6	524.3
558.8	528.7
559.0	537.5
559.2	543.6
559.4	553.6
559.6	558.6
559.8	563.9
560.0	576.5
560.2	588.6
560.4	596.1
560.6	607.1
560.8	609.1
561.0	617.2
561.2	628.3
561.4	641.3
561.6	646.5
561.8	655.1
562.0	658.6
562.2	670.6
562.4	688.0
562.6	703.3
562.8	704.7
563.0	708.9
563.2	714.1
563.4	723.7
563.6	736.9
563.8	748.7
564.0	753.5
564.2	763.1
564.4	775.4
564.6	791.0
564.8	800.1
565.0	812.8
565.2	821.6
565.4	827.6
565.6	834.5
565.8	843.5
566.0	847.8
566.2	864.1
566.4	879.2
566.6	893.3
566.8	904.0
567.0	919.3
567.2	928.5
567.4	945.2
567.6	962.2
567.8	974.7
568.0	982.8
568.2	1003
568.4	1016
568.6	1027
568.8	1036
569.0	1043
569.2	1053
569.4	1071
569.6	1084
569.8	1099
570.0	1110
570.2	1130
570.4	1147
570.6	1161
570.8	1170
571.0	1181
571.2	1197
571.4	1205
571.6	1217
571.8	1228
572.0	1236
572.2	1248
572.4	1274
572.6	1284
572.8	1297
573.0	1306
573.2	1319
573.4	1336
573.6	1360
573.8	1374
574.0	1391
574.2	1402
574.4	1412
574.6	1427
574.8	1433
575.0	1442
575.2	1453
575.4	1466
575.6	1467
575.8	1484
576.0	1486
576.2	1507
576.4	1528
576.6	1556
576.8	1568
577.0	1579
577.2	1581
577.4	1587
577.6	1595
577.8	1604
578.0	1621
578.2	1630
578.4	1645
578.6	1661
578.8	1665
579.0	1671
579.2	1695
579.4	1703
579.6	1713
579.8	1723
580.0	1730
580.2	1736
580.4	1747
580.6	1745
580.8	1750
581.0	1754
581.2	1766
581.4	1775
581.6	1782
581.8	1791
582.0	1810
582.2	1821
582.4	1835
582.6	1839
582.8	1838
583.0	1850
583.2	1861
583.4	1865
583.6	1873
583.8	1871
584.0	1871
584.2	1890
584.4	1900
584.6	1905
584.8	1907
585.0	1913
585.2	1915
585.4	1930
585.6	1933
585.8	1926
586.0	1930
586.2	1935
586.4	1932
586.6	1941
586.8	1941
587.0	1942
587.2	1957
587.4	1963
587.6	1962
587.8	1961
588.0	1963
588.2	1967
588.4	1983
588.6	2001
588.8	1995
589.0	1991
589.2	1991
589.4	1985
589.6	1999
589.8	2009
590.0	2012
590.2	2032
590.4	2028
590.6	2024
590.8	2013
591.0	2006
591.2	2016
591.4	2026
591.6	2029
591.8	2037
592.0	2044
592.2	2053
592.4	2063
592.6	2057
592.8	2058
593.0	2062
593.2	2070
593.4	2076
593.6	2092
593.8	2095
594.0	2102
594.2	2102
594.4	2097
594.6	2087
594.8	2086
595.0	2082
595.2	2089
595.4	2097
595.6	2103
595.8	2099
596.0	2109
596.2	2108
596.4	2119
596.6	2126
596.8	2123
597.0	2120
597.2	2121
597.4	2114
597.6	2119
597.8	2118
598.0	2117
598.2	2116
598.4	2109
598.6	2109
598.8	2121
599.0	2128
599.2	2135
599.4	2121
599.6	2112
599.8	2108
600.0	2124
600.2	2136
600.4	2144
600.6	2142
600.8	2135
601.0	2129
601.2	2133
601.4	2132
601.6	2135
601.8	2132
602.0	2132
602.2	2135
602.4	2135
602.6	2134
602.8	2144
603.0	2140
603.2	2143
603.4	2140
603.6	2138
603.8	2130
604.0	2132
604.2	2133
604.4	2133
604.6	2133
604.8	2131
605.0	2118
605.2	2119
605.4	2128
605.6	2132
605.8	2136
606.0	2141
606.2	2129
606.4	2132
606.6	2131
606.8	2126
607.0	2122
607.2	2128
607.4	2126
607.6	2125
607.8	2128
608.0	2128
608.2	2131
608.4	2117
608.6	2114
608.8	2114
609.0	2127
609.2	2133
609.4	2133
609.6	2102
609.8	2097
610.0	2093
610.2	2099
610.4	2107
610.6	2100
610.8	2096
611.0	2091
611.2	2081
611.4	2078
611.6	2083
611.8	2078
612.0	2083
612.2	2074
612.4	2074
612.6	2078
612.8	2078
613.0	2075
613.2	2072
613.4	2060
613.6	2060
613.8	2058
614.0	2062
614.2	2062
614.4	2055
614.6	2045
614.8	2038
615.0	2031
615.2	2029
615.4	2025
615.6	2022
615.8	2029
616.0	2031
616.2	2027
616.4	2024
616.6	2038
616.8	2042
617.0	2045
617.2	2046
617.4	2019
617.6	2003
617.8	2002
618.0	2000
618.2	2007
618.4	2013
618.6	1999
618.8	1986
619.0	1978
619.2	1969
619.4	1976
619.6	1982
619.8	1978
620.0	1976
620.2	1970
620.4	1969
620.6	1980
620.8	1979
621.0	1967
621.2	1962
621.4	1950
621.6	1944
621.8	1937
622.0	1927
622.2	1917
622.4	1924
622.6	1929
622.8	1931
623.0	1922
623.2	1920
623.4	1908
623.6	1905
623.8	1899
624.0	1891
624.2	1882
624.4	1886
624.6	1894
624.8	1889
625.0	1889
625.2	1883
625.4	1883
625.6	1874
625.8	1864
626.0	1848
626.2	1845
626.4	1842
626.6	1848
626.8	1848
627.0	1842
627.2	1843
627.4	1844
627.6	1832
627.8	1817
628.0	1816
628.2	1811
628.4	1803
628.6	1803
628.8	1796
629.0	1795
629.2	1790
629.4	1790
629.6	1778
629.8	1774
630.0	1768
630.2	1763
630.4	1746
630.6	1747
630.8	1744
631.0	1744
631.2	1746
631.4	1743
631.6	1730
631.8	1722
632.0	1717
632.2	1712
632.4	1712
632.6	1707
632.8	1707
633.0	1701
633.2	1697
633.4	1686
633.6	1677
633.8	1663
634.0	1662
634.2	1663
634.4	1660
634.6	1654
634.8	1650
635.0	1646
635.2	1637
635.4	1637
635.6	1626
635.8	1614
636.0	1605
636.2	1600
636.4	1589
636.6	1591
636.8	1585
637.0	1581
637.2	1584
637.4	1577
637.6	1565
637.8	1556
638.0	1551
638.2	1561
638.4	1569
638.6	1554
638.8	1544
639.0	1531
639.2	1522
639.4	1530
639.6	1534
639.8	1527
640.0	1517
640.2	1508
640.4	1497
640.6	1489
640.8	1484
641.0	1477
641.2	1466
641.4	1471
641.6	1479
641.8	1471
642.0	1464
642.2	1444
642.4	1432
642.6	1432
642.8	1429
643.0	1419
643.2	1420
643.4	1411
643.6	1413
643.8	1415
644.0	1413
644.2	1397
644.4	1386
644.6	1369
644.8	1361
645.0	1356
645.2	1363
645.4	1354
645.6	1359
645.8	1360
646.0	1355
646.2	1338
646.4	1330
646.6	1316
646.8	1310
647.0	1313
647.2	1305
647.4	1294
647.6	1297
647.8	1295
648.0	1286
648.2	1280
648.4	1273
648.6	1265
648.8	1262
649.0	1256
649.2	1254
649.4	1243
649.6	1240
649.8	1234
650.0	1226
650.2	1226
650.4	1228
650.6	1219
650.8	1212
651.0	1205
651.2	1203
651.4	1206
651.6	1204
651.8	1193
652.0	1181
652.2	1175
652.4	1167
652.6	1164
652.8	1162
653.0	1157
653.2	1158
653.4	1155
653.6	1143
653.8	1140
654.0	1132
654.2	1127
654.4	1121
654.6	1109
654.8	1099
655.0	1098
655.2	1095
655.4	1096
655.6	1087
655.8	1079
656.0	1073
656.2	1069
656.4	1068
656.6	1061
656.8	1052
657.0	1047
657.2	1042
657.4	1045
657.6	1045
657.8	1040
658.0	1037
658.2	1028
658.4	1021
658.6	1017
658.8	1005
659.0	999.9
659.2	988.0
659.4	979.9
659.6	975.4
659.8	972.1
660.0	970.3
660.2	970.3
660.4	964.2
660.6	963.7
660.8	955.8
661.0	951.4
661.2	944.2
661.4	940.2
661.6	937.5
661.8	943.7
662.0	939.3
662.2	934.2
662.4	921.6
662.6	909.7
662.8	900.6
663.0	902.4
663.2	899.3
663.4	896.6
663.6	894.8
663.8	882.3
664.0	872.4
664.2	875.4
664.4	875.8
664.6	877.4
664.8	873.6
665.0	857.9
665.2	846.1
665.4	845.0
665.6	846.6
665.8	847.4
666.0	843.4
666.2	834.3
666.4	826.5
666.6	816.8
666.8	807.4
667.0	800.0
667.2	808.4
667.4	810.7
667.6	810.8
667.8	806.8
668.0	796.8
668.2	787.8
668.4	792.5
668.6	786.5
668.8	785.3
669.0	779.5
669.2	773.1
669.4	767.4
669.6	760.6
669.8	760.0
670.0	760.2
670.2	752.5
670.4	753.9
670.6	751.7
670.8	742.7
671.0	740.4
671.2	734.7
671.4	727.1
671.6	724.4
671.8	712.8
672.0	698.9
672.2	692.9
672.4	693.4
672.6	701.1
672.8	705.9
673.0	706.4
673.2	698.7
673.4	690.3
673.6	681.0
673.8	675.6
674.0	679.4
674.2	679.8
674.4	679.1
674.6	671.6
674.8	662.7
675.0	654.8
675.2	652.2
675.4	648.2
675.6	651.0
675.8	641.0
676.0	634.3
676.2	634.0
676.4	632.4
676.6	629.3
676.8	624.9
677.0	612.7
677.2	605.7
677.4	606.9
677.6	608.4
677.8	605.3
678.0	603.0
678.2	604.4
678.4	598.8
678.6	596.5
678.8	593.4
679.0	588.2
679.2	583.7
679.4	584.8
679.6	576.1
679.8	574.8
680.0	579.4
680.2	574.6
680.4	568.9
680.6	562.4
680.8	554.8
681.0	548.7
681.2	549.9
681.4	544.4
681.6	545.4
681.8	545.0
682.0	541.3
682.2	536.6
682.4	535.0
682.6	535.2
682.8	534.4
683.0	532.3
683.2	531.5
683.4	526.8
683.6	519.3
683.8	514.7
684.0	505.8
684.2	505.6
684.4	505.7
684.6	500.2
684.8	493.7
685.0	488.5
685.2	490.3
685.4	490.7
685.6	487.7
685.8	487.8
686.0	482.8
686.2	477.6
686.4	480.9
686.6	472.1
686.8	471.8
687.0	473.3
687.2	471.0
687.4	468.3
687.6	465.9
687.8	454.7
688.0	453.7
688.2	455.9
688.4	453.9
688.6	448.5
688.8	441.7
689.0	436.9
689.2	437.8
689.4	439.3
689.6	436.6
689.8	435.8
690.0	433.8
690.2	430.5
690.4	426.0
690.6	419.0
690.8	415.2
691.0	417.2
691.2	418.2
691.4	412.8
691.6	411.0
691.8	405.4
692.0	406.3
692.2	410.0
692.4	409.6
692.6	403.5
692.8	399.7
693.0	390.9
693.2	385.7
693.4	385.0
693.6	382.2
693.8	381.3
694.0	384.1
694.2	380.8
694.4	377.9
694.6	375.5
694.8	373.5
695.0	375.2
695.2	377.7
695.4	373.1
695.6	368.0
695.8	365.1
696.0	362.7
696.2	365.6
696.4	368.0
696.6	368.0
696.8	362.9
697.0	359.9
697.2	355.5
697.4	353.2
697.6	351.1
697.8	347.4
698.0	342.7
698.2	338.0
698.4	337.8
698.6	337.4
698.8	338.6
699.0	336.4
699.2	336.4
699.4	335.6
699.6	335.5
699.8	331.8
700.0	327.2
700.2	325.5
700.4	324.7
700.6	322.9
700.8	320.0
701.0	318.1
701.2	314.8
701.4	315.2
701.6	316.0
701.8	314.8
702.0	312.0
702.2	314.1
702.4	310.6
702.6	312.2
702.8	315.6
703.0	314.2
703.2	310.9
703.4	307.2
703.6	296.8
703.8	292.3
704.0	291.6
704.2	291.8
704.4	295.0
704.6	293.3
704.8	285.7
705.0	278.7
705.2	276.9
705.4	279.3
705.6	282.3
705.8	282.6
706.0	280.8
706.2	281.3
706.4	278.4
706.6	275.3
706.8	270.6
707.0	267.8
707.2	268.4
707.4	269.6
707.6	270.1
707.8	268.8
708.0	265.9
708.2	264.0
708.4	263.1
708.6	260.1
708.8	259.1
709.0	259.9
709.2	260.2
709.4	258.2
709.6	258.5
709.8	256.5
710.0	254.3
710.2	254.0
710.4	251.5
710.6	248.0
710.8	244.4
711.0	242.4
711.2	243.6
711.4	238.9
711.6	233.9
711.8	233.6
712.0	236.6
712.2	237.6
712.4	239.8
712.6	236.7
712.8	230.4
713.0	231.0
713.2	236.1
713.4	232.8
713.6	230.2
713.8	225.4
714.0	219.0
714.2	220.6
714.4	218.4
714.6	216.7
714.8	211.7
715.0	210.5
715.2	205.2
715.4	208.2
715.6	209.8
715.8	213.0
716.0	209.0
716.2	208.5
716.4	205.3
716.6	204.1
716.8	202.6
717.0	200.2
717.2	194.0
717.4	188.7
717.6	192.6
717.8	194.9
718.0	196.8
718.2	198.2
718.4	194.8
718.6	192.5
718.8	190.6
719.0	189.4
719.2	187.1
719.4	186.5
719.6	186.1
719.8	186.6
720.0	185.8
720.2	182.9
720.4	177.3
720.6	176.7
720.8	178.6
721.0	175.3
721.2	173.6
721.4	168.5
721.6	164.7
721.8	168.6
722.0	172.3
722.2	172.6
722.4	171.4
722.6	166.1
722.8	164.8
723.0	164.9
723.2	163.8
723.4	162.9
723.6	161.1
723.8	158.7
724.0	159.3
724.2	158.6
724.4	157.4
724.6	155.4
724.8	154.1
725.0	154.6
725.2	157.2
725.4	158.6
725.6	157.0
725.8	153.2
726.0	151.1
726.2	150.9
726.4	151.1
726.6	148.3
726.8	145.9
727.0	143.8
727.2	144.4
727.4	145.7
727.6	145.2
727.8	143.1
728.0	142.7
728.2	142.7
728.4	143.4
728.6	143.4
728.8	142.3
729.0	140.3
729.2	135.6
729.4	133.6
729.6	132.4
729.8	132.4
730.0	129.9
730.2	128.1
730.4	124.9
730.6	130.6
730.8	133.8
731.0	135.5
731.2	129.8
731.4	123.8
731.6	120.6
731.8	121.9
732.0	121.7
732.2	121.5
732.4	118.1
732.6	118.9
732.8	120.3
733.0	119.4
733.2	117.3
733.4	117.1
733.6	117.6
733.8	120.4
734.0	120.9
734.2	116.5
734.4	112.9
734.6	113.1
734.8	113.8
735.0	113.0
735.2	112.7
735.4	108.8
735.6	107.6
735.8	108.0
736.0	108.1
736.2	108.1
736.4	107.6
736.6	106.2
736.8	104.7
737.0	103.8
737.2	104.7
737.4	104.3
737.6	103.9
737.8	102.3
738.0	101.3
738.2	99.60
738.4	101.5
738.6	100.4
738.8	98.46
739.0	94.32
739.2	92.02
739.4	90.22
739.6	92.64
739.8	93.70
740.0	94.26
740.2	93.68
740.4	95.48
740.6	94.49
740.8	93.21
741.0	90.13
741.2	87.89
741.4	87.55
741.6	88.59
741.8	88.73
742.0	88.27
742.2	87.08
742.4	86.60
742.6	85.86
742.8	86.45
743.0	86.79
743.2	85.31
743.4	81.77
743.6	79.21
743.8	78.48
744.0	82.01
744.2	84.85
744.4	85.58
744.6	82.44
744.8	79.81
745.0	79.86
745.2	79.57
745.4	79.78
745.6	79.48
745.8	77.37
746.0	76.20
746.2	77.10
746.4	76.97
746.6	75.22
746.8	74.60
747.0	74.14
747.2	72.12
747.4	72.37
747.6	73.37
747.8	73.31
748.0	72.59
748.2	72.06
748.4	68.66
748.6	68.06
748.8	68.87
749.0	70.94
749.2	69.73
749.4	68.78
749.6	66.60
749.8	66.76
750.0	67.35
750.2	69.07
750.4	66.98
750.6	66.52
750.8	63.96
751.0	63.84
751.2	63.65
751.4	62.92
751.6	62.06
751.8	62.01
752.0	63.01
752.2	64.29
752.4	63.99
752.6	62.06
752.8	61.44
753.0	59.59
753.2	60.54
753.4	60.23
753.6	60.20
753.8	59.08
754.0	60.70
754.2	59.58
754.4	59.15
754.6	58.55
754.8	56.58
755.0	55.00
755.2	55.81
755.4	54.51
755.6	55.46
755.8	56.47
756.0	57.34
756.2	57.60
756.4	55.85
756.6	53.72
756.8	52.95
757.0	52.58
757.2	53.33
757.4	54.64
757.6	53.69
757.8	52.56
758.0	51.87
758.2	51.29
758.4	51.84
758.6	52.21
758.8	51.73
759.0	50.92
759.2	50.08
759.4	50.81
759.6	52.09
759.8	50.05
760.0	48.60
760.2	46.88
760.4	45.44
760.6	46.29
760.8	47.18
761.0	47.52
761.2	46.95
761.4	46.80
761.6	45.67
761.8	45.46
762.0	46.31
762.2	48.15
762.4	48.20
762.6	48.49
762.8	46.12
763.0	44.71
763.2	44.69
763.4	45.17
763.6	44.97
763.8	44.75
764.0	44.07
764.2	43.73
764.4	44.02
764.6	43.19
764.8	42.51
765.0	40.45
765.2	38.79
765.4	38.73
765.6	40.19
765.8	41.06
766.0	41.52
766.2	40.78
766.4	40.12
766.6	40.64
766.8	41.40
767.0	40.11
767.2	38.88
767.4	37.69
767.6	36.86
767.8	37.93
768.0	38.12
768.2	37.73
768.4	37.38
768.6	37.26
768.8	36.28
769.0	37.19
769.2	37.41
769.4	38.85
769.6	39.32
769.8	38.48
770.0	36.06
770.2	35.74
770.4	36.40
770.6	37.35
770.8	37.68
771.0	35.20
771.2	33.82
771.4	33.80
771.6	34.66
771.8	34.58
772.0	34.73
772.2	33.46
772.4	32.04
772.6	31.80
772.8	31.71
773.0	31.13
773.2	32.06
773.4	32.90
773.6	31.94
773.8	32.99
774.0	32.68
774.2	31.11
774.4	30.66
774.6	30.37
774.8	30.70
775.0	31.16
775.2	30.31
775.4	28.34
775.6	27.35
775.8	28.10
776.0	29.87
776.2	30.57
776.4	30.55
776.6	29.99
776.8	28.88
777.0	28.99
777.2	29.46
777.4	28.76
777.6	29.25
777.8	28.73
778.0	27.60
778.2	27.50
778.4	28.71
778.6	28.89
778.8	29.19
779.0	27.38
779.2	26.94
779.4	27.95
779.6	28.52
779.8	28.64
780.0	28.03
780.2	27.25
780.4	27.98
780.6	28.56
780.8	26.91
781.0	25.64
781.2	25.16
781.4	25.10
781.6	25.89
781.8	26.71
782.0	25.84
782.2	25.18
782.4	24.95
782.6	24.09
782.8	24.55
783.0	25.74
783.2	25.58
783.4	25.37
783.6	24.73
783.8	24.01
784.0	24.07
784.2	25.28
784.4	24.22
784.6	24.64
784.8	24.77
785.0	24.59
785.2	24.10
785.4	24.60
785.6	22.85
785.8	23.95
786.0	23.90
786.2	23.90
786.4	24.01
786.6	23.62
786.8	23.42
787.0	24.08
787.2	22.44
787.4	21.75
787.6	22.69
787.8	22.51
788.0	22.80
788.2	22.38
788.4	22.36
788.6	22.27
788.8	23.46
789.0	23.06
789.2	22.19
789.4	22.39
789.6	23.31
789.8	23.50
790.0	23.62
790.2	22.72
790.4	21.88
790.6	21.39
790.8	21.98
791.0	22.25
791.2	22.19
791.4	21.77
791.6	20.97
791.8	19.61
792.0	19.65
792.2	20.04
792.4	20.06
792.6	20.84
792.8	20.86
793.0	21.96
793.2	21.97
793.4	22.04
793.6	20.94
793.8	20.88
794.0	21.03
794.2	21.73
794.4	21.36
794.6	20.49
794.8	19.63
795.0	19.82
795.2	20.28
795.4	19.59
795.6	19.81
795.8	19.43
796.0	19.68
796.2	19.94
796.4	19.85
796.6	19.06
796.8	19.12
797.0	19.00
797.2	19.67
797.4	20.16
797.6	19.25
797.8	18.42
798.0	17.60
798.2	18.25
798.4	19.31
798.6	20.82
798.8	20.57
799.0	20.09
799.2	18.63
799.4	18.42
799.6	17.99
799.8	17.85
800.0	18.13

