Sample:	'20211010A(EM)
File name:	R-CDs 3.FDS
Run date:	'14:28:54, 06/09/2023
Operator:	Administrator
Comment:	'

Instrument
Model:	F-4700 FL Spectrophotometer
Serial number:	2019-001
ROM Version:	5J24010 00

Instrument parameters
Measurement type:	Wavelength scan
Scan mode:	Emission
Data mode:	Fluorescence
EX WL:	520.0 nm
EM  Start WL:	540.0 nm
EM  End WL:	800.0 nm
Scan speed:	1200 nm/min
Delay:	0.0 s
EX Slit:	10.0 nm
EM Slit:	10.0 nm
PMT Voltage:	660 V
Response:	0.002 s
Corrected spectra:	Off
Shutter control:	On

Processing performed
Savitsky-Golay smoothed
Smoothing order:	3
Number of points:	7
Number of times:	1

Peak integration
Integration method:	Rectangular
Sensitivity:	1
Threshold:	1.000

Peaks
No.	Start(nm)	Apex(nm)	End(nm)	Height(Data)	Valley(nm)	Valley(Data)
1	540.0	604.8	605.4	7628	605.4	7583
2	605.4	612.2	770.2	7728	770.2	93.10
3	770.2	770.8	773.8	96.58	773.8	78.60
4	773.8	774.6	783.8	82.39	783.8	58.77
5	783.8	784.2	786.6	63.65	786.6	55.52
6	786.6	787.2	788.8	59.12	788.8	52.96
7	788.8	789.8	790.8	55.15	790.8	48.97
8	790.8	791.8	792.8	52.67	792.8	49.24
9	792.8	793.0	795.8	51.15	795.8	47.28
10	795.8	796.4	800.0	48.62	800.0	42.72

Data points
nm	Data
540.0	641.6
540.2	650.3
540.4	658.1
540.6	665.7
540.8	675.1
541.0	680.1
541.2	691.7
541.4	703.5
541.6	714.6
541.8	724.5
542.0	727.0
542.2	725.9
542.4	734.3
542.6	750.9
542.8	769.3
543.0	786.0
543.2	787.4
543.4	789.6
543.6	796.8
543.8	811.8
544.0	825.0
544.2	840.5
544.4	847.3
544.6	854.5
544.8	865.2
545.0	871.8
545.2	888.1
545.4	908.5
545.6	921.2
545.8	928.1
546.0	939.0
546.2	943.6
546.4	953.2
546.6	963.2
546.8	966.9
547.0	971.6
547.2	985.1
547.4	1002
547.6	1017
547.8	1038
548.0	1048
548.2	1061
548.4	1077
548.6	1083
548.8	1095
549.0	1108
549.2	1118
549.4	1133
549.6	1151
549.8	1161
550.0	1178
550.2	1193
550.4	1210
550.6	1224
550.8	1242
551.0	1253
551.2	1258
551.4	1270
551.6	1275
551.8	1290
552.0	1308
552.2	1323
552.4	1340
552.6	1363
552.8	1375
553.0	1393
553.2	1408
553.4	1422
553.6	1443
553.8	1456
554.0	1457
554.2	1471
554.4	1484
554.6	1509
554.8	1535
555.0	1550
555.2	1559
555.4	1580
555.6	1591
555.8	1612
556.0	1625
556.2	1646
556.4	1666
556.6	1688
556.8	1702
557.0	1717
557.2	1733
557.4	1758
557.6	1781
557.8	1807
558.0	1819
558.2	1834
558.4	1852
558.6	1878
558.8	1904
559.0	1917
559.2	1930
559.4	1944
559.6	1968
559.8	2001
560.0	2026
560.2	2036
560.4	2050
560.6	2067
560.8	2090
561.0	2113
561.2	2131
561.4	2155
561.6	2179
561.8	2202
562.0	2233
562.2	2247
562.4	2257
562.6	2274
562.8	2289
563.0	2310
563.2	2347
563.4	2373
563.6	2402
563.8	2435
564.0	2453
564.2	2476
564.4	2494
564.6	2516
564.8	2538
565.0	2565
565.2	2585
565.4	2614
565.6	2648
565.8	2675
566.0	2696
566.2	2712
566.4	2727
566.6	2752
566.8	2778
567.0	2818
567.2	2852
567.4	2881
567.6	2899
567.8	2920
568.0	2943
568.2	2984
568.4	3010
568.6	3027
568.8	3039
569.0	3070
569.2	3104
569.4	3140
569.6	3174
569.8	3202
570.0	3242
570.2	3269
570.4	3285
570.6	3307
570.8	3324
571.0	3348
571.2	3388
571.4	3418
571.6	3454
571.8	3485
572.0	3509
572.2	3541
572.4	3569
572.6	3603
572.8	3637
573.0	3657
573.2	3682
573.4	3708
573.6	3728
573.8	3754
574.0	3785
574.2	3835
574.4	3880
574.6	3904
574.8	3925
575.0	3935
575.2	3972
575.4	4022
575.6	4057
575.8	4084
576.0	4123
576.2	4140
576.4	4178
576.6	4193
576.8	4213
577.0	4264
577.2	4312
577.4	4343
577.6	4373
577.8	4391
578.0	4404
578.2	4450
578.4	4465
578.6	4499
578.8	4554
579.0	4602
579.2	4620
579.4	4639
579.6	4636
579.8	4661
580.0	4729
580.2	4788
580.4	4837
580.6	4877
580.8	4908
581.0	4922
581.2	4956
581.4	4978
581.6	5001
581.8	5030
582.0	5055
582.2	5090
582.4	5127
582.6	5136
582.8	5156
583.0	5185
583.2	5210
583.4	5265
583.6	5303
583.8	5328
584.0	5377
584.2	5420
584.4	5441
584.6	5477
584.8	5494
585.0	5504
585.2	5519
585.4	5555
585.6	5576
585.8	5624
586.0	5668
586.2	5693
586.4	5728
586.6	5788
586.8	5814
587.0	5828
587.2	5853
587.4	5868
587.6	5896
587.8	5928
588.0	5954
588.2	5967
588.4	6001
588.6	6033
588.8	6075
589.0	6106
589.2	6140
589.4	6176
589.6	6207
589.8	6223
590.0	6245
590.2	6265
590.4	6288
590.6	6327
590.8	6379
591.0	6406
591.2	6410
591.4	6425
591.6	6437
591.8	6452
592.0	6485
592.2	6512
592.4	6536
592.6	6570
592.8	6596
593.0	6612
593.2	6645
593.4	6676
593.6	6726
593.8	6751
594.0	6753
594.2	6761
594.4	6801
594.6	6843
594.8	6895
595.0	6894
595.2	6889
595.4	6910
595.6	6930
595.8	6971
596.0	6993
596.2	6981
596.4	6999
596.6	7024
596.8	7043
597.0	7069
597.2	7083
597.4	7092
597.6	7111
597.8	7127
598.0	7147
598.2	7171
598.4	7208
598.6	7235
598.8	7247
599.0	7273
599.2	7292
599.4	7312
599.6	7326
599.8	7329
600.0	7321
600.2	7329
600.4	7346
600.6	7372
600.8	7399
601.0	7415
601.2	7427
601.4	7436
601.6	7446
601.8	7455
602.0	7470
602.2	7498
602.4	7511
602.6	7518
602.8	7526
603.0	7522
603.2	7524
603.4	7562
603.6	7577
603.8	7575
604.0	7578
604.2	7583
604.4	7595
604.6	7616
604.8	7628
605.0	7613
605.2	7589
605.4	7583
605.6	7593
605.8	7606
606.0	7625
606.2	7649
606.4	7639
606.6	7635
606.8	7644
607.0	7642
607.2	7644
607.4	7656
607.6	7642
607.8	7635
608.0	7648
608.2	7674
608.4	7686
608.6	7701
608.8	7695
609.0	7688
609.2	7685
609.4	7704
609.6	7698
609.8	7693
610.0	7690
610.2	7699
610.4	7717
610.6	7736
610.8	7719
611.0	7715
611.2	7712
611.4	7711
611.6	7714
611.8	7722
612.0	7723
612.2	7728
612.4	7721
612.6	7710
612.8	7690
613.0	7675
613.2	7667
613.4	7666
613.6	7672
613.8	7661
614.0	7671
614.2	7658
614.4	7626
614.6	7617
614.8	7601
615.0	7580
615.2	7592
615.4	7595
615.6	7590
615.8	7590
616.0	7575
616.2	7574
616.4	7558
616.6	7541
616.8	7522
617.0	7508
617.2	7506
617.4	7513
617.6	7511
617.8	7482
618.0	7462
618.2	7461
618.4	7457
618.6	7442
618.8	7429
619.0	7394
619.2	7387
619.4	7383
619.6	7363
619.8	7355
620.0	7350
620.2	7335
620.4	7311
620.6	7289
620.8	7261
621.0	7261
621.2	7266
621.4	7254
621.6	7231
621.8	7224
622.0	7182
622.2	7162
622.4	7137
622.6	7118
622.8	7121
623.0	7137
623.2	7123
623.4	7103
623.6	7079
623.8	7048
624.0	7037
624.2	7035
624.4	7028
624.6	7009
624.8	6989
625.0	6952
625.2	6921
625.4	6907
625.6	6896
625.8	6891
626.0	6867
626.2	6822
626.4	6797
626.6	6778
626.8	6764
627.0	6759
627.2	6742
627.4	6698
627.6	6695
627.8	6672
628.0	6657
628.2	6668
628.4	6646
628.6	6616
628.8	6600
629.0	6567
629.2	6533
629.4	6528
629.6	6506
629.8	6488
630.0	6476
630.2	6464
630.4	6445
630.6	6408
630.8	6381
631.0	6343
631.2	6333
631.4	6315
631.6	6312
631.8	6286
632.0	6255
632.2	6219
632.4	6210
632.6	6161
632.8	6130
633.0	6118
633.2	6104
633.4	6090
633.6	6080
633.8	6045
634.0	5993
634.2	5989
634.4	5984
634.6	5986
634.8	5982
635.0	5975
635.2	5930
635.4	5915
635.6	5878
635.8	5875
636.0	5858
636.2	5845
636.4	5817
636.6	5788
636.8	5752
637.0	5729
637.2	5688
637.4	5667
637.6	5652
637.8	5640
638.0	5633
638.2	5609
638.4	5580
638.6	5554
638.8	5529
639.0	5506
639.2	5487
639.4	5463
639.6	5432
639.8	5405
640.0	5383
640.2	5359
640.4	5343
640.6	5329
640.8	5294
641.0	5266
641.2	5239
641.4	5215
641.6	5188
641.8	5173
642.0	5169
642.2	5158
642.4	5142
642.6	5126
642.8	5088
643.0	5053
643.2	5044
643.4	5026
643.6	5000
643.8	4985
644.0	4946
644.2	4909
644.4	4899
644.6	4893
644.8	4874
645.0	4853
645.2	4816
645.4	4791
645.6	4788
645.8	4781
646.0	4769
646.2	4725
646.4	4688
646.6	4649
646.8	4631
647.0	4636
647.2	4642
647.4	4612
647.6	4599
647.8	4569
648.0	4540
648.2	4536
648.4	4511
648.6	4468
648.8	4443
649.0	4437
649.2	4418
649.4	4407
649.6	4390
649.8	4352
650.0	4318
650.2	4300
650.4	4282
650.6	4257
650.8	4247
651.0	4216
651.2	4196
651.4	4189
651.6	4183
651.8	4171
652.0	4152
652.2	4119
652.4	4094
652.6	4081
652.8	4070
653.0	4052
653.2	4012
653.4	3968
653.6	3938
653.8	3922
654.0	3936
654.2	3928
654.4	3909
654.6	3874
654.8	3853
655.0	3826
655.2	3816
655.4	3808
655.6	3777
655.8	3745
656.0	3729
656.2	3720
656.4	3706
656.6	3718
656.8	3688
657.0	3661
657.2	3636
657.4	3631
657.6	3602
657.8	3581
658.0	3561
658.2	3530
658.4	3519
658.6	3511
658.8	3488
659.0	3457
659.2	3439
659.4	3408
659.6	3394
659.8	3380
660.0	3368
660.2	3358
660.4	3352
660.6	3333
660.8	3311
661.0	3282
661.2	3258
661.4	3237
661.6	3225
661.8	3208
662.0	3208
662.2	3191
662.4	3177
662.6	3164
662.8	3148
663.0	3126
663.2	3115
663.4	3080
663.6	3063
663.8	3046
664.0	3033
664.2	3017
664.4	3009
664.6	2991
664.8	2989
665.0	2983
665.2	2972
665.4	2942
665.6	2916
665.8	2896
666.0	2873
666.2	2870
666.4	2860
666.6	2836
666.8	2813
667.0	2812
667.2	2791
667.4	2773
667.6	2762
667.8	2746
668.0	2731
668.2	2721
668.4	2696
668.6	2675
668.8	2662
669.0	2639
669.2	2632
669.4	2610
669.6	2588
669.8	2576
670.0	2558
670.2	2534
670.4	2536
670.6	2529
670.8	2507
671.0	2499
671.2	2480
671.4	2463
671.6	2454
671.8	2444
672.0	2430
672.2	2426
672.4	2409
672.6	2388
672.8	2372
673.0	2356
673.2	2344
673.4	2333
673.6	2316
673.8	2302
674.0	2295
674.2	2286
674.4	2278
674.6	2267
674.8	2255
675.0	2246
675.2	2229
675.4	2214
675.6	2203
675.8	2187
676.0	2172
676.2	2155
676.4	2149
676.6	2143
676.8	2133
677.0	2110
677.2	2091
677.4	2075
677.6	2068
677.8	2056
678.0	2045
678.2	2025
678.4	2015
678.6	2012
678.8	2002
679.0	1986
679.2	1978
679.4	1963
679.6	1950
679.8	1948
680.0	1933
680.2	1920
680.4	1901
680.6	1885
680.8	1871
681.0	1868
681.2	1855
681.4	1850
681.6	1837
681.8	1824
682.0	1804
682.2	1783
682.4	1772
682.6	1770
682.8	1778
683.0	1777
683.2	1765
683.4	1741
683.6	1730
683.8	1713
684.0	1700
684.2	1694
684.4	1683
684.6	1659
684.8	1652
685.0	1641
685.2	1636
685.4	1637
685.6	1635
685.8	1618
686.0	1605
686.2	1595
686.4	1585
686.6	1572
686.8	1567
687.0	1555
687.2	1541
687.4	1525
687.6	1507
687.8	1499
688.0	1509
688.2	1510
688.4	1498
688.6	1485
688.8	1460
689.0	1447
689.2	1442
689.4	1429
689.6	1425
689.8	1426
690.0	1414
690.2	1409
690.4	1396
690.6	1387
690.8	1384
691.0	1378
691.2	1364
691.4	1355
691.6	1350
691.8	1348
692.0	1344
692.2	1339
692.4	1329
692.6	1314
692.8	1305
693.0	1292
693.2	1284
693.4	1273
693.6	1265
693.8	1257
694.0	1251
694.2	1251
694.4	1258
694.6	1253
694.8	1243
695.0	1230
695.2	1220
695.4	1212
695.6	1204
695.8	1204
696.0	1195
696.2	1185
696.4	1183
696.6	1169
696.8	1162
697.0	1165
697.2	1155
697.4	1143
697.6	1128
697.8	1116
698.0	1118
698.2	1115
698.4	1108
698.6	1098
698.8	1089
699.0	1087
699.2	1079
699.4	1074
699.6	1074
699.8	1070
700.0	1070
700.2	1059
700.4	1044
700.6	1037
700.8	1035
701.0	1031
701.2	1029
701.4	1020
701.6	1013
701.8	1006
702.0	1001
702.2	992.0
702.4	982.6
702.6	977.2
702.8	972.6
703.0	973.0
703.2	972.9
703.4	974.9
703.6	972.6
703.8	964.3
704.0	955.5
704.2	945.2
704.4	933.1
704.6	927.9
704.8	929.9
705.0	926.0
705.2	927.8
705.4	917.2
705.6	905.7
705.8	899.0
706.0	892.3
706.2	885.3
706.4	884.7
706.6	879.5
706.8	878.9
707.0	876.4
707.2	861.1
707.4	855.1
707.6	851.2
707.8	849.8
708.0	844.4
708.2	833.2
708.4	819.3
708.6	825.4
708.8	827.0
709.0	820.0
709.2	807.4
709.4	801.9
709.6	792.8
709.8	794.1
710.0	794.6
710.2	789.7
710.4	784.8
710.6	782.7
710.8	770.3
711.0	763.1
711.2	763.9
711.4	763.0
711.6	763.7
711.8	761.2
712.0	756.0
712.2	750.9
712.4	743.6
712.6	737.5
712.8	738.6
713.0	735.0
713.2	729.1
713.4	721.6
713.6	712.6
713.8	705.6
714.0	698.9
714.2	693.1
714.4	688.0
714.6	686.2
714.8	682.1
715.0	677.8
715.2	668.8
715.4	670.3
715.6	672.3
715.8	669.7
716.0	667.3
716.2	662.9
716.4	650.7
716.6	647.3
716.8	646.9
717.0	637.6
717.2	634.4
717.4	627.9
717.6	621.0
717.8	613.9
718.0	616.0
718.2	609.2
718.4	600.3
718.6	594.1
718.8	594.4
719.0	591.5
719.2	596.1
719.4	595.2
719.6	593.1
719.8	590.4
720.0	586.9
720.2	581.0
720.4	572.1
720.6	566.0
720.8	564.4
721.0	560.3
721.2	552.7
721.4	546.2
721.6	536.7
721.8	535.8
722.0	532.4
722.2	525.7
722.4	520.5
722.6	517.9
722.8	513.1
723.0	515.8
723.2	512.2
723.4	508.0
723.6	506.3
723.8	505.1
724.0	494.1
724.2	490.3
724.4	486.0
724.6	483.3
724.8	478.7
725.0	473.4
725.2	467.2
725.4	461.4
725.6	463.2
725.8	465.8
726.0	463.7
726.2	457.3
726.4	455.8
726.6	450.3
726.8	447.0
727.0	450.0
727.2	448.5
727.4	440.6
727.6	435.4
727.8	434.5
728.0	430.4
728.2	431.2
728.4	430.8
728.6	427.9
728.8	420.1
729.0	415.9
729.2	410.4
729.4	407.3
729.6	404.4
729.8	404.2
730.0	397.5
730.2	396.6
730.4	397.5
730.6	400.0
730.8	401.3
731.0	396.9
731.2	389.1
731.4	383.7
731.6	379.0
731.8	373.1
732.0	368.6
732.2	364.3
732.4	360.7
732.6	360.2
732.8	361.6
733.0	361.3
733.2	357.7
733.4	353.0
733.6	349.8
733.8	348.6
734.0	346.7
734.2	340.6
734.4	336.2
734.6	335.5
734.8	335.6
735.0	335.7
735.2	330.2
735.4	317.9
735.6	317.6
735.8	322.6
736.0	321.0
736.2	318.2
736.4	313.5
736.6	305.6
736.8	306.7
737.0	311.8
737.2	310.2
737.4	306.4
737.6	300.7
737.8	295.9
738.0	293.4
738.2	296.7
738.4	294.9
738.6	293.7
738.8	289.3
739.0	285.9
739.2	284.4
739.4	282.5
739.6	280.6
739.8	284.3
740.0	284.6
740.2	281.7
740.4	283.8
740.6	276.7
740.8	269.5
741.0	265.3
741.2	258.9
741.4	257.3
741.6	260.6
741.8	257.2
742.0	255.3
742.2	254.0
742.4	251.1
742.6	250.5
742.8	250.4
743.0	246.7
743.2	243.8
743.4	242.6
743.6	237.3
743.8	233.9
744.0	234.5
744.2	233.5
744.4	236.2
744.6	234.9
744.8	228.7
745.0	227.4
745.2	228.7
745.4	227.2
745.6	227.7
745.8	226.1
746.0	221.7
746.2	220.7
746.4	220.2
746.6	220.4
746.8	217.2
747.0	215.7
747.2	211.5
747.4	210.7
747.6	210.2
747.8	209.7
748.0	206.4
748.2	201.5
748.4	199.7
748.6	202.4
748.8	206.2
749.0	203.1
749.2	200.3
749.4	191.0
749.6	191.0
749.8	191.6
750.0	193.5
750.2	192.6
750.4	191.9
750.6	186.8
750.8	188.1
751.0	187.1
751.2	184.6
751.4	183.4
751.6	180.6
751.8	177.8
752.0	176.6
752.2	177.6
752.4	178.4
752.6	179.3
752.8	177.1
753.0	175.4
753.2	171.6
753.4	170.9
753.6	169.8
753.8	169.6
754.0	168.4
754.2	166.8
754.4	165.2
754.6	164.6
754.8	162.8
755.0	161.2
755.2	160.1
755.4	160.1
755.6	158.3
755.8	156.6
756.0	156.1
756.2	156.9
756.4	156.6
756.6	157.9
756.8	152.9
757.0	150.0
757.2	149.5
757.4	149.5
757.6	149.5
757.8	151.9
758.0	152.3
758.2	151.5
758.4	148.8
758.6	144.9
758.8	142.8
759.0	141.5
759.2	141.3
759.4	139.1
759.6	137.4
759.8	134.6
760.0	135.1
760.2	132.3
760.4	133.3
760.6	131.7
760.8	131.3
761.0	131.6
761.2	133.9
761.4	133.4
761.6	132.3
761.8	129.2
762.0	125.7
762.2	125.4
762.4	126.2
762.6	127.3
762.8	126.6
763.0	125.2
763.2	123.7
763.4	121.8
763.6	121.1
763.8	120.2
764.0	117.6
764.2	115.0
764.4	115.6
764.6	114.8
764.8	114.2
765.0	112.8
765.2	111.5
765.4	110.4
765.6	110.6
765.8	112.1
766.0	111.5
766.2	110.6
766.4	111.8
766.6	109.7
766.8	106.9
767.0	106.4
767.2	105.5
767.4	105.4
767.6	105.0
767.8	104.1
768.0	101.3
768.2	100.2
768.4	100.3
768.6	103.0
768.8	103.0
769.0	101.8
769.2	99.43
769.4	96.83
769.6	95.67
769.8	95.13
770.0	94.59
770.2	93.10
770.4	94.93
770.6	95.86
770.8	96.58
771.0	95.46
771.2	95.37
771.4	92.96
771.6	93.30
771.8	91.43
772.0	91.64
772.2	92.17
772.4	91.40
772.6	89.06
772.8	87.65
773.0	83.94
773.2	82.64
773.4	81.72
773.6	79.01
773.8	78.60
774.0	80.49
774.2	80.33
774.4	81.43
774.6	82.39
774.8	81.34
775.0	80.50
775.2	79.84
775.4	79.09
775.6	79.73
775.8	79.62
776.0	80.85
776.2	80.02
776.4	79.26
776.6	78.33
776.8	77.91
777.0	76.07
777.2	75.58
777.4	73.42
777.6	73.62
777.8	73.84
778.0	73.80
778.2	72.24
778.4	70.69
778.6	69.88
778.8	70.52
779.0	72.30
779.2	72.18
779.4	71.14
779.6	69.07
779.8	69.09
780.0	69.31
780.2	69.73
780.4	69.08
780.6	69.22
780.8	68.01
781.0	66.25
781.2	66.92
781.4	66.24
781.6	64.69
781.8	63.51
782.0	62.72
782.2	61.65
782.4	62.26
782.6	61.65
782.8	63.02
783.0	62.89
783.2	61.78
783.4	59.96
783.6	59.26
783.8	58.77
784.0	61.12
784.2	63.65
784.4	62.97
784.6	61.94
784.8	61.97
785.0	61.92
785.2	59.80
785.4	58.69
785.6	57.19
785.8	56.47
786.0	57.04
786.2	57.30
786.4	56.75
786.6	55.52
786.8	56.74
787.0	57.54
787.2	59.12
787.4	58.64
787.6	57.42
787.8	54.08
788.0	53.64
788.2	54.03
788.4	54.18
788.6	53.61
788.8	52.96
789.0	53.04
789.2	53.05
789.4	54.98
789.6	54.29
789.8	55.15
790.0	54.16
790.2	54.03
790.4	51.38
790.6	51.00
790.8	48.97
791.0	50.84
791.2	50.39
791.4	52.00
791.6	51.79
791.8	52.67
792.0	51.23
792.2	51.17
792.4	49.40
792.6	49.94
792.8	49.24
793.0	51.15
793.2	50.69
793.4	50.23
793.6	49.50
793.8	50.40
794.0	50.18
794.2	50.24
794.4	49.74
794.6	48.45
794.8	47.61
795.0	47.51
795.2	47.30
795.4	47.50
795.6	47.60
795.8	47.28
796.0	47.76
796.2	47.92
796.4	48.62
796.6	47.31
796.8	46.03
797.0	45.00
797.2	45.46
797.4	44.95
797.6	46.61
797.8	46.05
798.0	45.38
798.2	44.55
798.4	43.87
798.6	42.83
798.8	44.90
799.0	46.28
799.2	44.95
799.4	42.90
799.6	40.11
799.8	39.39
800.0	42.72

