Sample:	'20211010A(EM)
File name:	R-CDs 7.FDS
Run date:	'15:20:34, 06/09/2023
Operator:	Administrator
Comment:	'

Instrument
Model:	F-4700 FL Spectrophotometer
Serial number:	2019-001
ROM Version:	5J24010 00

Instrument parameters
Measurement type:	Wavelength scan
Scan mode:	Emission
Data mode:	Fluorescence
EX WL:	520.0 nm
EM  Start WL:	540.0 nm
EM  End WL:	800.0 nm
Scan speed:	1200 nm/min
Delay:	0.0 s
EX Slit:	10.0 nm
EM Slit:	10.0 nm
PMT Voltage:	650 V
Response:	0.002 s
Corrected spectra:	Off
Shutter control:	On

Processing performed
Savitsky-Golay smoothed
Smoothing order:	3
Number of points:	7
Number of times:	1

Peak integration
Integration method:	Rectangular
Sensitivity:	1
Threshold:	1.000

Peaks
No.	Start(nm)	Apex(nm)	End(nm)	Height(Data)	Valley(nm)	Valley(Data)
1	540.0	604.4	605.2	8093	605.2	8060
2	605.2	606.0	606.6	8117	606.6	8070
3	606.6	608.2	748.0	8086	748.0	178.0
4	748.0	748.6	762.8	190.0	762.8	109.0
5	762.8	763.6	772.0	114.2	772.0	77.71
6	772.0	773.4	789.4	81.04	789.4	47.96
7	789.4	790.2	793.0	52.08	793.0	44.36
8	793.0	794.0	796.2	48.04	796.2	41.98
9	796.2	797.4	800.0	44.47	800.0	35.40

Data points
nm	Data
540.0	734.8
540.2	748.8
540.4	757.6
540.6	764.6
540.8	779.5
541.0	783.5
541.2	797.3
541.4	808.3
541.6	814.8
541.8	823.1
542.0	829.9
542.2	838.0
542.4	848.7
542.6	856.2
542.8	862.3
543.0	871.3
543.2	888.3
543.4	909.1
543.6	923.9
543.8	932.1
544.0	935.7
544.2	937.6
544.4	959.0
544.6	966.9
544.8	981.5
545.0	990.7
545.2	1006
545.4	1021
545.6	1039
545.8	1048
546.0	1066
546.2	1073
546.4	1094
546.6	1105
546.8	1120
547.0	1136
547.2	1150
547.4	1156
547.6	1171
547.8	1183
548.0	1201
548.2	1214
548.4	1232
548.6	1247
548.8	1267
549.0	1286
549.2	1298
549.4	1296
549.6	1308
549.8	1319
550.0	1339
550.2	1361
550.4	1380
550.6	1392
550.8	1413
551.0	1427
551.2	1458
551.4	1478
551.6	1493
551.8	1517
552.0	1531
552.2	1553
552.4	1576
552.6	1585
552.8	1595
553.0	1603
553.2	1617
553.4	1649
553.6	1678
553.8	1704
554.0	1729
554.2	1746
554.4	1775
554.6	1788
554.8	1801
555.0	1804
555.2	1819
555.4	1856
555.6	1892
555.8	1914
556.0	1933
556.2	1947
556.4	1955
556.6	1988
556.8	2012
557.0	2042
557.2	2069
557.4	2085
557.6	2089
557.8	2111
558.0	2131
558.2	2158
558.4	2193
558.6	2213
558.8	2237
559.0	2270
559.2	2298
559.4	2323
559.6	2347
559.8	2374
560.0	2394
560.2	2432
560.4	2464
560.6	2496
560.8	2517
561.0	2540
561.2	2550
561.4	2578
561.6	2615
561.8	2662
562.0	2690
562.2	2716
562.4	2732
562.6	2749
562.8	2778
563.0	2803
563.2	2826
563.4	2864
563.6	2899
563.8	2941
564.0	2987
564.2	3028
564.4	3065
564.6	3090
564.8	3102
565.0	3121
565.2	3130
565.4	3173
565.6	3225
565.8	3257
566.0	3294
566.2	3337
566.4	3353
566.6	3398
566.8	3428
567.0	3452
567.2	3491
567.4	3537
567.6	3562
567.8	3586
568.0	3600
568.2	3638
568.4	3694
568.6	3753
568.8	3777
569.0	3807
569.2	3830
569.4	3861
569.6	3898
569.8	3930
570.0	3958
570.2	4000
570.4	4043
570.6	4088
570.8	4139
571.0	4186
571.2	4237
571.4	4276
571.6	4305
571.8	4335
572.0	4367
572.2	4398
572.4	4433
572.6	4473
572.8	4491
573.0	4535
573.2	4573
573.4	4613
573.6	4653
573.8	4690
574.0	4714
574.2	4760
574.4	4798
574.6	4835
574.8	4868
575.0	4912
575.2	4954
575.4	5000
575.6	5031
575.8	5048
576.0	5069
576.2	5113
576.4	5160
576.6	5216
576.8	5254
577.0	5279
577.2	5312
577.4	5348
577.6	5398
577.8	5425
578.0	5451
578.2	5476
578.4	5510
578.6	5541
578.8	5584
579.0	5619
579.2	5658
579.4	5707
579.6	5746
579.8	5771
580.0	5805
580.2	5839
580.4	5876
580.6	5911
580.8	5945
581.0	5982
581.2	6022
581.4	6059
581.6	6102
581.8	6134
582.0	6150
582.2	6192
582.4	6222
582.6	6252
582.8	6274
583.0	6309
583.2	6328
583.4	6367
583.6	6403
583.8	6438
584.0	6445
584.2	6473
584.4	6499
584.6	6533
584.8	6567
585.0	6605
585.2	6614
585.4	6639
585.6	6659
585.8	6705
586.0	6739
586.2	6786
586.4	6814
586.6	6846
586.8	6874
587.0	6910
587.2	6930
587.4	6960
587.6	6982
587.8	7010
588.0	7019
588.2	7038
588.4	7056
588.6	7097
588.8	7134
589.0	7166
589.2	7166
589.4	7164
589.6	7169
589.8	7194
590.0	7216
590.2	7265
590.4	7313
590.6	7348
590.8	7363
591.0	7369
591.2	7371
591.4	7383
591.6	7400
591.8	7414
592.0	7439
592.2	7468
592.4	7502
592.6	7514
592.8	7520
593.0	7537
593.2	7563
593.4	7584
593.6	7588
593.8	7602
594.0	7607
594.2	7643
594.4	7682
594.6	7698
594.8	7706
595.0	7745
595.2	7756
595.4	7773
595.6	7797
595.8	7785
596.0	7786
596.2	7809
596.4	7817
596.6	7838
596.8	7846
597.0	7855
597.2	7860
597.4	7862
597.6	7860
597.8	7890
598.0	7911
598.2	7949
598.4	7964
598.6	7961
598.8	7921
599.0	7907
599.2	7920
599.4	7946
599.6	7983
599.8	8012
600.0	7995
600.2	7980
600.4	7989
600.6	7997
600.8	8029
601.0	8044
601.2	8043
601.4	8024
601.6	8039
601.8	8046
602.0	8045
602.2	8057
602.4	8062
602.6	8047
602.8	8053
603.0	8064
603.2	8055
603.4	8066
603.6	8081
603.8	8080
604.0	8078
604.2	8090
604.4	8093
604.6	8082
604.8	8085
605.0	8067
605.2	8060
605.4	8069
605.6	8090
605.8	8104
606.0	8117
606.2	8110
606.4	8087
606.6	8070
606.8	8077
607.0	8079
607.2	8082
607.4	8079
607.6	8071
607.8	8076
608.0	8080
608.2	8086
608.4	8080
608.6	8062
608.8	8069
609.0	8072
609.2	8056
609.4	8052
609.6	8035
609.8	8026
610.0	8034
610.2	8005
610.4	8004
610.6	8002
610.8	8003
611.0	8005
611.2	7994
611.4	7976
611.6	7989
611.8	7969
612.0	7971
612.2	7987
612.4	7988
612.6	7980
612.8	7968
613.0	7936
613.2	7910
613.4	7910
613.6	7908
613.8	7866
614.0	7857
614.2	7872
614.4	7856
614.6	7847
614.8	7822
615.0	7793
615.2	7778
615.4	7796
615.6	7789
615.8	7778
616.0	7756
616.2	7742
616.4	7719
616.6	7722
616.8	7703
617.0	7687
617.2	7673
617.4	7657
617.6	7661
617.8	7652
618.0	7658
618.2	7645
618.4	7607
618.6	7557
618.8	7522
619.0	7495
619.2	7516
619.4	7518
619.6	7504
619.8	7468
620.0	7428
620.2	7412
620.4	7403
620.6	7382
620.8	7359
621.0	7343
621.2	7321
621.4	7316
621.6	7304
621.8	7282
622.0	7265
622.2	7273
622.4	7256
622.6	7239
622.8	7225
623.0	7201
623.2	7182
623.4	7190
623.6	7168
623.8	7154
624.0	7149
624.2	7105
624.4	7073
624.6	7060
624.8	7026
625.0	7012
625.2	6982
625.4	6944
625.6	6920
625.8	6917
626.0	6895
626.2	6875
626.4	6847
626.6	6830
626.8	6810
627.0	6793
627.2	6752
627.4	6707
627.6	6689
627.8	6678
628.0	6676
628.2	6660
628.4	6657
628.6	6628
628.8	6591
629.0	6559
629.2	6532
629.4	6503
629.6	6488
629.8	6479
630.0	6470
630.2	6457
630.4	6449
630.6	6409
630.8	6363
631.0	6330
631.2	6312
631.4	6309
631.6	6321
631.8	6301
632.0	6287
632.2	6239
632.4	6179
632.6	6154
632.8	6145
633.0	6118
633.2	6122
633.4	6104
633.6	6086
633.8	6069
634.0	6047
634.2	6006
634.4	5972
634.6	5941
634.8	5916
635.0	5898
635.2	5881
635.4	5869
635.6	5858
635.8	5852
636.0	5823
636.2	5794
636.4	5766
636.6	5738
636.8	5718
637.0	5688
637.2	5664
637.4	5639
637.6	5623
637.8	5594
638.0	5558
638.2	5527
638.4	5517
638.6	5510
638.8	5483
639.0	5469
639.2	5439
639.4	5412
639.6	5379
639.8	5352
640.0	5321
640.2	5323
640.4	5299
640.6	5268
640.8	5244
641.0	5223
641.2	5201
641.4	5179
641.6	5140
641.8	5122
642.0	5121
642.2	5124
642.4	5098
642.6	5053
642.8	5006
643.0	4978
643.2	4970
643.4	4981
643.6	4963
643.8	4933
644.0	4900
644.2	4866
644.4	4845
644.6	4838
644.8	4815
645.0	4792
645.2	4759
645.4	4727
645.6	4718
645.8	4705
646.0	4690
646.2	4665
646.4	4627
646.6	4592
646.8	4588
647.0	4572
647.2	4558
647.4	4529
647.6	4505
647.8	4478
648.0	4463
648.2	4449
648.4	4418
648.6	4387
648.8	4361
649.0	4349
649.2	4339
649.4	4316
649.6	4283
649.8	4268
650.0	4231
650.2	4222
650.4	4214
650.6	4190
650.8	4178
651.0	4148
651.2	4107
651.4	4075
651.6	4062
651.8	4038
652.0	4040
652.2	4037
652.4	4022
652.6	3993
652.8	3971
653.0	3922
653.2	3897
653.4	3899
653.6	3890
653.8	3887
654.0	3872
654.2	3842
654.4	3797
654.6	3765
654.8	3739
655.0	3723
655.2	3712
655.4	3707
655.6	3685
655.8	3658
656.0	3642
656.2	3614
656.4	3602
656.6	3584
656.8	3553
657.0	3527
657.2	3518
657.4	3500
657.6	3483
657.8	3465
658.0	3428
658.2	3411
658.4	3403
658.6	3393
658.8	3383
659.0	3362
659.2	3335
659.4	3316
659.6	3300
659.8	3280
660.0	3262
660.2	3242
660.4	3232
660.6	3230
660.8	3221
661.0	3196
661.2	3162
661.4	3137
661.6	3114
661.8	3104
662.0	3104
662.2	3093
662.4	3087
662.6	3078
662.8	3054
663.0	3020
663.2	2998
663.4	2973
663.6	2961
663.8	2952
664.0	2933
664.2	2914
664.4	2909
664.6	2901
664.8	2891
665.0	2879
665.2	2859
665.4	2838
665.6	2814
665.8	2793
666.0	2765
666.2	2743
666.4	2741
666.6	2728
666.8	2706
667.0	2697
667.2	2680
667.4	2666
667.6	2664
667.8	2645
668.0	2627
668.2	2616
668.4	2601
668.6	2584
668.8	2574
669.0	2541
669.2	2517
669.4	2507
669.6	2494
669.8	2492
670.0	2496
670.2	2473
670.4	2454
670.6	2438
670.8	2418
671.0	2408
671.2	2394
671.4	2381
671.6	2372
671.8	2369
672.0	2354
672.2	2345
672.4	2314
672.6	2299
672.8	2286
673.0	2272
673.2	2264
673.4	2259
673.6	2234
673.8	2220
674.0	2199
674.2	2176
674.4	2170
674.6	2157
674.8	2140
675.0	2120
675.2	2109
675.4	2102
675.6	2106
675.8	2100
676.0	2091
676.2	2070
676.4	2051
676.6	2036
676.8	2029
677.0	2012
677.2	2001
677.4	1992
677.6	1979
677.8	1972
678.0	1960
678.2	1936
678.4	1923
678.6	1912
678.8	1901
679.0	1897
679.2	1888
679.4	1872
679.6	1856
679.8	1838
680.0	1828
680.2	1826
680.4	1826
680.6	1821
680.8	1814
681.0	1800
681.2	1778
681.4	1756
681.6	1742
681.8	1732
682.0	1721
682.2	1708
682.4	1694
682.6	1687
682.8	1679
683.0	1670
683.2	1650
683.4	1638
683.6	1623
683.8	1624
684.0	1615
684.2	1612
684.4	1593
684.6	1587
684.8	1567
685.0	1560
685.2	1549
685.4	1547
685.6	1538
685.8	1540
686.0	1529
686.2	1519
686.4	1507
686.6	1493
686.8	1485
687.0	1481
687.2	1475
687.4	1458
687.6	1444
687.8	1421
688.0	1408
688.2	1411
688.4	1415
688.6	1402
688.8	1395
689.0	1384
689.2	1367
689.4	1359
689.6	1358
689.8	1344
690.0	1337
690.2	1323
690.4	1311
690.6	1303
690.8	1311
691.0	1303
691.2	1299
691.4	1286
691.6	1277
691.8	1268
692.0	1266
692.2	1264
692.4	1258
692.6	1250
692.8	1235
693.0	1223
693.2	1215
693.4	1212
693.6	1215
693.8	1212
694.0	1208
694.2	1202
694.4	1191
694.6	1172
694.8	1160
695.0	1148
695.2	1141
695.4	1139
695.6	1139
695.8	1134
696.0	1128
696.2	1119
696.4	1113
696.6	1106
696.8	1101
697.0	1090
697.2	1085
697.4	1081
697.6	1079
697.8	1074
698.0	1062
698.2	1043
698.4	1037
698.6	1034
698.8	1036
699.0	1038
699.2	1025
699.4	1016
699.6	1009
699.8	998.9
700.0	1000
700.2	1003
700.4	999.7
700.6	990.8
700.8	984.0
701.0	969.6
701.2	961.5
701.4	957.1
701.6	957.7
701.8	956.1
702.0	963.1
702.2	955.5
702.4	945.9
702.6	934.4
702.8	924.0
703.0	919.7
703.2	922.6
703.4	915.2
703.6	913.4
703.8	906.8
704.0	897.5
704.2	889.9
704.4	888.9
704.6	887.3
704.8	886.6
705.0	878.0
705.2	871.7
705.4	862.4
705.6	856.8
705.8	856.5
706.0	848.6
706.2	840.4
706.4	839.3
706.6	830.8
706.8	824.9
707.0	822.8
707.2	817.6
707.4	814.0
707.6	814.9
707.8	808.7
708.0	804.1
708.2	798.7
708.4	789.2
708.6	781.8
708.8	779.8
709.0	773.3
709.2	768.7
709.4	765.5
709.6	756.8
709.8	751.8
710.0	750.8
710.2	744.5
710.4	736.5
710.6	737.2
710.8	726.9
711.0	724.0
711.2	718.1
711.4	712.3
711.6	708.4
711.8	711.0
712.0	705.4
712.2	700.9
712.4	693.0
712.6	684.9
712.8	682.5
713.0	683.5
713.2	681.6
713.4	674.7
713.6	669.7
713.8	660.6
714.0	657.2
714.2	656.1
714.4	654.2
714.6	643.1
714.8	640.3
715.0	637.0
715.2	632.2
715.4	627.9
715.6	622.7
715.8	616.0
716.0	615.5
716.2	616.4
716.4	611.1
716.6	608.1
716.8	608.3
717.0	607.5
717.2	598.2
717.4	588.9
717.6	573.2
717.8	566.0
718.0	570.6
718.2	578.3
718.4	578.9
718.6	569.7
718.8	556.9
719.0	547.5
719.2	544.1
719.4	545.3
719.6	539.8
719.8	530.6
720.0	525.0
720.2	521.6
720.4	527.6
720.6	528.6
720.8	524.0
721.0	521.7
721.2	512.3
721.4	504.9
721.6	502.2
721.8	495.8
722.0	489.1
722.2	490.1
722.4	486.4
722.6	485.7
722.8	482.1
723.0	480.8
723.2	478.1
723.4	478.4
723.6	473.5
723.8	476.1
724.0	471.2
724.2	465.4
724.4	461.1
724.6	453.1
724.8	448.5
725.0	448.3
725.2	442.6
725.4	438.7
725.6	439.2
725.8	436.9
726.0	441.2
726.2	436.3
726.4	426.3
726.6	420.3
726.8	416.8
727.0	410.9
727.2	406.5
727.4	402.0
727.6	400.4
727.8	402.9
728.0	404.9
728.2	403.1
728.4	394.6
728.6	388.1
728.8	387.3
729.0	384.3
729.2	383.2
729.4	382.0
729.6	379.2
729.8	372.8
730.0	369.6
730.2	370.3
730.4	372.1
730.6	368.6
730.8	365.1
731.0	357.7
731.2	351.6
731.4	349.9
731.6	348.8
731.8	344.9
732.0	341.1
732.2	340.7
732.4	336.7
732.6	329.8
732.8	329.8
733.0	328.1
733.2	326.3
733.4	327.3
733.6	323.8
733.8	320.1
734.0	322.9
734.2	320.8
734.4	316.9
734.6	312.0
734.8	312.9
735.0	312.3
735.2	315.8
735.4	317.4
735.6	312.4
735.8	305.9
736.0	301.8
736.2	296.6
736.4	296.6
736.6	299.5
736.8	295.9
737.0	293.5
737.2	290.0
737.4	284.8
737.6	281.5
737.8	283.0
738.0	278.5
738.2	274.3
738.4	272.9
738.6	268.2
738.8	264.6
739.0	266.8
739.2	264.9
739.4	261.0
739.6	259.8
739.8	257.6
740.0	254.4
740.2	253.0
740.4	251.1
740.6	250.9
740.8	248.4
741.0	248.5
741.2	245.6
741.4	239.4
741.6	235.1
741.8	235.7
742.0	235.5
742.2	237.0
742.4	235.2
742.6	232.0
742.8	229.6
743.0	231.1
743.2	228.2
743.4	224.6
743.6	220.9
743.8	218.5
744.0	215.8
744.2	217.6
744.4	215.4
744.6	213.2
744.8	213.4
745.0	212.1
745.2	209.4
745.4	209.6
745.6	207.7
745.8	203.6
746.0	201.0
746.2	196.7
746.4	195.9
746.6	198.8
746.8	198.1
747.0	201.1
747.2	198.9
747.4	194.7
747.6	189.4
747.8	182.9
748.0	178.0
748.2	181.4
748.4	185.1
748.6	190.0
748.8	186.7
749.0	185.5
749.2	183.5
749.4	181.9
749.6	179.4
749.8	176.9
750.0	170.9
750.2	173.2
750.4	171.1
750.6	171.5
750.8	169.1
751.0	166.8
751.2	165.8
751.4	167.5
751.6	168.3
751.8	170.1
752.0	167.9
752.2	167.9
752.4	165.8
752.6	163.6
752.8	160.1
753.0	155.2
753.2	151.4
753.4	150.2
753.6	150.2
753.8	152.7
754.0	152.9
754.2	152.8
754.4	153.7
754.6	150.7
754.8	148.0
755.0	148.5
755.2	149.2
755.4	149.1
755.6	146.2
755.8	144.2
756.0	141.1
756.2	141.9
756.4	142.2
756.6	143.4
756.8	140.5
757.0	138.0
757.2	136.5
757.4	137.5
757.6	137.1
757.8	139.2
758.0	135.5
758.2	133.0
758.4	133.1
758.6	132.8
758.8	134.2
759.0	133.5
759.2	128.9
759.4	127.8
759.6	130.1
759.8	129.8
760.0	130.9
760.2	128.8
760.4	127.1
760.6	126.2
760.8	126.7
761.0	127.5
761.2	125.5
761.4	122.7
761.6	121.9
761.8	118.8
762.0	114.7
762.2	113.4
762.4	110.5
762.6	109.4
762.8	109.0
763.0	109.5
763.2	110.8
763.4	112.2
763.6	114.2
763.8	114.0
764.0	109.1
764.2	105.4
764.4	102.1
764.6	100.8
764.8	103.6
765.0	104.9
765.2	104.0
765.4	103.5
765.6	100.9
765.8	100.3
766.0	100.1
766.2	98.41
766.4	99.31
766.6	99.80
766.8	97.96
767.0	98.46
767.2	97.32
767.4	96.12
767.6	96.77
767.8	96.67
768.0	95.55
768.2	93.01
768.4	89.84
768.6	90.23
768.8	90.84
769.0	91.72
769.2	91.40
769.4	89.58
769.6	88.01
769.8	89.33
770.0	89.03
770.2	87.36
770.4	86.77
770.6	85.43
770.8	85.95
771.0	86.82
771.2	84.53
771.4	81.59
771.6	79.29
771.8	77.72
772.0	77.71
772.2	79.65
772.4	78.53
772.6	79.46
772.8	79.63
773.0	81.00
773.2	80.78
773.4	81.04
773.6	77.76
773.8	77.39
774.0	76.99
774.2	76.42
774.4	75.33
774.6	74.28
774.8	72.41
775.0	72.07
775.2	71.69
775.4	71.42
775.6	73.13
775.8	74.26
776.0	72.22
776.2	71.36
776.4	68.85
776.6	66.93
776.8	67.93
777.0	68.07
777.2	66.45
777.4	67.34
777.6	67.43
777.8	66.52
778.0	66.11
778.2	65.96
778.4	66.15
778.6	67.31
778.8	67.16
779.0	65.11
779.2	62.88
779.4	60.83
779.6	61.12
779.8	62.94
780.0	64.45
780.2	64.34
780.4	63.95
780.6	61.22
780.8	60.17
781.0	59.69
781.2	59.87
781.4	59.85
781.6	60.40
781.8	59.57
782.0	60.51
782.2	60.46
782.4	59.95
782.6	58.48
782.8	56.25
783.0	55.46
783.2	57.89
783.4	59.23
783.6	59.54
783.8	58.68
784.0	55.76
784.2	54.10
784.4	55.42
784.6	55.30
784.8	55.93
785.0	56.37
785.2	54.53
785.4	52.97
785.6	54.26
785.8	53.22
786.0	54.50
786.2	55.88
786.4	55.33
786.6	54.96
786.8	53.99
787.0	52.65
787.2	52.86
787.4	53.10
787.6	51.94
787.8	51.95
788.0	50.17
788.2	50.58
788.4	51.18
788.6	52.87
788.8	52.76
789.0	52.06
789.2	49.41
789.4	47.96
789.6	48.14
789.8	50.04
790.0	51.81
790.2	52.08
790.4	49.72
790.6	47.98
790.8	47.71
791.0	47.73
791.2	48.18
791.4	48.29
791.6	47.23
791.8	46.99
792.0	47.81
792.2	47.91
792.4	46.35
792.6	45.15
792.8	44.69
793.0	44.36
793.2	45.90
793.4	46.81
793.6	47.62
793.8	47.97
794.0	48.04
794.2	47.34
794.4	46.99
794.6	45.92
794.8	44.85
795.0	43.98
795.2	43.86
795.4	44.04
795.6	43.48
795.8	43.34
796.0	42.59
796.2	41.98
796.4	42.33
796.6	43.11
796.8	42.07
797.0	43.40
797.2	43.92
797.4	44.47
797.6	43.71
797.8	42.84
798.0	41.26
798.2	42.73
798.4	43.92
798.6	44.54
798.8	43.11
799.0	42.27
799.2	41.52
799.4	41.52
799.6	40.56
799.8	38.63
800.0	35.40

