Sample:	'20211010A(EM)
File name:	R-CDs 8 800uM.FDS
Run date:	'15:25:16, 06/09/2023
Operator:	Administrator
Comment:	'

Instrument
Model:	F-4700 FL Spectrophotometer
Serial number:	2019-001
ROM Version:	5J24010 00

Instrument parameters
Measurement type:	Wavelength scan
Scan mode:	Emission
Data mode:	Fluorescence
EX WL:	520.0 nm
EM  Start WL:	540.0 nm
EM  End WL:	800.0 nm
Scan speed:	1200 nm/min
Delay:	0.0 s
EX Slit:	10.0 nm
EM Slit:	10.0 nm
PMT Voltage:	650 V
Response:	0.002 s
Corrected spectra:	Off
Shutter control:	On

Processing performed
Savitsky-Golay smoothed
Smoothing order:	3
Number of points:	7
Number of times:	1

Peak integration
Integration method:	Rectangular
Sensitivity:	1
Threshold:	1.000

Peaks
No.	Start(nm)	Apex(nm)	End(nm)	Height(Data)	Valley(nm)	Valley(Data)
1	540.0	592.4	593.2	2057	593.2	2037
2	593.2	595.0	595.6	2070	595.6	2052
3	595.6	599.2	599.8	2102	599.8	2091
4	599.8	600.8	601.6	2113	601.6	2091
5	601.6	602.6	605.0	2128	605.0	2069
6	605.0	605.8	612.4	2115	612.4	2017
7	612.4	613.0	616.8	2041	616.8	1951
8	616.8	617.4	695.4	1987	695.4	358.0
9	695.4	696.2	718.8	364.7	718.8	180.9
10	718.8	719.6	752.8	188.6	752.8	61.26
11	752.8	753.2	759.4	62.82	759.4	46.23
12	759.4	760.2	765.8	51.40	765.8	38.83
13	765.8	766.6	771.6	41.71	771.6	31.34
14	771.6	773.0	774.4	34.02	774.4	29.09
15	774.4	775.6	777.0	31.64	777.0	27.65
16	777.0	777.6	779.4	30.81	779.4	25.97
17	779.4	780.0	781.4	27.96	781.4	23.39
18	781.4	783.0	783.8	27.00	783.8	22.12
19	783.8	784.8	787.8	24.98	787.8	20.93
20	787.8	789.4	790.0	22.56	790.0	21.14
21	790.0	792.8	795.4	24.23	795.4	18.64
22	795.4	797.0	797.6	20.46	797.6	18.86
23	797.6	798.4	800.0	22.38	800.0	18.66

Data points
nm	Data
540.0	225.6
540.2	240.8
540.4	243.8
540.6	240.0
540.8	234.6
541.0	237.4
541.2	240.1
541.4	246.3
541.6	248.9
541.8	252.4
542.0	256.2
542.2	257.4
542.4	256.7
542.6	255.6
542.8	255.7
543.0	256.6
543.2	260.4
543.4	262.8
543.6	262.6
543.8	262.7
544.0	262.9
544.2	268.3
544.4	271.2
544.6	274.7
544.8	276.5
545.0	276.3
545.2	274.8
545.4	279.4
545.6	284.3
545.8	282.7
546.0	288.0
546.2	291.4
546.4	293.8
546.6	295.8
546.8	300.0
547.0	297.7
547.2	298.1
547.4	299.1
547.6	299.4
547.8	299.8
548.0	306.3
548.2	312.0
548.4	315.1
548.6	316.5
548.8	320.1
549.0	322.8
549.2	329.3
549.4	334.3
549.6	338.7
549.8	335.3
550.0	336.8
550.2	336.4
550.4	339.0
550.6	345.4
550.8	353.9
551.0	356.6
551.2	362.2
551.4	365.2
551.6	368.2
551.8	369.0
552.0	368.9
552.2	367.1
552.4	368.6
552.6	376.2
552.8	381.3
553.0	388.6
553.2	392.8
553.4	396.7
553.6	398.6
553.8	401.0
554.0	402.6
554.2	404.3
554.4	407.0
554.6	416.0
554.8	423.4
555.0	431.9
555.2	438.7
555.4	438.3
555.6	445.8
555.8	450.3
556.0	456.1
556.2	465.1
556.4	466.4
556.6	468.9
556.8	475.5
557.0	478.9
557.2	488.6
557.4	493.8
557.6	500.0
557.8	507.9
558.0	505.6
558.2	511.9
558.4	525.2
558.6	529.9
558.8	544.4
559.0	551.7
559.2	550.1
559.4	556.1
559.6	565.3
559.8	566.7
560.0	577.7
560.2	586.6
560.4	596.9
560.6	610.9
560.8	622.5
561.0	631.0
561.2	636.7
561.4	642.7
561.6	646.9
561.8	654.7
562.0	665.4
562.2	682.6
562.4	689.3
562.6	700.4
562.8	707.0
563.0	714.2
563.2	724.1
563.4	734.7
563.6	741.5
563.8	749.8
564.0	760.0
564.2	764.9
564.4	776.4
564.6	785.7
564.8	797.1
565.0	805.6
565.2	815.2
565.4	823.3
565.6	835.1
565.8	852.2
566.0	865.3
566.2	881.4
566.4	888.8
566.6	895.7
566.8	900.4
567.0	915.8
567.2	930.5
567.4	941.0
567.6	947.2
567.8	958.2
568.0	971.1
568.2	988.7
568.4	1007
568.6	1019
568.8	1033
569.0	1053
569.2	1064
569.4	1078
569.6	1095
569.8	1110
570.0	1123
570.2	1132
570.4	1142
570.6	1154
570.8	1166
571.0	1180
571.2	1194
571.4	1212
571.6	1224
571.8	1239
572.0	1244
572.2	1252
572.4	1266
572.6	1290
572.8	1291
573.0	1301
573.2	1309
573.4	1326
573.6	1337
573.8	1352
574.0	1361
574.2	1371
574.4	1392
574.6	1416
574.8	1421
575.0	1436
575.2	1455
575.4	1465
575.6	1485
575.8	1504
576.0	1515
576.2	1533
576.4	1541
576.6	1549
576.8	1554
577.0	1557
577.2	1561
577.4	1568
577.6	1577
577.8	1601
578.0	1615
578.2	1629
578.4	1640
578.6	1646
578.8	1653
579.0	1666
579.2	1674
579.4	1682
579.6	1694
579.8	1703
580.0	1717
580.2	1727
580.4	1737
580.6	1743
580.8	1752
581.0	1763
581.2	1777
581.4	1785
581.6	1790
581.8	1788
582.0	1788
582.2	1794
582.4	1805
582.6	1812
582.8	1821
583.0	1830
583.2	1843
583.4	1851
583.6	1852
583.8	1850
584.0	1851
584.2	1853
584.4	1867
584.6	1876
584.8	1873
585.0	1884
585.2	1892
585.4	1898
585.6	1918
585.8	1923
586.0	1914
586.2	1913
586.4	1921
586.6	1936
586.8	1955
587.0	1951
587.2	1934
587.4	1925
587.6	1936
587.8	1960
588.0	1971
588.2	1966
588.4	1957
588.6	1953
588.8	1959
589.0	1959
589.2	1972
589.4	1984
589.6	1993
589.8	1996
590.0	2003
590.2	1995
590.4	2005
590.6	2011
590.8	2013
591.0	2015
591.2	2012
591.4	2017
591.6	2021
591.8	2028
592.0	2041
592.2	2056
592.4	2057
592.6	2051
592.8	2046
593.0	2037
593.2	2037
593.4	2041
593.6	2047
593.8	2056
594.0	2066
594.2	2061
594.4	2054
594.6	2058
594.8	2058
595.0	2070
595.2	2068
595.4	2060
595.6	2052
595.8	2055
596.0	2057
596.2	2071
596.4	2071
596.6	2076
596.8	2074
597.0	2078
597.2	2085
597.4	2091
597.6	2096
597.8	2093
598.0	2090
598.2	2093
598.4	2087
598.6	2088
598.8	2099
599.0	2096
599.2	2102
599.4	2100
599.6	2096
599.8	2091
600.0	2095
600.2	2092
600.4	2100
600.6	2105
600.8	2113
601.0	2109
601.2	2108
601.4	2102
601.6	2091
601.8	2095
602.0	2096
602.2	2114
602.4	2124
602.6	2128
602.8	2113
603.0	2107
603.2	2101
603.4	2111
603.6	2105
603.8	2099
604.0	2092
604.2	2088
604.4	2085
604.6	2087
604.8	2069
605.0	2069
605.2	2080
605.4	2098
605.6	2111
605.8	2115
606.0	2105
606.2	2102
606.4	2100
606.6	2098
606.8	2106
607.0	2102
607.2	2093
607.4	2082
607.6	2076
607.8	2068
608.0	2079
608.2	2081
608.4	2075
608.6	2069
608.8	2072
609.0	2078
609.2	2086
609.4	2081
609.6	2070
609.8	2070
610.0	2064
610.2	2066
610.4	2062
610.6	2058
610.8	2054
611.0	2054
611.2	2045
611.4	2052
611.6	2049
611.8	2039
612.0	2032
612.2	2025
612.4	2017
612.6	2028
612.8	2036
613.0	2041
613.2	2041
613.4	2036
613.6	2027
613.8	2021
614.0	2016
614.2	2028
614.4	2027
614.6	2016
614.8	2016
615.0	2010
615.2	1993
615.4	1993
615.6	1994
615.8	1982
616.0	1982
616.2	1978
616.4	1969
616.6	1960
616.8	1951
617.0	1962
617.2	1977
617.4	1987
617.6	1987
617.8	1970
618.0	1947
618.2	1947
618.4	1953
618.6	1960
618.8	1949
619.0	1944
619.2	1944
619.4	1935
619.6	1937
619.8	1939
620.0	1923
620.2	1921
620.4	1920
620.6	1913
620.8	1917
621.0	1921
621.2	1914
621.4	1903
621.6	1893
621.8	1886
622.0	1884
622.2	1890
622.4	1889
622.6	1883
622.8	1880
623.0	1871
623.2	1860
623.4	1856
623.6	1851
623.8	1847
624.0	1851
624.2	1853
624.4	1858
624.6	1854
624.8	1845
625.0	1831
625.2	1836
625.4	1843
625.6	1847
625.8	1826
626.0	1817
626.2	1810
626.4	1813
626.6	1803
626.8	1800
627.0	1779
627.2	1780
627.4	1790
627.6	1780
627.8	1761
628.0	1764
628.2	1759
628.4	1765
628.6	1774
628.8	1768
629.0	1754
629.2	1747
629.4	1731
629.6	1721
629.8	1714
630.0	1717
630.2	1713
630.4	1712
630.6	1702
630.8	1702
631.0	1692
631.2	1689
631.4	1696
631.6	1695
631.8	1688
632.0	1684
632.2	1667
632.4	1658
632.6	1661
632.8	1659
633.0	1650
633.2	1647
633.4	1641
633.6	1632
633.8	1622
634.0	1620
634.2	1612
634.4	1622
634.6	1625
634.8	1615
635.0	1597
635.2	1586
635.4	1578
635.6	1580
635.8	1581
636.0	1578
636.2	1574
636.4	1565
636.6	1564
636.8	1555
637.0	1545
637.2	1541
637.4	1541
637.6	1539
637.8	1540
638.0	1537
638.2	1527
638.4	1518
638.6	1511
638.8	1508
639.0	1506
639.2	1499
639.4	1493
639.6	1482
639.8	1468
640.0	1461
640.2	1461
640.4	1457
640.6	1459
640.8	1449
641.0	1442
641.2	1437
641.4	1435
641.6	1433
641.8	1427
642.0	1417
642.2	1408
642.4	1403
642.6	1395
642.8	1389
643.0	1384
643.2	1389
643.4	1383
643.6	1382
643.8	1374
644.0	1365
644.2	1354
644.4	1345
644.6	1342
644.8	1342
645.0	1353
645.2	1357
645.4	1348
645.6	1330
645.8	1316
646.0	1308
646.2	1307
646.4	1299
646.6	1290
646.8	1285
647.0	1280
647.2	1281
647.4	1275
647.6	1267
647.8	1251
648.0	1250
648.2	1248
648.4	1248
648.6	1251
648.8	1247
649.0	1232
649.2	1219
649.4	1216
649.6	1217
649.8	1220
650.0	1222
650.2	1212
650.4	1201
650.6	1196
650.8	1194
651.0	1186
651.2	1185
651.4	1177
651.6	1178
651.8	1172
652.0	1174
652.2	1167
652.4	1161
652.6	1155
652.8	1149
653.0	1131
653.2	1121
653.4	1107
653.6	1102
653.8	1101
654.0	1095
654.2	1082
654.4	1076
654.6	1074
654.8	1076
655.0	1083
655.2	1081
655.4	1073
655.6	1069
655.8	1059
656.0	1049
656.2	1049
656.4	1036
656.6	1033
656.8	1028
657.0	1018
657.2	1020
657.4	1020
657.6	1016
657.8	1008
658.0	996.2
658.2	988.7
658.4	989.4
658.6	989.8
658.8	992.4
659.0	983.9
659.2	982.3
659.4	973.3
659.6	967.7
659.8	962.4
660.0	955.1
660.2	949.9
660.4	954.4
660.6	948.7
660.8	947.9
661.0	942.3
661.2	928.7
661.4	924.8
661.6	922.0
661.8	916.9
662.0	911.1
662.2	907.9
662.4	899.6
662.6	899.3
662.8	900.8
663.0	903.3
663.2	894.5
663.4	888.5
663.6	881.5
663.8	874.3
664.0	869.2
664.2	867.4
664.4	860.1
664.6	853.2
664.8	844.0
665.0	834.4
665.2	831.9
665.4	830.4
665.6	827.8
665.8	825.1
666.0	819.3
666.2	811.7
666.4	804.6
666.6	798.8
666.8	792.5
667.0	784.9
667.2	782.6
667.4	783.2
667.6	781.4
667.8	786.2
668.0	788.2
668.2	781.1
668.4	776.3
668.6	771.4
668.8	757.9
669.0	745.0
669.2	740.1
669.4	735.3
669.6	740.7
669.8	744.9
670.0	744.3
670.2	740.1
670.4	738.0
670.6	733.2
670.8	724.0
671.0	716.1
671.2	711.8
671.4	707.6
671.6	700.7
671.8	697.7
672.0	693.6
672.2	689.4
672.4	683.2
672.6	683.5
672.8	679.1
673.0	678.9
673.2	682.8
673.4	681.6
673.6	676.6
673.8	673.2
674.0	663.3
674.2	657.7
674.4	657.2
674.6	655.2
674.8	649.6
675.0	646.3
675.2	641.6
675.4	641.5
675.6	640.8
675.8	636.7
676.0	630.1
676.2	621.6
676.4	618.3
676.6	616.3
676.8	611.4
677.0	607.1
677.2	607.5
677.4	602.1
677.6	600.1
677.8	596.0
678.0	592.1
678.2	584.0
678.4	577.3
678.6	571.7
678.8	567.7
679.0	564.6
679.2	563.3
679.4	557.1
679.6	553.8
679.8	557.2
680.0	559.6
680.2	559.1
680.4	555.4
680.6	546.5
680.8	542.5
681.0	542.0
681.2	540.2
681.4	538.4
681.6	533.5
681.8	526.7
682.0	522.3
682.2	521.2
682.4	519.0
682.6	520.0
682.8	516.0
683.0	514.4
683.2	513.0
683.4	511.4
683.6	502.2
683.8	497.0
684.0	486.2
684.2	482.8
684.4	484.4
684.6	486.3
684.8	488.8
685.0	489.1
685.2	482.7
685.4	476.2
685.6	472.0
685.8	464.3
686.0	461.8
686.2	462.1
686.4	460.9
686.6	458.6
686.8	457.5
687.0	454.1
687.2	449.6
687.4	449.5
687.6	451.3
687.8	449.0
688.0	449.1
688.2	444.8
688.4	438.9
688.6	431.7
688.8	430.0
689.0	424.9
689.2	424.1
689.4	420.3
689.6	420.1
689.8	420.7
690.0	423.2
690.2	423.5
690.4	416.9
690.6	411.4
690.8	406.6
691.0	407.7
691.2	407.7
691.4	408.1
691.6	401.6
691.8	397.6
692.0	393.6
692.2	393.9
692.4	393.9
692.6	392.8
692.8	387.9
693.0	381.8
693.2	378.1
693.4	374.1
693.6	378.7
693.8	376.8
694.0	376.2
694.2	372.5
694.4	371.3
694.6	366.8
694.8	368.9
695.0	364.0
695.2	359.6
695.4	358.0
695.6	359.1
695.8	359.9
696.0	362.3
696.2	364.7
696.4	362.1
696.6	359.1
696.8	350.4
697.0	343.3
697.2	337.7
697.4	341.9
697.6	345.3
697.8	343.7
698.0	339.7
698.2	337.9
698.4	333.7
698.6	335.6
698.8	334.8
699.0	331.4
699.2	331.6
699.4	333.2
699.6	332.9
699.8	330.1
700.0	325.8
700.2	320.4
700.4	317.2
700.6	314.1
700.8	314.4
701.0	312.1
701.2	310.4
701.4	311.2
701.6	314.1
701.8	314.7
702.0	312.5
702.2	305.2
702.4	298.5
702.6	292.3
702.8	293.8
703.0	297.7
703.2	297.6
703.4	295.4
703.6	289.1
703.8	285.6
704.0	287.1
704.2	287.8
704.4	287.5
704.6	284.7
704.8	278.4
705.0	280.9
705.2	283.7
705.4	282.6
705.6	280.7
705.8	278.1
706.0	274.8
706.2	276.2
706.4	273.8
706.6	267.9
706.8	268.5
707.0	266.5
707.2	266.3
707.4	264.8
707.6	262.7
707.8	257.3
708.0	263.0
708.2	260.3
708.4	259.5
708.6	254.7
708.8	258.0
709.0	256.9
709.2	263.3
709.4	259.9
709.6	253.9
709.8	248.1
710.0	245.9
710.2	242.7
710.4	241.3
710.6	236.0
710.8	232.5
711.0	236.1
711.2	237.2
711.4	239.8
711.6	239.0
711.8	233.0
712.0	228.4
712.2	227.5
712.4	227.1
712.6	227.9
712.8	226.7
713.0	223.2
713.2	222.0
713.4	219.4
713.6	222.0
713.8	221.1
714.0	219.8
714.2	217.5
714.4	215.4
714.6	210.7
714.8	210.4
715.0	206.7
715.2	205.6
715.4	206.7
715.6	208.0
715.8	208.9
716.0	210.8
716.2	208.1
716.4	202.7
716.6	198.6
716.8	198.3
717.0	194.0
717.2	194.9
717.4	198.3
717.6	196.4
717.8	193.5
718.0	191.4
718.2	182.8
718.4	182.6
718.6	181.9
718.8	180.9
719.0	182.0
719.2	185.4
719.4	188.1
719.6	188.6
719.8	183.2
720.0	179.6
720.2	176.5
720.4	174.3
720.6	176.8
720.8	176.3
721.0	175.0
721.2	172.7
721.4	170.4
721.6	163.8
721.8	163.2
722.0	164.4
722.2	163.3
722.4	164.9
722.6	163.5
722.8	161.9
723.0	161.7
723.2	163.3
723.4	160.4
723.6	160.5
723.8	157.9
724.0	155.4
724.2	154.7
724.4	156.0
724.6	153.1
724.8	152.6
725.0	154.1
725.2	154.8
725.4	153.8
725.6	152.8
725.8	147.6
726.0	144.3
726.2	145.1
726.4	146.8
726.6	144.9
726.8	145.5
727.0	142.3
727.2	139.7
727.4	140.7
727.6	141.5
727.8	142.4
728.0	144.3
728.2	142.2
728.4	141.1
728.6	137.2
728.8	134.8
729.0	135.2
729.2	134.8
729.4	133.4
729.6	134.5
729.8	132.7
730.0	130.2
730.2	130.6
730.4	127.7
730.6	125.2
730.8	123.6
731.0	124.3
731.2	124.7
731.4	125.7
731.6	122.9
731.8	120.8
732.0	118.6
732.2	117.1
732.4	118.6
732.6	117.2
732.8	117.4
733.0	117.7
733.2	118.1
733.4	117.9
733.6	117.1
733.8	115.1
734.0	113.8
734.2	111.3
734.4	110.6
734.6	108.3
734.8	107.0
735.0	107.2
735.2	107.6
735.4	106.2
735.6	106.8
735.8	105.7
736.0	104.8
736.2	102.7
736.4	102.1
736.6	99.54
736.8	99.64
737.0	101.3
737.2	101.1
737.4	100.6
737.6	98.75
737.8	96.51
738.0	96.65
738.2	96.14
738.4	95.40
738.6	96.07
738.8	95.16
739.0	94.46
739.2	96.06
739.4	94.35
739.6	93.76
739.8	93.65
740.0	91.22
740.2	88.90
740.4	89.61
740.6	88.77
740.8	90.07
741.0	89.52
741.2	88.45
741.4	88.11
741.6	87.80
741.8	87.17
742.0	87.22
742.2	86.31
742.4	87.14
742.6	87.70
742.8	87.21
743.0	86.73
743.2	86.34
743.4	85.25
743.6	83.15
743.8	81.59
744.0	80.46
744.2	79.51
744.4	78.65
744.6	77.65
744.8	77.65
745.0	79.60
745.2	79.57
745.4	79.24
745.6	77.37
745.8	76.53
746.0	78.36
746.2	77.32
746.4	75.69
746.6	74.52
746.8	73.31
747.0	73.15
747.2	73.13
747.4	70.68
747.6	71.96
747.8	71.94
748.0	71.90
748.2	71.67
748.4	69.08
748.6	68.02
748.8	69.65
749.0	68.87
749.2	69.80
749.4	69.54
749.6	68.51
749.8	68.65
750.0	68.86
750.2	68.13
750.4	67.78
750.6	64.63
750.8	64.49
751.0	65.36
751.2	66.71
751.4	67.44
751.6	65.37
751.8	63.05
752.0	62.23
752.2	61.52
752.4	61.67
752.6	61.86
752.8	61.26
753.0	62.03
753.2	62.82
753.4	62.50
753.6	61.76
753.8	61.73
754.0	60.30
754.2	59.02
754.4	59.83
754.6	58.90
754.8	59.05
755.0	58.46
755.2	56.72
755.4	55.88
755.6	57.09
755.8	56.93
756.0	59.25
756.2	58.35
756.4	57.83
756.6	56.25
756.8	54.70
757.0	51.81
757.2	51.45
757.4	51.93
757.6	52.99
757.8	53.45
758.0	51.95
758.2	49.96
758.4	49.68
758.6	51.36
758.8	50.60
759.0	50.66
759.2	48.15
759.4	46.23
759.6	47.03
759.8	48.05
760.0	50.02
760.2	51.40
760.4	51.15
760.6	49.77
760.8	48.33
761.0	47.70
761.2	47.14
761.4	47.03
761.6	47.01
761.8	47.06
762.0	45.77
762.2	46.36
762.4	44.15
762.6	43.36
762.8	43.65
763.0	44.06
763.2	43.59
763.4	44.56
763.6	44.03
763.8	42.28
764.0	42.81
764.2	42.88
764.4	42.12
764.6	42.20
764.8	42.65
765.0	41.98
765.2	40.90
765.4	40.30
765.6	39.03
765.8	38.83
766.0	39.61
766.2	40.26
766.4	40.20
766.6	41.71
766.8	40.77
767.0	40.33
767.2	38.28
767.4	37.56
767.6	37.62
767.8	39.43
768.0	38.50
768.2	39.46
768.4	38.53
768.6	38.12
768.8	37.16
769.0	36.24
769.2	34.49
769.4	35.18
769.6	35.66
769.8	36.11
770.0	36.49
770.2	36.08
770.4	35.01
770.6	34.13
770.8	34.23
771.0	33.41
771.2	32.67
771.4	32.05
771.6	31.34
771.8	31.74
772.0	32.44
772.2	32.75
772.4	33.20
772.6	33.46
772.8	33.82
773.0	34.02
773.2	32.76
773.4	31.71
773.6	30.69
773.8	29.44
774.0	29.16
774.2	29.49
774.4	29.09
774.6	29.32
774.8	29.83
775.0	30.49
775.2	30.82
775.4	31.53
775.6	31.64
775.8	30.69
776.0	29.56
776.2	29.30
776.4	29.11
776.6	28.64
776.8	28.28
777.0	27.65
777.2	27.70
777.4	28.69
777.6	30.81
777.8	30.47
778.0	29.91
778.2	28.91
778.4	27.84
778.6	27.32
778.8	27.32
779.0	26.86
779.2	26.49
779.4	25.97
779.6	26.33
779.8	27.09
780.0	27.96
780.2	27.36
780.4	27.13
780.6	26.51
780.8	25.86
781.0	25.20
781.2	24.82
781.4	23.39
781.6	25.29
781.8	26.48
782.0	26.87
782.2	26.58
782.4	25.80
782.6	25.50
782.8	26.48
783.0	27.00
783.2	26.39
783.4	24.82
783.6	23.19
783.8	22.12
784.0	22.12
784.2	22.75
784.4	23.81
784.6	24.60
784.8	24.98
785.0	24.88
785.2	24.17
785.4	23.14
785.6	23.31
785.8	23.78
786.0	23.94
786.2	24.20
786.4	23.94
786.6	23.05
786.8	23.56
787.0	23.43
787.2	22.12
787.4	20.96
787.6	21.34
787.8	20.93
788.0	21.60
788.2	22.18
788.4	21.53
788.6	21.23
788.8	21.73
789.0	22.33
789.2	22.30
789.4	22.56
789.6	22.13
789.8	21.73
790.0	21.14
790.2	21.69
790.4	21.53
790.6	21.31
790.8	21.66
791.0	22.40
791.2	22.62
791.4	22.11
791.6	22.18
791.8	21.66
792.0	21.77
792.2	22.63
792.4	23.18
792.6	23.82
792.8	24.23
793.0	23.67
793.2	22.07
793.4	20.83
793.6	19.65
793.8	19.83
794.0	20.13
794.2	20.32
794.4	20.21
794.6	20.61
794.8	19.78
795.0	18.82
795.2	18.72
795.4	18.64
795.6	18.89
795.8	19.93
796.0	20.16
796.2	19.59
796.4	19.83
796.6	20.45
796.8	20.32
797.0	20.46
797.2	20.19
797.4	19.21
797.6	18.86
797.8	19.38
798.0	20.19
798.2	21.96
798.4	22.38
798.6	21.58
798.8	19.93
799.0	19.14
799.2	19.16
799.4	20.22
799.6	20.65
799.8	20.28
800.0	18.66

