Sample:	'20211010A(EM)
File name:	R-CDs 1.FDS
Run date:	'10:38:15, 06/09/2023
Operator:	Administrator
Comment:	'

Instrument
Model:	F-4700 FL Spectrophotometer
Serial number:	2019-001
ROM Version:	5J24010 00

Instrument parameters
Measurement type:	Wavelength scan
Scan mode:	Emission
Data mode:	Fluorescence
EX WL:	520.0 nm
EM  Start WL:	540.0 nm
EM  End WL:	800.0 nm
Scan speed:	1200 nm/min
Delay:	0.0 s
EX Slit:	10.0 nm
EM Slit:	10.0 nm
PMT Voltage:	660 V
Response:	0.002 s
Corrected spectra:	Off
Shutter control:	On

Processing performed
Savitsky-Golay smoothed
Smoothing order:	3
Number of points:	7
Number of times:	1

Peak integration
Integration method:	Rectangular
Sensitivity:	1
Threshold:	1.000

Peaks
No.	Start(nm)	Apex(nm)	End(nm)	Height(Data)	Valley(nm)	Valley(Data)
1	540.0	606.8	607.8	9380	607.8	9342
2	607.8	608.6	609.2	9389	609.2	9341
3	609.2	611.8	757.8	9399	757.8	162.8
4	757.8	758.8	768.8	168.4	768.8	109.8
5	768.8	769.4	774.2	114.7	774.2	89.44
6	774.2	775.2	782.0	95.11	782.0	73.19
7	782.0	783.0	789.0	76.38	789.0	60.03
8	789.0	790.4	791.6	65.17	791.6	57.78
9	791.6	794.4	797.6	60.80	797.6	49.91
10	797.6	798.6	800.0	53.80	800.0	49.24

Data points
nm	Data
540.0	785.7
540.2	791.5
540.4	796.1
540.6	802.0
540.8	815.6
541.0	829.6
541.2	844.5
541.4	853.9
541.6	860.4
541.8	870.8
542.0	887.3
542.2	905.0
542.4	919.3
542.6	927.6
542.8	934.5
543.0	943.5
543.2	957.7
543.4	972.1
543.6	985.5
543.8	996.1
544.0	1004
544.2	1014
544.4	1030
544.6	1036
544.8	1051
545.0	1064
545.2	1070
545.4	1080
545.6	1101
545.8	1115
546.0	1139
546.2	1154
546.4	1160
546.6	1166
546.8	1189
547.0	1208
547.2	1232
547.4	1250
547.6	1258
547.8	1269
548.0	1290
548.2	1297
548.4	1304
548.6	1312
548.8	1319
549.0	1338
549.2	1359
549.4	1368
549.6	1384
549.8	1410
550.0	1427
550.2	1450
550.4	1472
550.6	1485
550.8	1502
551.0	1527
551.2	1544
551.4	1559
551.6	1572
551.8	1581
552.0	1582
552.2	1604
552.4	1633
552.6	1659
552.8	1693
553.0	1710
553.2	1706
553.4	1715
553.6	1731
553.8	1753
554.0	1783
554.2	1806
554.4	1827
554.6	1845
554.8	1867
555.0	1891
555.2	1903
555.4	1912
555.6	1942
555.8	1971
556.0	2000
556.2	2031
556.4	2047
556.6	2046
556.8	2069
557.0	2079
557.2	2096
557.4	2125
557.6	2150
557.8	2178
558.0	2221
558.2	2245
558.4	2259
558.6	2270
558.8	2291
559.0	2322
559.2	2357
559.4	2382
559.6	2403
559.8	2423
560.0	2451
560.2	2478
560.4	2500
560.6	2527
560.8	2553
561.0	2584
561.2	2611
561.4	2637
561.6	2670
561.8	2688
562.0	2701
562.2	2730
562.4	2757
562.6	2788
562.8	2831
563.0	2859
563.2	2889
563.4	2924
563.6	2952
563.8	2980
564.0	3006
564.2	3024
564.4	3038
564.6	3068
564.8	3109
565.0	3155
565.2	3188
565.4	3208
565.6	3224
565.8	3260
566.0	3299
566.2	3339
566.4	3377
566.6	3422
566.8	3446
567.0	3474
567.2	3493
567.4	3503
567.6	3535
567.8	3585
568.0	3623
568.2	3657
568.4	3673
568.6	3711
568.8	3754
569.0	3789
569.2	3826
569.4	3852
569.6	3867
569.8	3917
570.0	3942
570.2	3970
570.4	4014
570.6	4058
570.8	4099
571.0	4140
571.2	4160
571.4	4197
571.6	4229
571.8	4265
572.0	4303
572.2	4342
572.4	4367
572.6	4418
572.8	4446
573.0	4488
573.2	4530
573.4	4565
573.6	4583
573.8	4624
574.0	4658
574.2	4705
574.4	4749
574.6	4784
574.8	4813
575.0	4838
575.2	4875
575.4	4923
575.6	4967
575.8	5010
576.0	5047
576.2	5083
576.4	5120
576.6	5161
576.8	5191
577.0	5223
577.2	5269
577.4	5309
577.6	5347
577.8	5393
578.0	5431
578.2	5468
578.4	5523
578.6	5546
578.8	5580
579.0	5621
579.2	5666
579.4	5692
579.6	5719
579.8	5750
580.0	5787
580.2	5839
580.4	5905
580.6	5952
580.8	5995
581.0	6028
581.2	6050
581.4	6067
581.6	6094
581.8	6141
582.0	6196
582.2	6234
582.4	6268
582.6	6303
582.8	6352
583.0	6400
583.2	6413
583.4	6443
583.6	6475
583.8	6529
584.0	6588
584.2	6637
584.4	6648
584.6	6688
584.8	6719
585.0	6765
585.2	6785
585.4	6829
585.6	6869
585.8	6920
586.0	6934
586.2	6967
586.4	6981
586.6	7008
586.8	7049
587.0	7114
587.2	7143
587.4	7195
587.6	7222
587.8	7243
588.0	7279
588.2	7315
588.4	7345
588.6	7412
588.8	7440
589.0	7477
589.2	7517
589.4	7538
589.6	7580
589.8	7640
590.0	7682
590.2	7715
590.4	7729
590.6	7748
590.8	7766
591.0	7801
591.2	7839
591.4	7880
591.6	7921
591.8	7948
592.0	7956
592.2	7983
592.4	7995
592.6	8048
592.8	8109
593.0	8146
593.2	8147
593.4	8154
593.6	8148
593.8	8180
594.0	8247
594.2	8305
594.4	8326
594.6	8358
594.8	8366
595.0	8378
595.2	8400
595.4	8427
595.6	8461
595.8	8525
596.0	8559
596.2	8584
596.4	8574
596.6	8576
596.8	8598
597.0	8641
597.2	8675
597.4	8709
597.6	8728
597.8	8732
598.0	8751
598.2	8769
598.4	8822
598.6	8869
598.8	8899
599.0	8896
599.2	8882
599.4	8870
599.6	8876
599.8	8904
600.0	8933
600.2	8966
600.4	8993
600.6	9000
600.8	8997
601.0	9009
601.2	9017
601.4	9038
601.6	9070
601.8	9095
602.0	9123
602.2	9134
602.4	9153
602.6	9197
602.8	9234
603.0	9271
603.2	9276
603.4	9225
603.6	9193
603.8	9198
604.0	9211
604.2	9248
604.4	9286
604.6	9257
604.8	9275
605.0	9268
605.2	9286
605.4	9307
605.6	9335
605.8	9321
606.0	9346
606.2	9341
606.4	9356
606.6	9362
606.8	9380
607.0	9376
607.2	9352
607.4	9349
607.6	9343
607.8	9342
608.0	9351
608.2	9371
608.4	9374
608.6	9389
608.8	9384
609.0	9375
609.2	9341
609.4	9349
609.6	9368
609.8	9376
610.0	9371
610.2	9371
610.4	9365
610.6	9382
610.8	9382
611.0	9368
611.2	9368
611.4	9381
611.6	9381
611.8	9399
612.0	9394
612.2	9389
612.4	9389
612.6	9387
612.8	9357
613.0	9338
613.2	9357
613.4	9352
613.6	9335
613.8	9332
614.0	9340
614.2	9315
614.4	9314
614.6	9278
614.8	9242
615.0	9235
615.2	9256
615.4	9273
615.6	9282
615.8	9272
616.0	9230
616.2	9221
616.4	9210
616.6	9213
616.8	9202
617.0	9168
617.2	9138
617.4	9148
617.6	9142
617.8	9131
618.0	9119
618.2	9102
618.4	9090
618.6	9066
618.8	9024
619.0	8997
619.2	8988
619.4	8989
619.6	9001
619.8	8973
620.0	8939
620.2	8936
620.4	8906
620.6	8900
620.8	8901
621.0	8876
621.2	8843
621.4	8824
621.6	8786
621.8	8777
622.0	8763
622.2	8744
622.4	8716
622.6	8686
622.8	8671
623.0	8679
623.2	8680
623.4	8650
623.6	8608
623.8	8566
624.0	8547
624.2	8562
624.4	8564
624.6	8533
624.8	8477
625.0	8442
625.2	8410
625.4	8376
625.6	8363
625.8	8354
626.0	8323
626.2	8309
626.4	8277
626.6	8246
626.8	8232
627.0	8235
627.2	8214
627.4	8195
627.6	8145
627.8	8101
628.0	8070
628.2	8072
628.4	8061
628.6	8065
628.8	8037
629.0	7990
629.2	7965
629.4	7959
629.6	7940
629.8	7905
630.0	7854
630.2	7811
630.4	7783
630.6	7773
630.8	7760
631.0	7723
631.2	7668
631.4	7640
631.6	7620
631.8	7597
632.0	7572
632.2	7546
632.4	7513
632.6	7490
632.8	7488
633.0	7483
633.2	7485
633.4	7459
633.6	7420
633.8	7374
634.0	7316
634.2	7272
634.4	7263
634.6	7257
634.8	7239
635.0	7243
635.2	7211
635.4	7171
635.6	7137
635.8	7110
636.0	7074
636.2	7044
636.4	7013
636.6	6975
636.8	6935
637.0	6904
637.2	6879
637.4	6854
637.6	6831
637.8	6805
638.0	6786
638.2	6765
638.4	6736
638.6	6717
638.8	6679
639.0	6655
639.2	6639
639.4	6627
639.6	6603
639.8	6582
640.0	6536
640.2	6498
640.4	6471
640.6	6453
640.8	6432
641.0	6419
641.2	6384
641.4	6360
641.6	6323
641.8	6297
642.0	6259
642.2	6234
642.4	6215
642.6	6205
642.8	6165
643.0	6142
643.2	6112
643.4	6080
643.6	6029
643.8	6017
644.0	5990
644.2	5961
644.4	5950
644.6	5914
644.8	5867
645.0	5847
645.2	5840
645.4	5810
645.6	5788
645.8	5763
646.0	5734
646.2	5711
646.4	5694
646.6	5664
646.8	5635
647.0	5593
647.2	5551
647.4	5546
647.6	5523
647.8	5517
648.0	5515
648.2	5480
648.4	5463
648.6	5433
648.8	5387
649.0	5352
649.2	5322
649.4	5293
649.6	5287
649.8	5262
650.0	5233
650.2	5215
650.4	5184
650.6	5160
650.8	5144
651.0	5121
651.2	5102
651.4	5092
651.6	5051
651.8	5022
652.0	4988
652.2	4950
652.4	4924
652.6	4912
652.8	4869
653.0	4843
653.2	4820
653.4	4813
653.6	4790
653.8	4802
654.0	4772
654.2	4746
654.4	4719
654.6	4700
654.8	4654
655.0	4658
655.2	4628
655.4	4616
655.6	4598
655.8	4568
656.0	4525
656.2	4490
656.4	4458
656.6	4431
656.8	4405
657.0	4392
657.2	4383
657.4	4369
657.6	4348
657.8	4331
658.0	4299
658.2	4292
658.4	4276
658.6	4257
658.8	4209
659.0	4184
659.2	4161
659.4	4152
659.6	4132
659.8	4117
660.0	4072
660.2	4035
660.4	4040
660.6	4033
660.8	4024
661.0	4008
661.2	3967
661.4	3922
661.6	3923
661.8	3905
662.0	3876
662.2	3846
662.4	3826
662.6	3794
662.8	3791
663.0	3771
663.2	3753
663.4	3737
663.6	3725
663.8	3694
664.0	3664
664.2	3642
664.4	3631
664.6	3622
664.8	3603
665.0	3571
665.2	3541
665.4	3527
665.6	3497
665.8	3483
666.0	3478
666.2	3467
666.4	3456
666.6	3436
666.8	3403
667.0	3383
667.2	3372
667.4	3355
667.6	3346
667.8	3325
668.0	3312
668.2	3298
668.4	3261
668.6	3233
668.8	3214
669.0	3187
669.2	3185
669.4	3180
669.6	3148
669.8	3132
670.0	3112
670.2	3081
670.4	3070
670.6	3046
670.8	3012
671.0	3008
671.2	3010
671.4	2998
671.6	2996
671.8	2973
672.0	2944
672.2	2920
672.4	2905
672.6	2886
672.8	2874
673.0	2864
673.2	2843
673.4	2812
673.6	2787
673.8	2766
674.0	2749
674.2	2742
674.4	2736
674.6	2723
674.8	2708
675.0	2701
675.2	2686
675.4	2664
675.6	2655
675.8	2646
676.0	2621
676.2	2608
676.4	2595
676.6	2564
676.8	2547
677.0	2535
677.2	2514
677.4	2492
677.6	2479
677.8	2473
678.0	2462
678.2	2453
678.4	2448
678.6	2419
678.8	2393
679.0	2388
679.2	2373
679.4	2368
679.6	2367
679.8	2342
680.0	2325
680.2	2313
680.4	2292
680.6	2282
680.8	2274
681.0	2250
681.2	2236
681.4	2233
681.6	2221
681.8	2211
682.0	2195
682.2	2173
682.4	2155
682.6	2149
682.8	2138
683.0	2131
683.2	2112
683.4	2093
683.6	2064
683.8	2042
684.0	2041
684.2	2034
684.4	2023
684.6	2009
684.8	1989
685.0	1977
685.2	1981
685.4	1964
685.6	1962
685.8	1955
686.0	1948
686.2	1934
686.4	1914
686.6	1884
686.8	1875
687.0	1868
687.2	1859
687.4	1851
687.6	1829
687.8	1814
688.0	1810
688.2	1807
688.4	1796
688.6	1787
688.8	1761
689.0	1748
689.2	1746
689.4	1742
689.6	1730
689.8	1722
690.0	1700
690.2	1694
690.4	1694
690.6	1691
690.8	1677
691.0	1669
691.2	1650
691.4	1636
691.6	1619
691.8	1617
692.0	1601
692.2	1592
692.4	1583
692.6	1563
692.8	1555
693.0	1553
693.2	1544
693.4	1537
693.6	1534
693.8	1529
694.0	1525
694.2	1511
694.4	1500
694.6	1490
694.8	1478
695.0	1467
695.2	1455
695.4	1444
695.6	1441
695.8	1435
696.0	1427
696.2	1407
696.4	1404
696.6	1398
696.8	1396
697.0	1380
697.2	1365
697.4	1341
697.6	1336
697.8	1336
698.0	1345
698.2	1340
698.4	1337
698.6	1330
698.8	1312
699.0	1299
699.2	1289
699.4	1281
699.6	1284
699.8	1291
700.0	1281
700.2	1275
700.4	1266
700.6	1261
700.8	1255
701.0	1239
701.2	1229
701.4	1230
701.6	1229
701.8	1224
702.0	1215
702.2	1192
702.4	1187
702.6	1192
702.8	1187
703.0	1171
703.2	1171
703.4	1162
703.6	1151
703.8	1140
704.0	1122
704.2	1105
704.4	1113
704.6	1118
704.8	1114
705.0	1112
705.2	1108
705.4	1093
705.6	1083
705.8	1079
706.0	1071
706.2	1067
706.4	1065
706.6	1056
706.8	1051
707.0	1053
707.2	1043
707.4	1030
707.6	1024
707.8	1017
708.0	1012
708.2	1013
708.4	1001
708.6	993.2
708.8	987.1
709.0	976.2
709.2	971.1
709.4	968.0
709.6	966.5
709.8	962.8
710.0	951.8
710.2	941.9
710.4	937.4
710.6	934.2
710.8	929.7
711.0	925.6
711.2	917.1
711.4	916.0
711.6	913.7
711.8	910.3
712.0	891.6
712.2	880.7
712.4	878.2
712.6	879.8
712.8	875.3
713.0	867.0
713.2	855.3
713.4	854.4
713.6	863.9
713.8	857.6
714.0	848.3
714.2	833.9
714.4	824.6
714.6	817.2
714.8	818.5
715.0	812.4
715.2	809.9
715.4	802.7
715.6	799.3
715.8	792.0
716.0	789.7
716.2	784.1
716.4	778.8
716.6	772.9
716.8	769.0
717.0	761.6
717.2	755.2
717.4	741.1
717.6	733.3
717.8	734.2
718.0	732.0
718.2	726.4
718.4	722.6
718.6	710.5
718.8	702.8
719.0	702.4
719.2	696.0
719.4	691.3
719.6	696.9
719.8	695.9
720.0	690.5
720.2	687.2
720.4	673.2
720.6	658.8
720.8	653.1
721.0	648.7
721.2	645.6
721.4	653.1
721.6	655.6
721.8	652.3
722.0	647.2
722.2	643.2
722.4	627.4
722.6	622.2
722.8	618.9
723.0	612.4
723.2	607.5
723.4	611.3
723.6	606.6
723.8	605.1
724.0	599.0
724.2	586.6
724.4	573.4
724.6	572.1
724.8	573.3
725.0	571.1
725.2	568.0
725.4	562.6
725.6	558.0
725.8	555.3
726.0	557.1
726.2	549.1
726.4	543.6
726.6	539.2
726.8	534.7
727.0	526.2
727.2	524.1
727.4	516.6
727.6	510.2
727.8	511.2
728.0	508.9
728.2	506.7
728.4	504.4
728.6	504.8
728.8	497.8
729.0	491.2
729.2	480.0
729.4	475.1
729.6	468.7
729.8	470.0
730.0	471.6
730.2	472.2
730.4	468.6
730.6	465.2
730.8	462.5
731.0	457.9
731.2	452.4
731.4	447.3
731.6	438.8
731.8	431.3
732.0	432.1
732.2	433.0
732.4	433.4
732.6	429.8
732.8	423.8
733.0	416.3
733.2	414.8
733.4	415.1
733.6	412.6
733.8	405.7
734.0	399.6
734.2	391.3
734.4	392.4
734.6	398.4
734.8	398.8
735.0	391.7
735.2	383.9
735.4	376.8
735.6	378.9
735.8	387.6
736.0	388.9
736.2	383.2
736.4	377.4
736.6	370.5
736.8	368.5
737.0	364.8
737.2	357.5
737.4	352.0
737.6	348.0
737.8	346.3
738.0	347.9
738.2	345.4
738.4	341.8
738.6	339.5
738.8	342.2
739.0	341.5
739.2	340.9
739.4	336.3
739.6	329.6
739.8	323.4
740.0	327.4
740.2	327.0
740.4	328.1
740.6	324.3
740.8	317.5
741.0	311.2
741.2	314.0
741.4	309.8
741.6	307.7
741.8	304.0
742.0	298.4
742.2	296.3
742.4	297.4
742.6	294.1
742.8	292.1
743.0	291.3
743.2	288.8
743.4	281.9
743.6	278.7
743.8	279.3
744.0	283.3
744.2	284.8
744.4	280.8
744.6	273.8
744.8	267.3
745.0	264.0
745.2	268.5
745.4	271.1
745.6	267.7
745.8	266.8
746.0	259.7
746.2	254.0
746.4	255.7
746.6	257.3
746.8	256.0
747.0	257.1
747.2	254.9
747.4	251.9
747.6	249.8
747.8	246.3
748.0	246.6
748.2	249.8
748.4	253.1
748.6	251.7
748.8	247.1
749.0	239.5
749.2	234.3
749.4	226.5
749.6	223.3
749.8	223.2
750.0	222.5
750.2	220.9
750.4	219.1
750.6	215.9
750.8	215.4
751.0	217.7
751.2	213.7
751.4	214.5
751.6	210.3
751.8	203.1
752.0	201.5
752.2	204.2
752.4	202.4
752.6	209.2
752.8	207.6
753.0	200.5
753.2	196.3
753.4	196.5
753.6	192.3
753.8	191.3
754.0	190.5
754.2	190.5
754.4	189.4
754.6	188.2
754.8	187.0
755.0	182.5
755.2	183.1
755.4	184.1
755.6	183.8
755.8	184.0
756.0	181.1
756.2	173.8
756.4	171.1
756.6	169.0
756.8	170.4
757.0	174.1
757.2	172.8
757.4	168.7
757.6	166.9
757.8	162.8
758.0	163.7
758.2	165.9
758.4	166.9
758.6	167.5
758.8	168.4
759.0	166.5
759.2	164.9
759.4	164.0
759.6	159.4
759.8	156.6
760.0	155.6
760.2	154.0
760.4	152.1
760.6	151.7
760.8	152.7
761.0	153.1
761.2	152.0
761.4	151.4
761.6	148.0
761.8	146.2
762.0	149.0
762.2	149.0
762.4	147.6
762.6	146.7
762.8	141.8
763.0	138.0
763.2	136.6
763.4	135.2
763.6	138.2
763.8	139.9
764.0	138.5
764.2	138.3
764.4	134.9
764.6	131.2
764.8	129.1
765.0	126.3
765.2	127.9
765.4	128.7
765.6	127.3
765.8	127.3
766.0	125.3
766.2	124.5
766.4	124.9
766.6	122.9
766.8	121.6
767.0	120.8
767.2	118.7
767.4	120.9
767.6	121.5
767.8	124.2
768.0	124.5
768.2	120.2
768.4	113.3
768.6	111.2
768.8	109.8
769.0	112.5
769.2	114.2
769.4	114.7
769.6	114.3
769.8	114.3
770.0	112.7
770.2	111.5
770.4	111.0
770.6	109.4
770.8	108.6
771.0	109.4
771.2	109.4
771.4	106.2
771.6	104.8
771.8	103.2
772.0	101.4
772.2	100.1
772.4	101.0
772.6	99.88
772.8	100.3
773.0	100.9
773.2	100.6
773.4	99.28
773.6	96.22
773.8	92.94
774.0	90.77
774.2	89.44
774.4	90.37
774.6	93.61
774.8	92.29
775.0	93.96
775.2	95.11
775.4	94.14
775.6	91.50
775.8	91.72
776.0	89.98
776.2	89.80
776.4	88.91
776.6	85.75
776.8	86.18
777.0	87.52
777.2	86.66
777.4	86.18
777.6	85.82
777.8	85.13
778.0	84.32
778.2	84.55
778.4	81.49
778.6	81.52
778.8	81.85
779.0	83.48
779.2	80.91
779.4	81.14
779.6	78.82
779.8	78.52
780.0	79.13
780.2	79.63
780.4	79.04
780.6	78.54
780.8	76.53
781.0	75.98
781.2	77.19
781.4	75.12
781.6	74.27
781.8	73.99
782.0	73.19
782.2	74.66
782.4	75.67
782.6	74.15
782.8	74.00
783.0	76.38
783.2	75.18
783.4	75.04
783.6	72.64
783.8	70.56
784.0	69.72
784.2	71.11
784.4	68.42
784.6	67.98
784.8	67.53
785.0	69.39
785.2	71.18
785.4	70.99
785.6	70.67
785.8	68.96
786.0	66.41
786.2	66.74
786.4	67.03
786.6	66.55
786.8	66.68
787.0	65.16
787.2	62.70
787.4	65.37
787.6	67.13
787.8	67.86
788.0	66.51
788.2	64.88
788.4	61.56
788.6	61.71
788.8	60.63
789.0	60.03
789.2	60.63
789.4	60.76
789.6	60.17
789.8	61.24
790.0	61.54
790.2	63.10
790.4	65.17
790.6	65.05
790.8	63.46
791.0	63.04
791.2	60.73
791.4	58.35
791.6	57.78
791.8	58.21
792.0	57.84
792.2	58.71
792.4	59.18
792.6	58.31
792.8	58.63
793.0	58.33
793.2	59.23
793.4	57.61
793.6	58.12
793.8	58.92
794.0	59.16
794.2	59.70
794.4	60.80
794.6	58.71
794.8	57.34
795.0	56.95
795.2	55.21
795.4	55.14
795.6	53.58
795.8	52.12
796.0	50.97
796.2	51.44
796.4	51.98
796.6	53.63
796.8	53.53
797.0	53.36
797.2	51.60
797.4	51.36
797.6	49.91
797.8	51.35
798.0	50.25
798.2	51.63
798.4	52.10
798.6	53.80
798.8	53.03
799.0	52.94
799.2	50.31
799.4	49.38
799.6	48.56
799.8	48.42
800.0	49.24

