Sample:	'20211010A(EM)
File name:	R-CDs 2 200uM.FDS
Run date:	'10:46:34, 06/09/2023
Operator:	Administrator
Comment:	'

Instrument
Model:	F-4700 FL Spectrophotometer
Serial number:	2019-001
ROM Version:	5J24010 00

Instrument parameters
Measurement type:	Wavelength scan
Scan mode:	Emission
Data mode:	Fluorescence
EX WL:	520.0 nm
EM  Start WL:	540.0 nm
EM  End WL:	800.0 nm
Scan speed:	1200 nm/min
Delay:	0.0 s
EX Slit:	10.0 nm
EM Slit:	10.0 nm
PMT Voltage:	660 V
Response:	0.002 s
Corrected spectra:	Off
Shutter control:	On

Processing performed
Savitsky-Golay smoothed
Smoothing order:	3
Number of points:	7
Number of times:	1

Peak integration
Integration method:	Rectangular
Sensitivity:	1
Threshold:	1.000

Peaks
No.	Start(nm)	Apex(nm)	End(nm)	Height(Data)	Valley(nm)	Valley(Data)
1	541.2	550.0	550.6	291.5	550.6	280.8
2	550.6	612.8	613.4	1311	613.4	1297
3	613.4	617.8	618.2	1331	618.2	1320
4	618.2	619.6	620.4	1331	620.4	1320
5	620.4	620.8	624.2	1334	624.2	1298
6	624.2	625.0	632.2	1315	632.2	1217
7	632.2	632.8	643.6	1231	643.6	1041
8	643.6	644.6	699.6	1060	699.6	268.2
9	699.6	700.2	722.2	278.3	722.2	141.0
10	722.2	723.0	725.2	146.5	725.2	127.0
11	725.2	726.4	739.2	131.4	739.2	80.61
12	739.2	739.8	742.4	85.47	742.4	70.11
13	742.4	743.2	747.4	74.41	747.4	59.92
14	747.4	748.4	749.2	64.19	749.2	56.50
15	749.2	750.4	751.4	60.09	751.4	54.93
16	751.4	752.0	756.2	56.92	756.2	47.36
17	756.2	756.6	758.8	50.33	758.8	42.78
18	758.8	760.0	765.6	44.51	765.6	33.19
19	765.6	766.2	768.6	35.43	768.6	30.33
20	768.6	770.0	772.8	34.03	772.8	26.59
21	772.8	773.4	774.4	29.30	774.4	25.87
22	774.4	775.8	778.6	28.16	778.6	23.65
23	778.6	779.0	779.8	25.89	779.8	22.78
24	779.8	780.2	783.6	25.49	783.6	21.15
25	783.6	784.4	785.2	22.67	785.2	19.47
26	785.2	787.4	788.2	22.13	788.2	19.33
27	788.2	789.2	792.8	20.97	792.8	16.47
28	792.8	793.6	794.6	19.28	794.6	16.47
29	794.6	796.2	797.6	18.04	797.6	16.63

Data points
nm	Data
540.0	247.8
540.2	246.7
540.4	240.7
540.6	232.6
540.8	225.4
541.0	224.0
541.2	222.7
541.4	227.0
541.6	227.8
541.8	227.1
542.0	225.6
542.2	230.1
542.4	231.1
542.6	235.0
542.8	236.3
543.0	234.4
543.2	233.0
543.4	235.5
543.6	232.4
543.8	234.0
544.0	237.6
544.2	242.3
544.4	247.1
544.6	248.3
544.8	249.3
545.0	250.1
545.2	247.4
545.4	250.8
545.6	252.3
545.8	253.9
546.0	261.8
546.2	263.0
546.4	257.2
546.6	257.0
546.8	257.2
547.0	261.4
547.2	268.2
547.4	268.7
547.6	265.8
547.8	262.8
548.0	258.6
548.2	263.3
548.4	274.2
548.6	280.3
548.8	286.9
549.0	286.8
549.2	279.7
549.4	281.4
549.6	288.4
549.8	289.1
550.0	291.5
550.2	290.8
550.4	284.7
550.6	280.8
550.8	286.1
551.0	287.4
551.2	290.6
551.4	294.0
551.6	295.7
551.8	297.9
552.0	302.2
552.2	298.0
552.4	294.3
552.6	298.4
552.8	304.6
553.0	311.2
553.2	313.9
553.4	313.7
553.6	311.7
553.8	314.4
554.0	317.5
554.2	318.4
554.4	319.2
554.6	321.4
554.8	322.9
555.0	329.6
555.2	331.5
555.4	331.7
555.6	328.1
555.8	324.9
556.0	326.9
556.2	331.2
556.4	332.9
556.6	337.6
556.8	338.1
557.0	334.7
557.2	334.9
557.4	335.4
557.6	340.1
557.8	344.1
558.0	344.5
558.2	342.5
558.4	344.8
558.6	347.5
558.8	351.4
559.0	348.8
559.2	348.3
559.4	349.4
559.6	355.5
559.8	361.8
560.0	370.7
560.2	371.3
560.4	372.2
560.6	369.5
560.8	367.6
561.0	370.7
561.2	375.9
561.4	376.5
561.6	381.0
561.8	382.8
562.0	385.5
562.2	388.2
562.4	386.9
562.6	387.5
562.8	393.1
563.0	393.5
563.2	399.7
563.4	397.0
563.6	393.9
563.8	396.8
564.0	401.8
564.2	404.0
564.4	407.7
564.6	405.9
564.8	405.1
565.0	406.2
565.2	410.2
565.4	416.3
565.6	417.8
565.8	420.8
566.0	423.5
566.2	426.0
566.4	429.3
566.6	436.0
566.8	436.3
567.0	440.8
567.2	446.8
567.4	447.1
567.6	441.9
567.8	444.4
568.0	446.8
568.2	453.5
568.4	459.1
568.6	456.3
568.8	453.3
569.0	455.5
569.2	462.8
569.4	474.4
569.6	480.3
569.8	478.0
570.0	477.7
570.2	477.4
570.4	485.1
570.6	487.4
570.8	491.4
571.0	490.5
571.2	494.5
571.4	498.6
571.6	503.0
571.8	495.4
572.0	501.0
572.2	504.9
572.4	511.5
572.6	514.4
572.8	516.1
573.0	518.4
573.2	525.6
573.4	532.5
573.6	536.7
573.8	540.4
574.0	546.0
574.2	555.8
574.4	555.7
574.6	552.4
574.8	554.3
575.0	555.3
575.2	559.2
575.4	569.5
575.6	571.3
575.8	573.5
576.0	579.5
576.2	579.4
576.4	580.3
576.6	582.7
576.8	585.6
577.0	594.4
577.2	601.3
577.4	607.7
577.6	606.2
577.8	605.7
578.0	609.6
578.2	614.0
578.4	621.3
578.6	628.5
578.8	632.5
579.0	631.3
579.2	635.9
579.4	636.9
579.6	638.6
579.8	650.3
580.0	659.0
580.2	663.8
580.4	673.3
580.6	675.8
580.8	675.1
581.0	683.7
581.2	681.0
581.4	690.3
581.6	690.9
581.8	689.1
582.0	697.3
582.2	707.0
582.4	709.4
582.6	717.3
582.8	709.2
583.0	704.7
583.2	720.7
583.4	738.1
583.6	749.2
583.8	756.2
584.0	753.6
584.2	746.7
584.4	747.1
584.6	752.2
584.8	757.1
585.0	759.9
585.2	765.3
585.4	773.4
585.6	777.3
585.8	784.4
586.0	790.8
586.2	796.5
586.4	805.5
586.6	816.6
586.8	816.9
587.0	820.3
587.2	822.4
587.4	825.8
587.6	833.2
587.8	844.9
588.0	851.2
588.2	857.2
588.4	859.9
588.6	854.4
588.8	855.6
589.0	859.4
589.2	869.2
589.4	867.2
589.6	873.5
589.8	874.3
590.0	881.5
590.2	890.9
590.4	900.7
590.6	901.5
590.8	900.3
591.0	906.8
591.2	911.1
591.4	926.2
591.6	929.3
591.8	930.1
592.0	925.9
592.2	934.1
592.4	944.2
592.6	961.1
592.8	968.7
593.0	969.6
593.2	966.7
593.4	962.1
593.6	969.7
593.8	974.6
594.0	982.5
594.2	992.0
594.4	994.9
594.6	998.9
594.8	1005
595.0	1006
595.2	1015
595.4	1024
595.6	1033
595.8	1038
596.0	1037
596.2	1032
596.4	1037
596.6	1037
596.8	1043
597.0	1041
597.2	1052
597.4	1054
597.6	1056
597.8	1061
598.0	1064
598.2	1069
598.4	1085
598.6	1088
598.8	1087
599.0	1102
599.2	1102
599.4	1101
599.6	1103
599.8	1106
600.0	1112
600.2	1128
600.4	1126
600.6	1124
600.8	1124
601.0	1131
601.2	1138
601.4	1145
601.6	1148
601.8	1153
602.0	1150
602.2	1152
602.4	1157
602.6	1165
602.8	1175
603.0	1187
603.2	1188
603.4	1197
603.6	1198
603.8	1195
604.0	1196
604.2	1190
604.4	1190
604.6	1199
604.8	1208
605.0	1221
605.2	1229
605.4	1221
605.6	1223
605.8	1222
606.0	1233
606.2	1237
606.4	1239
606.6	1236
606.8	1230
607.0	1227
607.2	1231
607.4	1237
607.6	1254
607.8	1262
608.0	1262
608.2	1255
608.4	1250
608.6	1262
608.8	1275
609.0	1283
609.2	1282
609.4	1277
609.6	1272
609.8	1281
610.0	1281
610.2	1282
610.4	1275
610.6	1278
610.8	1278
611.0	1288
611.2	1285
611.4	1287
611.6	1288
611.8	1292
612.0	1301
612.2	1306
612.4	1306
612.6	1309
612.8	1311
613.0	1307
613.2	1305
613.4	1297
613.6	1306
613.8	1305
614.0	1320
614.2	1321
614.4	1318
614.6	1321
614.8	1322
615.0	1317
615.2	1323
615.4	1318
615.6	1318
615.8	1326
616.0	1318
616.2	1317
616.4	1315
616.6	1322
616.8	1323
617.0	1329
617.2	1324
617.4	1326
617.6	1327
617.8	1331
618.0	1324
618.2	1320
618.4	1320
618.6	1321
618.8	1326
619.0	1330
619.2	1323
619.4	1326
619.6	1331
619.8	1327
620.0	1324
620.2	1324
620.4	1320
620.6	1329
620.8	1334
621.0	1333
621.2	1331
621.4	1332
621.6	1327
621.8	1329
622.0	1319
622.2	1308
622.4	1312
622.6	1320
622.8	1324
623.0	1325
623.2	1314
623.4	1308
623.6	1312
623.8	1314
624.0	1310
624.2	1298
624.4	1299
624.6	1302
624.8	1310
625.0	1315
625.2	1315
625.4	1306
625.6	1303
625.8	1298
626.0	1303
626.2	1313
626.4	1312
626.6	1309
626.8	1300
627.0	1294
627.2	1296
627.4	1299
627.6	1291
627.8	1290
628.0	1283
628.2	1288
628.4	1284
628.6	1283
628.8	1272
629.0	1265
629.2	1258
629.4	1272
629.6	1277
629.8	1280
630.0	1274
630.2	1270
630.4	1254
630.6	1248
630.8	1246
631.0	1238
631.2	1251
631.4	1259
631.6	1259
631.8	1246
632.0	1236
632.2	1217
632.4	1218
632.6	1223
632.8	1231
633.0	1225
633.2	1228
633.4	1220
633.6	1223
633.8	1229
634.0	1227
634.2	1219
634.4	1222
634.6	1225
634.8	1228
635.0	1214
635.2	1196
635.4	1185
635.6	1179
635.8	1194
636.0	1199
636.2	1192
636.4	1191
636.6	1188
636.8	1168
637.0	1168
637.2	1162
637.4	1160
637.6	1169
637.8	1173
638.0	1165
638.2	1162
638.4	1155
638.6	1141
638.8	1136
639.0	1133
639.2	1137
639.4	1140
639.6	1139
639.8	1129
640.0	1129
640.2	1126
640.4	1127
640.6	1132
640.8	1123
641.0	1114
641.2	1104
641.4	1095
641.6	1098
641.8	1102
642.0	1096
642.2	1095
642.4	1092
642.6	1096
642.8	1095
643.0	1083
643.2	1060
643.4	1047
643.6	1041
643.8	1042
644.0	1043
644.2	1052
644.4	1051
644.6	1060
644.8	1052
645.0	1045
645.2	1031
645.4	1022
645.6	1020
645.8	1025
646.0	1023
646.2	1031
646.4	1027
646.6	1015
646.8	1012
647.0	1004
647.2	999.4
647.4	995.5
647.6	992.6
647.8	985.4
648.0	982.4
648.2	980.7
648.4	975.8
648.6	966.1
648.8	963.7
649.0	958.7
649.2	956.5
649.4	955.3
649.6	954.8
649.8	954.7
650.0	953.6
650.2	949.4
650.4	943.3
650.6	938.5
650.8	933.7
651.0	926.9
651.2	925.4
651.4	919.4
651.6	913.9
651.8	917.5
652.0	921.5
652.2	920.3
652.4	914.3
652.6	901.4
652.8	892.3
653.0	889.0
653.2	889.7
653.4	883.2
653.6	879.8
653.8	882.0
654.0	887.0
654.2	878.7
654.4	873.3
654.6	863.6
654.8	859.3
655.0	855.4
655.2	859.1
655.4	849.3
655.6	845.4
655.8	847.7
656.0	840.5
656.2	835.0
656.4	837.5
656.6	836.0
656.8	828.7
657.0	826.4
657.2	815.6
657.4	810.4
657.6	806.2
657.8	801.0
658.0	794.9
658.2	793.9
658.4	790.3
658.6	792.0
658.8	795.6
659.0	793.5
659.2	789.5
659.4	787.7
659.6	780.4
659.8	773.6
660.0	773.9
660.2	767.2
660.4	763.4
660.6	764.5
660.8	763.1
661.0	757.0
661.2	750.6
661.4	745.8
661.6	740.6
661.8	742.9
662.0	740.7
662.2	741.8
662.4	736.2
662.6	732.3
662.8	722.0
663.0	719.1
663.2	712.7
663.4	713.1
663.6	711.2
663.8	709.6
664.0	708.6
664.2	707.9
664.4	704.1
664.6	702.4
664.8	697.5
665.0	690.8
665.2	684.8
665.4	675.8
665.6	671.7
665.8	671.9
666.0	673.0
666.2	666.1
666.4	660.6
666.6	653.4
666.8	653.4
667.0	651.3
667.2	652.3
667.4	652.6
667.6	653.9
667.8	653.6
668.0	650.9
668.2	640.1
668.4	628.8
668.6	628.7
668.8	626.3
669.0	629.5
669.2	624.6
669.4	621.3
669.6	613.0
669.8	613.6
670.0	612.4
670.2	608.0
670.4	600.9
670.6	598.9
670.8	592.4
671.0	592.6
671.2	592.1
671.4	582.8
671.6	581.5
671.8	580.3
672.0	576.6
672.2	573.2
672.4	572.7
672.6	571.0
672.8	571.2
673.0	574.6
673.2	574.1
673.4	565.3
673.6	560.9
673.8	549.4
674.0	541.8
674.2	543.6
674.4	545.2
674.6	542.1
674.8	544.7
675.0	538.1
675.2	537.7
675.4	535.1
675.6	528.9
675.8	523.4
676.0	522.4
676.2	523.4
676.4	523.9
676.6	516.8
676.8	509.3
677.0	502.3
677.2	501.8
677.4	504.1
677.6	504.5
677.8	501.1
678.0	501.0
678.2	493.7
678.4	487.8
678.6	485.8
678.8	485.7
679.0	490.4
679.2	492.4
679.4	486.6
679.6	481.1
679.8	475.0
680.0	467.9
680.2	463.3
680.4	457.2
680.6	458.9
680.8	460.6
681.0	458.9
681.2	457.2
681.4	449.5
681.6	441.7
681.8	443.3
682.0	439.5
682.2	438.5
682.4	436.2
682.6	436.4
682.8	435.2
683.0	435.2
683.2	429.8
683.4	425.9
683.6	421.6
683.8	422.1
684.0	424.8
684.2	423.6
684.4	416.9
684.6	412.1
684.8	408.3
685.0	401.0
685.2	401.0
685.4	401.4
685.6	398.2
685.8	395.3
686.0	394.4
686.2	387.2
686.4	383.8
686.6	384.9
686.8	386.1
687.0	389.1
687.2	388.9
687.4	386.2
687.6	385.3
687.8	384.2
688.0	379.3
688.2	378.7
688.4	368.0
688.6	362.4
688.8	360.5
689.0	365.5
689.2	366.0
689.4	369.0
689.6	365.5
689.8	364.7
690.0	356.5
690.2	356.5
690.4	350.5
690.6	348.4
690.8	350.6
691.0	355.2
691.2	352.1
691.4	348.4
691.6	340.9
691.8	339.7
692.0	341.1
692.2	344.1
692.4	340.3
692.6	334.5
692.8	326.2
693.0	325.4
693.2	326.5
693.4	328.2
693.6	327.1
693.8	326.2
694.0	323.3
694.2	324.3
694.4	324.0
694.6	323.1
694.8	324.3
695.0	321.9
695.2	319.9
695.4	316.4
695.6	314.0
695.8	314.2
696.0	310.5
696.2	305.7
696.4	299.7
696.6	296.4
696.8	292.6
697.0	292.3
697.2	290.4
697.4	292.8
697.6	294.8
697.8	298.2
698.0	292.2
698.2	287.5
698.4	281.0
698.6	281.7
698.8	279.4
699.0	279.4
699.2	275.9
699.4	270.5
699.6	268.2
699.8	273.1
700.0	275.7
700.2	278.3
700.4	278.0
700.6	276.1
700.8	274.6
701.0	274.0
701.2	273.9
701.4	267.5
701.6	261.1
701.8	262.9
702.0	259.3
702.2	257.4
702.4	258.2
702.6	256.5
702.8	252.7
703.0	254.0
703.2	248.5
703.4	242.2
703.6	241.6
703.8	244.6
704.0	243.9
704.2	245.7
704.4	245.6
704.6	242.1
704.8	237.8
705.0	233.4
705.2	230.0
705.4	228.5
705.6	231.5
705.8	234.4
706.0	235.7
706.2	232.8
706.4	230.9
706.6	227.5
706.8	227.5
707.0	227.0
707.2	229.5
707.4	230.5
707.6	229.1
707.8	227.3
708.0	225.3
708.2	219.6
708.4	217.1
708.6	213.8
708.8	211.2
709.0	211.5
709.2	215.1
709.4	218.3
709.6	217.9
709.8	211.8
710.0	206.9
710.2	206.2
710.4	207.0
710.6	210.6
710.8	207.3
711.0	199.7
711.2	194.8
711.4	195.1
711.6	196.9
711.8	199.6
712.0	203.5
712.2	201.6
712.4	195.9
712.6	192.8
712.8	189.2
713.0	185.0
713.2	188.3
713.4	188.7
713.6	186.3
713.8	186.7
714.0	185.3
714.2	185.2
714.4	186.3
714.6	183.7
714.8	182.9
715.0	181.2
715.2	180.1
715.4	180.5
715.6	179.1
715.8	175.3
716.0	175.8
716.2	174.1
716.4	170.9
716.6	166.5
716.8	163.7
717.0	160.6
717.2	163.4
717.4	166.9
717.6	169.1
717.8	168.9
718.0	164.9
718.2	159.1
718.4	158.8
718.6	156.4
718.8	156.6
719.0	158.8
719.2	156.2
719.4	156.8
719.6	156.0
719.8	153.2
720.0	150.3
720.2	151.0
720.4	151.9
720.6	153.7
720.8	151.6
721.0	149.8
721.2	147.5
721.4	148.0
721.6	148.5
721.8	146.3
722.0	143.3
722.2	141.0
722.4	141.0
722.6	144.4
722.8	146.2
723.0	146.5
723.2	146.2
723.4	145.2
723.6	141.9
723.8	141.2
724.0	139.1
724.2	138.4
724.4	137.2
724.6	134.3
724.8	129.2
725.0	127.3
725.2	127.0
725.4	127.5
725.6	128.8
725.8	129.6
726.0	129.7
726.2	129.0
726.4	131.4
726.6	131.2
726.8	130.0
727.0	126.9
727.2	124.5
727.4	121.9
727.6	122.8
727.8	123.6
728.0	123.0
728.2	122.0
728.4	122.2
728.6	122.3
728.8	122.2
729.0	121.0
729.2	118.4
729.4	115.8
729.6	112.7
729.8	110.9
730.0	111.1
730.2	109.7
730.4	112.7
730.6	113.3
730.8	111.9
731.0	110.4
731.2	110.1
731.4	110.0
731.6	111.0
731.8	109.2
732.0	107.3
732.2	104.4
732.4	105.5
732.6	106.2
732.8	103.9
733.0	103.4
733.2	102.1
733.4	101.1
733.6	102.1
733.8	101.5
734.0	98.99
734.2	99.45
734.4	97.28
734.6	96.85
734.8	98.10
735.0	99.30
735.2	97.00
735.4	95.38
735.6	94.50
735.8	93.21
736.0	93.28
736.2	92.75
736.4	91.27
736.6	88.45
736.8	87.96
737.0	87.88
737.2	87.72
737.4	90.86
737.6	91.49
737.8	90.42
738.0	85.65
738.2	83.57
738.4	80.97
738.6	82.86
738.8	82.65
739.0	83.43
739.2	80.61
739.4	81.99
739.6	83.70
739.8	85.47
740.0	85.29
740.2	81.78
740.4	77.85
740.6	76.52
740.8	76.81
741.0	76.41
741.2	76.16
741.4	75.34
741.6	75.60
741.8	74.50
742.0	74.04
742.2	71.22
742.4	70.11
742.6	71.97
742.8	72.70
743.0	72.93
743.2	74.41
743.4	72.90
743.6	72.13
743.8	73.50
744.0	72.12
744.2	69.98
744.4	69.60
744.6	69.84
744.8	69.59
745.0	70.44
745.2	69.88
745.4	66.76
745.6	65.11
745.8	66.23
746.0	64.84
746.2	64.70
746.4	65.13
746.6	64.88
746.8	63.51
747.0	63.21
747.2	61.31
747.4	59.92
747.6	60.88
747.8	61.04
748.0	61.83
748.2	63.88
748.4	64.19
748.6	62.74
748.8	62.28
749.0	58.22
749.2	56.50
749.4	57.15
749.6	56.51
749.8	56.68
750.0	59.20
750.2	59.24
750.4	60.09
750.6	59.80
750.8	58.26
751.0	55.10
751.2	55.12
751.4	54.93
751.6	55.27
751.8	56.66
752.0	56.92
752.2	55.23
752.4	55.64
752.6	55.61
752.8	53.02
753.0	53.58
753.2	53.32
753.4	52.86
753.6	52.23
753.8	51.54
754.0	51.53
754.2	52.13
754.4	52.45
754.6	52.31
754.8	51.08
755.0	48.74
755.2	49.93
755.4	49.05
755.6	49.08
755.8	47.72
756.0	47.47
756.2	47.36
756.4	49.72
756.6	50.33
756.8	49.84
757.0	48.20
757.2	46.94
757.4	46.77
757.6	46.78
757.8	46.89
758.0	45.27
758.2	44.94
758.4	43.62
758.6	43.23
758.8	42.78
759.0	43.66
759.2	42.90
759.4	43.25
759.6	43.72
759.8	44.25
760.0	44.51
760.2	43.36
760.4	42.53
760.6	42.34
760.8	41.97
761.0	42.17
761.2	41.17
761.4	40.22
761.6	40.23
761.8	40.70
762.0	41.84
762.2	42.19
762.4	40.88
762.6	40.69
762.8	40.57
763.0	40.54
763.2	39.40
763.4	38.73
763.6	38.03
763.8	37.49
764.0	38.05
764.2	38.82
764.4	39.12
764.6	39.72
764.8	38.83
765.0	36.95
765.2	34.71
765.4	33.45
765.6	33.19
765.8	33.73
766.0	34.53
766.2	35.43
766.4	35.06
766.6	34.75
766.8	33.39
767.0	33.41
767.2	33.29
767.4	33.53
767.6	33.72
767.8	34.55
768.0	33.58
768.2	33.31
768.4	31.35
768.6	30.33
768.8	31.28
769.0	31.18
769.2	31.70
769.4	33.15
769.6	32.36
769.8	33.26
770.0	34.03
770.2	32.63
770.4	32.37
770.6	32.60
770.8	31.61
771.0	31.29
771.2	30.52
771.4	30.77
771.6	30.96
771.8	32.02
772.0	30.94
772.2	29.92
772.4	27.86
772.6	27.18
772.8	26.59
773.0	28.15
773.2	27.98
773.4	29.30
773.6	29.25
773.8	28.97
774.0	27.95
774.2	27.99
774.4	25.87
774.6	26.47
774.8	26.34
775.0	26.63
775.2	26.87
775.4	27.19
775.6	27.28
775.8	28.16
776.0	27.19
776.2	26.84
776.4	26.55
776.6	26.02
776.8	25.46
777.0	24.81
777.2	24.34
777.4	23.83
777.6	24.63
777.8	25.36
778.0	24.07
778.2	24.08
778.4	24.21
778.6	23.65
778.8	24.84
779.0	25.89
779.2	24.37
779.4	23.46
779.6	23.00
779.8	22.78
780.0	23.88
780.2	25.49
780.4	24.91
780.6	24.46
780.8	23.95
781.0	23.35
781.2	23.36
781.4	22.83
781.6	22.77
781.8	23.30
782.0	23.42
782.2	23.74
782.4	23.61
782.6	22.09
782.8	21.98
783.0	22.03
783.2	21.28
783.4	21.57
783.6	21.15
783.8	21.26
784.0	22.15
784.2	22.56
784.4	22.67
784.6	21.73
784.8	20.31
785.0	19.53
785.2	19.47
785.4	20.16
785.6	21.21
785.8	20.71
786.0	20.60
786.2	20.01
786.4	19.86
786.6	20.74
786.8	20.60
787.0	21.02
787.2	21.94
787.4	22.13
787.6	21.10
787.8	20.24
788.0	19.56
788.2	19.33
788.4	19.54
788.6	19.93
788.8	19.98
789.0	20.78
789.2	20.97
789.4	20.59
789.6	19.91
789.8	19.26
790.0	19.22
790.2	20.02
790.4	20.02
790.6	19.94
790.8	19.13
791.0	18.61
791.2	18.69
791.4	18.75
791.6	19.28
791.8	19.87
792.0	19.37
792.2	18.99
792.4	18.37
792.6	16.99
792.8	16.47
793.0	17.48
793.2	18.41
793.4	18.68
793.6	19.28
793.8	18.58
794.0	17.68
794.2	17.63
794.4	17.45
794.6	16.47
794.8	17.50
795.0	17.97
795.2	17.31
795.4	17.46
795.6	17.99
795.8	16.95
796.0	17.90
796.2	18.04
796.4	16.78
796.6	17.52
796.8	18.01
797.0	17.30
797.2	17.88
797.4	16.80
797.6	16.63
797.8	17.04
798.0	17.63
798.2	17.35
798.4	16.69
798.6	17.07
798.8	17.45
799.0	18.38
799.2	19.66
799.4	18.66
799.6	17.22
799.8	16.83
800.0	18.69

