Sample:	'20211010A(EM)
File name:	R-CDs 2.FDS
Run date:	'10:44:09, 06/09/2023
Operator:	Administrator
Comment:	'

Instrument
Model:	F-4700 FL Spectrophotometer
Serial number:	2019-001
ROM Version:	5J24010 00

Instrument parameters
Measurement type:	Wavelength scan
Scan mode:	Emission
Data mode:	Fluorescence
EX WL:	520.0 nm
EM  Start WL:	540.0 nm
EM  End WL:	800.0 nm
Scan speed:	1200 nm/min
Delay:	0.0 s
EX Slit:	10.0 nm
EM Slit:	10.0 nm
PMT Voltage:	660 V
Response:	0.002 s
Corrected spectra:	Off
Shutter control:	On

Processing performed
Savitsky-Golay smoothed
Smoothing order:	3
Number of points:	7
Number of times:	1

Peak integration
Integration method:	Rectangular
Sensitivity:	1
Threshold:	1.000

Peaks
No.	Start(nm)	Apex(nm)	End(nm)	Height(Data)	Valley(nm)	Valley(Data)
1	540.0	607.4	607.8	7880	607.8	7814
2	607.8	611.4	768.6	7878	768.6	97.03
3	768.6	769.4	782.2	100.6	782.2	60.63
4	782.2	783.4	788.0	63.90	788.0	51.09
5	788.0	788.6	792.0	55.79	792.0	49.85
6	792.0	792.8	795.2	52.38	795.2	45.26
7	795.2	796.0	796.6	50.43	796.6	45.38
8	796.6	797.2	800.0	48.06	800.0	43.44

Data points
nm	Data
540.0	718.4
540.2	710.8
540.4	711.6
540.6	716.9
540.8	717.9
541.0	726.5
541.2	730.3
541.4	741.9
541.6	753.9
541.8	769.8
542.0	783.0
542.2	794.5
542.4	798.4
542.6	810.0
542.8	814.0
543.0	816.8
543.2	824.0
543.4	834.5
543.6	841.1
543.8	849.9
544.0	865.5
544.2	878.2
544.4	897.6
544.6	914.0
544.8	929.1
545.0	940.0
545.2	951.8
545.4	955.7
545.6	957.3
545.8	962.2
546.0	977.8
546.2	994.8
546.4	1014
546.6	1022
546.8	1023
547.0	1037
547.2	1053
547.4	1065
547.6	1083
547.8	1088
548.0	1090
548.2	1101
548.4	1113
548.6	1134
548.8	1160
549.0	1171
549.2	1180
549.4	1184
549.6	1182
549.8	1211
550.0	1229
550.2	1247
550.4	1260
550.6	1271
550.8	1280
551.0	1310
551.2	1325
551.4	1349
551.6	1353
551.8	1362
552.0	1372
552.2	1393
552.4	1414
552.6	1429
552.8	1434
553.0	1442
553.2	1454
553.4	1479
553.6	1504
553.8	1522
554.0	1546
554.2	1566
554.4	1578
554.6	1589
554.8	1598
555.0	1610
555.2	1623
555.4	1645
555.6	1663
555.8	1690
556.0	1704
556.2	1716
556.4	1729
556.6	1755
556.8	1766
557.0	1792
557.2	1800
557.4	1813
557.6	1833
557.8	1857
558.0	1869
558.2	1889
558.4	1903
558.6	1933
558.8	1959
559.0	1978
559.2	1995
559.4	2010
559.6	2028
559.8	2060
560.0	2098
560.2	2128
560.4	2146
560.6	2162
560.8	2174
561.0	2193
561.2	2224
561.4	2253
561.6	2270
561.8	2293
562.0	2296
562.2	2307
562.4	2335
562.6	2358
562.8	2399
563.0	2451
563.2	2467
563.4	2480
563.6	2486
563.8	2486
564.0	2515
564.2	2550
564.4	2588
564.6	2618
564.8	2631
565.0	2657
565.2	2687
565.4	2714
565.6	2758
565.8	2793
566.0	2796
566.2	2818
566.4	2823
566.6	2847
566.8	2886
567.0	2935
567.2	2952
567.4	2989
567.6	3013
567.8	3024
568.0	3054
568.2	3091
568.4	3114
568.6	3150
568.8	3193
569.0	3207
569.2	3240
569.4	3265
569.6	3285
569.8	3311
570.0	3344
570.2	3354
570.4	3383
570.6	3400
570.8	3437
571.0	3484
571.2	3517
571.4	3540
571.6	3567
571.8	3609
572.0	3646
572.2	3684
572.4	3698
572.6	3714
572.8	3733
573.0	3781
573.2	3802
573.4	3845
573.6	3873
573.8	3907
574.0	3941
574.2	3980
574.4	4001
574.6	4023
574.8	4040
575.0	4065
575.2	4087
575.4	4138
575.6	4191
575.8	4218
576.0	4254
576.2	4292
576.4	4323
576.6	4360
576.8	4389
577.0	4413
577.2	4444
577.4	4483
577.6	4503
577.8	4514
578.0	4532
578.2	4580
578.4	4613
578.6	4661
578.8	4680
579.0	4713
579.2	4752
579.4	4789
579.6	4811
579.8	4847
580.0	4865
580.2	4922
580.4	4973
580.6	5023
580.8	5042
581.0	5064
581.2	5088
581.4	5125
581.6	5159
581.8	5213
582.0	5226
582.2	5242
582.4	5267
582.6	5269
582.8	5294
583.0	5341
583.2	5373
583.4	5404
583.6	5428
583.8	5445
584.0	5497
584.2	5552
584.4	5591
584.6	5620
584.8	5632
585.0	5650
585.2	5677
585.4	5715
585.6	5734
585.8	5786
586.0	5826
586.2	5860
586.4	5876
586.6	5898
586.8	5916
587.0	5963
587.2	5999
587.4	6028
587.6	6046
587.8	6061
588.0	6089
588.2	6111
588.4	6135
588.6	6172
588.8	6201
589.0	6212
589.2	6242
589.4	6278
589.6	6319
589.8	6371
590.0	6387
590.2	6398
590.4	6441
590.6	6486
590.8	6538
591.0	6553
591.2	6562
591.4	6566
591.6	6584
591.8	6615
592.0	6662
592.2	6694
592.4	6732
592.6	6779
592.8	6797
593.0	6814
593.2	6831
593.4	6830
593.6	6819
593.8	6860
594.0	6870
594.2	6906
594.4	6946
594.6	6969
594.8	6981
595.0	7026
595.2	7055
595.4	7075
595.6	7093
595.8	7130
596.0	7136
596.2	7167
596.4	7181
596.6	7160
596.8	7153
597.0	7181
597.2	7202
597.4	7237
597.6	7280
597.8	7293
598.0	7279
598.2	7304
598.4	7331
598.6	7335
598.8	7382
599.0	7378
599.2	7376
599.4	7420
599.6	7464
599.8	7471
600.0	7484
600.2	7475
600.4	7489
600.6	7515
600.8	7548
601.0	7549
601.2	7551
601.4	7565
601.6	7572
601.8	7604
602.0	7625
602.2	7619
602.4	7628
602.6	7640
602.8	7647
603.0	7661
603.2	7690
603.4	7704
603.6	7721
603.8	7735
604.0	7737
604.2	7706
604.4	7734
604.6	7742
604.8	7759
605.0	7781
605.2	7783
605.4	7763
605.6	7770
605.8	7772
606.0	7784
606.2	7805
606.4	7797
606.6	7789
606.8	7816
607.0	7842
607.2	7864
607.4	7880
607.6	7848
607.8	7814
608.0	7817
608.2	7818
608.4	7848
608.6	7863
608.8	7855
609.0	7838
609.2	7833
609.4	7845
609.6	7865
609.8	7860
610.0	7860
610.2	7868
610.4	7860
610.6	7864
610.8	7867
611.0	7858
611.2	7862
611.4	7878
611.6	7852
611.8	7830
612.0	7819
612.2	7833
612.4	7834
612.6	7855
612.8	7840
613.0	7812
613.2	7798
613.4	7823
613.6	7803
613.8	7805
614.0	7809
614.2	7800
614.4	7777
614.6	7753
614.8	7726
615.0	7715
615.2	7737
615.4	7742
615.6	7730
615.8	7720
616.0	7708
616.2	7701
616.4	7682
616.6	7662
616.8	7652
617.0	7668
617.2	7671
617.4	7682
617.6	7669
617.8	7652
618.0	7624
618.2	7605
618.4	7581
618.6	7582
618.8	7583
619.0	7569
619.2	7547
619.4	7535
619.6	7518
619.8	7519
620.0	7515
620.2	7481
620.4	7437
620.6	7410
620.8	7389
621.0	7384
621.2	7391
621.4	7375
621.6	7364
621.8	7362
622.0	7350
622.2	7324
622.4	7308
622.6	7276
622.8	7256
623.0	7249
623.2	7225
623.4	7194
623.6	7181
623.8	7167
624.0	7166
624.2	7152
624.4	7133
624.6	7107
624.8	7082
625.0	7049
625.2	7034
625.4	7012
625.6	6996
625.8	6995
626.0	6997
626.2	6985
626.4	6959
626.6	6930
626.8	6896
627.0	6868
627.2	6856
627.4	6835
627.6	6799
627.8	6786
628.0	6762
628.2	6737
628.4	6729
628.6	6707
628.8	6694
629.0	6685
629.2	6652
629.4	6639
629.6	6624
629.8	6590
630.0	6564
630.2	6536
630.4	6499
630.6	6494
630.8	6473
631.0	6441
631.2	6407
631.4	6392
631.6	6389
631.8	6382
632.0	6366
632.2	6356
632.4	6322
632.6	6292
632.8	6293
633.0	6265
633.2	6237
633.4	6217
633.6	6183
633.8	6154
634.0	6151
634.2	6142
634.4	6133
634.6	6129
634.8	6095
635.0	6067
635.2	6017
635.4	5954
635.6	5918
635.8	5902
636.0	5883
636.2	5887
636.4	5897
636.6	5876
636.8	5859
637.0	5838
637.2	5786
637.4	5743
637.6	5732
637.8	5725
638.0	5726
638.2	5712
638.4	5688
638.6	5644
638.8	5608
639.0	5592
639.2	5570
639.4	5532
639.6	5514
639.8	5477
640.0	5464
640.2	5457
640.4	5425
640.6	5395
640.8	5381
641.0	5368
641.2	5368
641.4	5348
641.6	5306
641.8	5289
642.0	5278
642.2	5268
642.4	5256
642.6	5215
642.8	5158
643.0	5103
643.2	5079
643.4	5072
643.6	5084
643.8	5088
644.0	5079
644.2	5052
644.4	5029
644.6	5000
644.8	4967
645.0	4921
645.2	4894
645.4	4871
645.6	4833
645.8	4804
646.0	4786
646.2	4778
646.4	4781
646.6	4753
646.8	4713
647.0	4690
647.2	4685
647.4	4682
647.6	4676
647.8	4647
648.0	4618
648.2	4611
648.4	4599
648.6	4566
648.8	4541
649.0	4515
649.2	4482
649.4	4454
649.6	4444
649.8	4419
650.0	4394
650.2	4383
650.4	4367
650.6	4345
650.8	4338
651.0	4317
651.2	4277
651.4	4250
651.6	4235
651.8	4212
652.0	4197
652.2	4186
652.4	4161
652.6	4124
652.8	4108
653.0	4078
653.2	4054
653.4	4044
653.6	4040
653.8	4025
654.0	4018
654.2	3996
654.4	3961
654.6	3932
654.8	3897
655.0	3874
655.2	3861
655.4	3857
655.6	3837
655.8	3832
656.0	3816
656.2	3799
656.4	3771
656.6	3740
656.8	3707
657.0	3700
657.2	3697
657.4	3687
657.6	3664
657.8	3637
658.0	3615
658.2	3604
658.4	3587
658.6	3574
658.8	3552
659.0	3522
659.2	3492
659.4	3480
659.6	3462
659.8	3448
660.0	3437
660.2	3417
660.4	3387
660.6	3369
660.8	3355
661.0	3344
661.2	3341
661.4	3347
661.6	3321
661.8	3283
662.0	3252
662.2	3224
662.4	3211
662.6	3200
662.8	3202
663.0	3194
663.2	3175
663.4	3159
663.6	3120
663.8	3087
664.0	3081
664.2	3074
664.4	3063
664.6	3048
664.8	3008
665.0	2992
665.2	2991
665.4	2990
665.6	2997
665.8	2979
666.0	2951
666.2	2920
666.4	2893
666.6	2867
666.8	2864
667.0	2849
667.2	2852
667.4	2834
667.6	2810
667.8	2781
668.0	2761
668.2	2737
668.4	2745
668.6	2729
668.8	2720
669.0	2699
669.2	2675
669.4	2645
669.6	2632
669.8	2605
670.0	2605
670.2	2605
670.4	2598
670.6	2586
670.8	2569
671.0	2547
671.2	2531
671.4	2511
671.6	2489
671.8	2483
672.0	2477
672.2	2468
672.4	2455
672.6	2429
672.8	2406
673.0	2398
673.2	2377
673.4	2355
673.6	2349
673.8	2343
674.0	2332
674.2	2325
674.4	2310
674.6	2304
674.8	2301
675.0	2276
675.2	2243
675.4	2221
675.6	2197
675.8	2196
676.0	2191
676.2	2178
676.4	2171
676.6	2169
676.8	2148
677.0	2130
677.2	2107
677.4	2092
677.6	2073
677.8	2074
678.0	2058
678.2	2050
678.4	2047
678.6	2041
678.8	2029
679.0	2016
679.2	1985
679.4	1960
679.6	1943
679.8	1934
680.0	1936
680.2	1937
680.4	1937
680.6	1933
680.8	1918
681.0	1899
681.2	1876
681.4	1857
681.6	1844
681.8	1835
682.0	1838
682.2	1843
682.4	1838
682.6	1819
682.8	1805
683.0	1790
683.2	1786
683.4	1776
683.6	1761
683.8	1748
684.0	1736
684.2	1731
684.4	1726
684.6	1710
684.8	1686
685.0	1673
685.2	1655
685.4	1639
685.6	1620
685.8	1605
686.0	1603
686.2	1603
686.4	1598
686.6	1585
686.8	1566
687.0	1555
687.2	1562
687.4	1567
687.6	1557
687.8	1549
688.0	1540
688.2	1525
688.4	1509
688.6	1494
688.8	1470
689.0	1465
689.2	1467
689.4	1458
689.6	1454
689.8	1444
690.0	1427
690.2	1426
690.4	1418
690.6	1401
690.8	1400
691.0	1398
691.2	1390
691.4	1386
691.6	1365
691.8	1346
692.0	1345
692.2	1348
692.4	1344
692.6	1335
692.8	1324
693.0	1311
693.2	1303
693.4	1293
693.6	1285
693.8	1277
694.0	1268
694.2	1265
694.4	1254
694.6	1246
694.8	1242
695.0	1233
695.2	1220
695.4	1221
695.6	1215
695.8	1211
696.0	1207
696.2	1206
696.4	1202
696.6	1200
696.8	1197
697.0	1186
697.2	1171
697.4	1161
697.6	1152
697.8	1145
698.0	1139
698.2	1135
698.4	1129
698.6	1126
698.8	1122
699.0	1115
699.2	1103
699.4	1094
699.6	1089
699.8	1080
700.0	1073
700.2	1069
700.4	1063
700.6	1063
700.8	1060
701.0	1058
701.2	1046
701.4	1035
701.6	1028
701.8	1022
702.0	1016
702.2	1021
702.4	1014
702.6	1014
702.8	1009
703.0	1000
703.2	988.6
703.4	988.9
703.6	981.1
703.8	978.5
704.0	974.5
704.2	966.8
704.4	961.8
704.6	962.4
704.8	952.1
705.0	938.7
705.2	934.1
705.4	924.6
705.6	924.4
705.8	925.4
706.0	921.6
706.2	906.1
706.4	897.2
706.6	889.1
706.8	881.5
707.0	880.8
707.2	882.2
707.4	879.7
707.6	879.1
707.8	870.5
708.0	862.9
708.2	859.9
708.4	854.6
708.6	851.6
708.8	836.3
709.0	823.1
709.2	814.3
709.4	812.9
709.6	811.1
709.8	813.5
710.0	808.8
710.2	809.8
710.4	798.1
710.6	789.7
710.8	788.7
711.0	785.1
711.2	782.2
711.4	775.1
711.6	761.4
711.8	754.5
712.0	755.1
712.2	749.6
712.4	742.3
712.6	734.4
712.8	731.2
713.0	730.1
713.2	732.7
713.4	729.4
713.6	726.4
713.8	719.6
714.0	715.3
714.2	707.9
714.4	705.2
714.6	696.7
714.8	693.8
715.0	684.9
715.2	676.0
715.4	669.8
715.6	668.0
715.8	667.5
716.0	664.0
716.2	660.9
716.4	655.7
716.6	649.2
716.8	650.1
717.0	644.8
717.2	636.8
717.4	629.8
717.6	628.9
717.8	621.4
718.0	622.4
718.2	614.8
718.4	610.3
718.6	603.3
718.8	604.3
719.0	597.5
719.2	592.7
719.4	587.4
719.6	588.1
719.8	591.9
720.0	594.6
720.2	590.3
720.4	574.2
720.6	565.2
720.8	558.4
721.0	553.7
721.2	552.9
721.4	549.6
721.6	543.1
721.8	541.5
722.0	538.8
722.2	530.4
722.4	528.4
722.6	524.5
722.8	521.1
723.0	520.1
723.2	518.1
723.4	514.5
723.6	510.7
723.8	506.4
724.0	496.2
724.2	489.5
724.4	487.7
724.6	490.2
724.8	493.6
725.0	491.9
725.2	482.3
725.4	470.4
725.6	467.9
725.8	465.2
726.0	464.8
726.2	458.7
726.4	456.5
726.6	451.8
726.8	446.1
727.0	437.7
727.2	430.9
727.4	429.8
727.6	432.8
727.8	436.7
728.0	435.8
728.2	432.8
728.4	429.4
728.6	428.8
728.8	424.2
729.0	420.8
729.2	417.3
729.4	414.6
729.6	415.3
729.8	414.0
730.0	412.5
730.2	406.6
730.4	401.1
730.6	392.0
730.8	391.7
731.0	388.8
731.2	386.1
731.4	383.3
731.6	381.2
731.8	376.5
732.0	377.0
732.2	375.0
732.4	371.0
732.6	368.0
732.8	365.8
733.0	364.5
733.2	359.4
733.4	352.7
733.6	350.1
733.8	345.0
734.0	343.8
734.2	350.0
734.4	347.0
734.6	343.3
734.8	341.0
735.0	335.7
735.2	330.5
735.4	332.4
735.6	329.8
735.8	325.1
736.0	320.8
736.2	319.7
736.4	318.3
736.6	317.8
736.8	317.5
737.0	314.4
737.2	309.4
737.4	302.0
737.6	299.4
737.8	296.8
738.0	294.9
738.2	295.9
738.4	295.7
738.6	293.0
738.8	293.2
739.0	292.4
739.2	290.0
739.4	283.2
739.6	278.7
739.8	280.4
740.0	281.5
740.2	281.6
740.4	277.1
740.6	264.8
740.8	257.9
741.0	254.6
741.2	255.6
741.4	260.6
741.6	262.4
741.8	260.4
742.0	258.0
742.2	251.4
742.4	249.3
742.6	253.3
742.8	253.4
743.0	251.0
743.2	249.0
743.4	244.6
743.6	244.4
743.8	243.2
744.0	238.7
744.2	234.4
744.4	231.4
744.6	228.7
744.8	228.8
745.0	228.3
745.2	227.1
745.4	226.5
745.6	223.0
745.8	219.6
746.0	217.8
746.2	218.5
746.4	217.7
746.6	219.3
746.8	213.5
747.0	209.7
747.2	208.2
747.4	205.0
747.6	205.0
747.8	206.4
748.0	204.8
748.2	202.2
748.4	201.5
748.6	199.5
748.8	199.6
749.0	198.7
749.2	197.0
749.4	193.5
749.6	191.4
749.8	193.1
750.0	192.8
750.2	191.3
750.4	187.9
750.6	184.8
750.8	179.1
751.0	178.1
751.2	175.7
751.4	174.1
751.6	172.6
751.8	174.6
752.0	175.0
752.2	175.7
752.4	175.4
752.6	172.7
752.8	169.7
753.0	170.2
753.2	169.8
753.4	168.5
753.6	168.7
753.8	167.3
754.0	166.8
754.2	166.6
754.4	168.6
754.6	165.5
754.8	163.0
755.0	159.7
755.2	158.1
755.4	156.1
755.6	155.8
755.8	150.1
756.0	146.4
756.2	148.0
756.4	153.3
756.6	156.0
756.8	155.2
757.0	150.8
757.2	143.8
757.4	141.0
757.6	142.5
757.8	144.0
758.0	146.2
758.2	146.9
758.4	145.0
758.6	140.1
758.8	138.3
759.0	135.5
759.2	135.8
759.4	135.7
759.6	135.0
759.8	132.8
760.0	134.4
760.2	133.9
760.4	133.7
760.6	133.0
760.8	129.3
761.0	128.3
761.2	130.3
761.4	130.5
761.6	128.1
761.8	125.3
762.0	122.5
762.2	122.2
762.4	123.0
762.6	123.3
762.8	122.0
763.0	121.2
763.2	121.7
763.4	121.5
763.6	121.6
763.8	118.2
764.0	116.3
764.2	115.5
764.4	118.9
764.6	119.0
764.8	119.3
765.0	115.6
765.2	115.4
765.4	113.3
765.6	115.1
765.8	114.7
766.0	112.9
766.2	113.0
766.4	111.4
766.6	107.9
766.8	105.1
767.0	103.7
767.2	102.7
767.4	103.1
767.6	100.5
767.8	101.2
768.0	98.05
768.2	97.28
768.4	97.30
768.6	97.03
768.8	97.70
769.0	99.09
769.2	99.53
769.4	100.6
769.6	99.65
769.8	99.09
770.0	97.64
770.2	94.01
770.4	91.79
770.6	89.78
770.8	91.31
771.0	91.49
771.2	93.32
771.4	92.55
771.6	89.67
771.8	89.30
772.0	91.20
772.2	90.88
772.4	93.70
772.6	91.13
772.8	88.11
773.0	85.53
773.2	82.53
773.4	82.23
773.6	83.73
773.8	83.49
774.0	84.04
774.2	82.07
774.4	79.75
774.6	78.59
774.8	77.46
775.0	79.08
775.2	79.44
775.4	78.73
775.6	79.53
775.8	78.50
776.0	78.80
776.2	77.65
776.4	74.26
776.6	72.80
776.8	74.12
777.0	74.61
777.2	74.78
777.4	73.18
777.6	73.00
777.8	73.52
778.0	73.66
778.2	73.27
778.4	70.10
778.6	68.76
778.8	71.85
779.0	72.48
779.2	73.08
779.4	72.79
779.6	69.50
779.8	68.26
780.0	69.21
780.2	67.63
780.4	65.67
780.6	64.61
780.8	63.33
781.0	63.41
781.2	65.72
781.4	66.96
781.6	64.90
781.8	63.44
782.0	61.36
782.2	60.63
782.4	61.03
782.6	62.50
782.8	61.65
783.0	62.43
783.2	63.48
783.4	63.90
783.6	61.96
783.8	63.01
784.0	59.85
784.2	60.01
784.4	59.84
784.6	58.54
784.8	58.39
785.0	59.63
785.2	57.03
785.4	57.64
785.6	57.89
785.8	58.38
786.0	59.53
786.2	59.68
786.4	56.96
786.6	56.46
786.8	56.13
787.0	56.90
787.2	57.63
787.4	57.00
787.6	54.06
787.8	52.05
788.0	51.09
788.2	52.67
788.4	55.31
788.6	55.79
788.8	55.17
789.0	53.95
789.2	52.77
789.4	53.50
789.6	53.20
789.8	51.63
790.0	50.49
790.2	51.96
790.4	52.44
790.6	52.62
790.8	52.10
791.0	51.17
791.2	51.41
791.4	53.23
791.6	52.16
791.8	50.22
792.0	49.85
792.2	49.96
792.4	51.10
792.6	52.30
792.8	52.38
793.0	51.85
793.2	50.44
793.4	49.20
793.6	47.93
793.8	47.20
794.0	48.24
794.2	49.34
794.4	48.99
794.6	48.53
794.8	47.06
795.0	45.41
795.2	45.26
795.4	45.61
795.6	46.11
795.8	49.09
796.0	50.43
796.2	49.97
796.4	47.88
796.6	45.38
796.8	45.72
797.0	46.54
797.2	48.06
797.4	47.25
797.6	47.24
797.8	47.22
798.0	47.98
798.2	46.63
798.4	47.37
798.6	46.94
798.8	47.03
799.0	45.35
799.2	43.70
799.4	42.00
799.6	42.25
799.8	42.92
800.0	43.44

