Sample:	'20211010A(EM)
File name:	R-CDs 6.FDS
Run date:	'15:16:07, 06/09/2023
Operator:	Administrator
Comment:	'

Instrument
Model:	F-4700 FL Spectrophotometer
Serial number:	2019-001
ROM Version:	5J24010 00

Instrument parameters
Measurement type:	Wavelength scan
Scan mode:	Emission
Data mode:	Fluorescence
EX WL:	520.0 nm
EM  Start WL:	540.0 nm
EM  End WL:	800.0 nm
Scan speed:	1200 nm/min
Delay:	0.0 s
EX Slit:	10.0 nm
EM Slit:	10.0 nm
PMT Voltage:	650 V
Response:	0.002 s
Corrected spectra:	Off
Shutter control:	On

Processing performed
Savitsky-Golay smoothed
Smoothing order:	3
Number of points:	7
Number of times:	1

Peak integration
Integration method:	Rectangular
Sensitivity:	1
Threshold:	1.000

Peaks
No.	Start(nm)	Apex(nm)	End(nm)	Height(Data)	Valley(nm)	Valley(Data)
1	540.0	605.8	608.2	8618	608.2	8530
2	608.2	609.2	611.0	8572	611.0	8395
3	611.0	612.2	770.8	8446	770.8	89.39
4	770.8	772.0	782.0	91.79	782.0	60.42
5	782.0	782.8	786.0	65.19	786.0	54.50
6	786.0	786.8	788.2	60.09	788.2	51.74
7	788.2	788.6	792.0	56.14	792.0	48.62
8	792.0	793.0	796.6	51.12	796.6	44.38
9	796.6	797.4	800.0	47.91	800.0	40.06

Data points
nm	Data
540.0	776.6
540.2	804.2
540.4	816.0
540.6	820.1
540.8	828.7
541.0	837.6
541.2	855.9
541.4	870.8
541.6	880.3
541.8	887.9
542.0	900.4
542.2	907.3
542.4	919.7
542.6	930.0
542.8	937.7
543.0	947.3
543.2	964.1
543.4	978.8
543.6	989.5
543.8	1001
544.0	1011
544.2	1022
544.4	1037
544.6	1048
544.8	1062
545.0	1080
545.2	1095
545.4	1105
545.6	1118
545.8	1129
546.0	1146
546.2	1166
546.4	1184
546.6	1202
546.8	1213
547.0	1222
547.2	1231
547.4	1239
547.6	1257
547.8	1280
548.0	1293
548.2	1306
548.4	1311
548.6	1319
548.8	1341
549.0	1357
549.2	1378
549.4	1398
549.6	1410
549.8	1433
550.0	1454
550.2	1466
550.4	1476
550.6	1492
550.8	1511
551.0	1534
551.2	1560
551.4	1582
551.6	1595
551.8	1620
552.0	1637
552.2	1641
552.4	1656
552.6	1666
552.8	1689
553.0	1723
553.2	1755
553.4	1781
553.6	1797
553.8	1808
554.0	1825
554.2	1842
554.4	1868
554.6	1889
554.8	1915
555.0	1934
555.2	1950
555.4	1976
555.6	2000
555.8	2020
556.0	2043
556.2	2053
556.4	2067
556.6	2099
556.8	2130
557.0	2160
557.2	2183
557.4	2197
557.6	2221
557.8	2258
558.0	2298
558.2	2333
558.4	2350
558.6	2357
558.8	2377
559.0	2407
559.2	2430
559.4	2457
559.6	2488
559.8	2517
560.0	2551
560.2	2571
560.4	2590
560.6	2605
560.8	2632
561.0	2670
561.2	2712
561.4	2742
561.6	2780
561.8	2801
562.0	2820
562.2	2846
562.4	2875
562.6	2907
562.8	2939
563.0	2980
563.2	3018
563.4	3050
563.6	3092
563.8	3123
564.0	3149
564.2	3180
564.4	3218
564.6	3254
564.8	3281
565.0	3309
565.2	3339
565.4	3376
565.6	3426
565.8	3469
566.0	3486
566.2	3519
566.4	3554
566.6	3590
566.8	3624
567.0	3660
567.2	3683
567.4	3716
567.6	3754
567.8	3803
568.0	3856
568.2	3905
568.4	3942
568.6	3966
568.8	3988
569.0	4011
569.2	4049
569.4	4081
569.6	4125
569.8	4168
570.0	4218
570.2	4259
570.4	4312
570.6	4359
570.8	4384
571.0	4420
571.2	4476
571.4	4509
571.6	4544
571.8	4589
572.0	4605
572.2	4638
572.4	4690
572.6	4723
572.8	4755
573.0	4816
573.2	4864
573.4	4909
573.6	4949
573.8	4986
574.0	5011
574.2	5038
574.4	5083
574.6	5116
574.8	5160
575.0	5214
575.2	5261
575.4	5301
575.6	5353
575.8	5365
576.0	5400
576.2	5427
576.4	5454
576.6	5493
576.8	5534
577.0	5558
577.2	5606
577.4	5653
577.6	5686
577.8	5726
578.0	5769
578.2	5821
578.4	5877
578.6	5940
578.8	5959
579.0	5979
579.2	5996
579.4	6034
579.6	6094
579.8	6141
580.0	6157
580.2	6175
580.4	6196
580.6	6234
580.8	6289
581.0	6333
581.2	6376
581.4	6411
581.6	6428
581.8	6460
582.0	6512
582.2	6579
582.4	6640
582.6	6676
582.8	6682
583.0	6700
583.2	6732
583.4	6772
583.6	6798
583.8	6806
584.0	6858
584.2	6898
584.4	6931
584.6	6955
584.8	6965
585.0	6953
585.2	6980
585.4	7013
585.6	7058
585.8	7095
586.0	7148
586.2	7167
586.4	7190
586.6	7233
586.8	7252
587.0	7270
587.2	7300
587.4	7338
587.6	7370
587.8	7409
588.0	7424
588.2	7448
588.4	7454
588.6	7489
588.8	7497
589.0	7516
589.2	7541
589.4	7583
589.6	7606
589.8	7643
590.0	7663
590.2	7672
590.4	7691
590.6	7723
590.8	7744
591.0	7766
591.2	7788
591.4	7816
591.6	7841
591.8	7857
592.0	7864
592.2	7873
592.4	7872
592.6	7905
592.8	7927
593.0	7934
593.2	7952
593.4	7969
593.6	8000
593.8	8046
594.0	8082
594.2	8110
594.4	8122
594.6	8123
594.8	8145
595.0	8151
595.2	8158
595.4	8175
595.6	8190
595.8	8193
596.0	8219
596.2	8226
596.4	8245
596.6	8270
596.8	8291
597.0	8309
597.2	8328
597.4	8318
597.6	8320
597.8	8321
598.0	8332
598.2	8365
598.4	8373
598.6	8382
598.8	8390
599.0	8400
599.2	8432
599.4	8462
599.6	8452
599.8	8472
600.0	8472
600.2	8474
600.4	8480
600.6	8484
600.8	8479
601.0	8492
601.2	8484
601.4	8502
601.6	8514
601.8	8522
602.0	8543
602.2	8539
602.4	8514
602.6	8530
602.8	8544
603.0	8547
603.2	8539
603.4	8532
603.6	8522
603.8	8539
604.0	8558
604.2	8563
604.4	8553
604.6	8582
604.8	8587
605.0	8579
605.2	8563
605.4	8567
605.6	8587
605.8	8618
606.0	8598
606.2	8582
606.4	8563
606.6	8576
606.8	8574
607.0	8555
607.2	8550
607.4	8565
607.6	8577
607.8	8574
608.0	8552
608.2	8530
608.4	8536
608.6	8566
608.8	8572
609.0	8572
609.2	8572
609.4	8553
609.6	8544
609.8	8523
610.0	8522
610.2	8519
610.4	8497
610.6	8456
610.8	8424
611.0	8395
611.2	8416
611.4	8430
611.6	8429
611.8	8428
612.0	8429
612.2	8446
612.4	8424
612.6	8396
612.8	8361
613.0	8335
613.2	8350
613.4	8370
613.6	8356
613.8	8352
614.0	8351
614.2	8344
614.4	8350
614.6	8339
614.8	8318
615.0	8269
615.2	8237
615.4	8205
615.6	8182
615.8	8192
616.0	8212
616.2	8196
616.4	8198
616.6	8167
616.8	8128
617.0	8111
617.2	8086
617.4	8067
617.6	8057
617.8	8046
618.0	8043
618.2	8049
618.4	8044
618.6	8027
618.8	8000
619.0	7965
619.2	7927
619.4	7928
619.6	7918
619.8	7905
620.0	7902
620.2	7896
620.4	7869
620.6	7866
620.8	7826
621.0	7804
621.2	7793
621.4	7776
621.6	7750
621.8	7719
622.0	7682
622.2	7683
622.4	7680
622.6	7652
622.8	7645
623.0	7616
623.2	7570
623.4	7553
623.6	7519
623.8	7494
624.0	7485
624.2	7456
624.4	7431
624.6	7440
624.8	7419
625.0	7415
625.2	7373
625.4	7337
625.6	7317
625.8	7306
626.0	7297
626.2	7284
626.4	7261
626.6	7242
626.8	7218
627.0	7171
627.2	7133
627.4	7115
627.6	7099
627.8	7086
628.0	7064
628.2	7029
628.4	7022
628.6	7027
628.8	6997
629.0	6988
629.2	6950
629.4	6906
629.6	6877
629.8	6851
630.0	6812
630.2	6809
630.4	6804
630.6	6775
630.8	6733
631.0	6697
631.2	6657
631.4	6648
631.6	6657
631.8	6647
632.0	6630
632.2	6586
632.4	6562
632.6	6549
632.8	6543
633.0	6507
633.2	6471
633.4	6443
633.6	6424
633.8	6403
634.0	6385
634.2	6334
634.4	6298
634.6	6287
634.8	6266
635.0	6253
635.2	6220
635.4	6186
635.6	6156
635.8	6124
636.0	6102
636.2	6094
636.4	6070
636.6	6076
636.8	6064
637.0	6023
637.2	5963
637.4	5932
637.6	5900
637.8	5903
638.0	5910
638.2	5900
638.4	5867
638.6	5846
638.8	5797
639.0	5755
639.2	5736
639.4	5717
639.6	5696
639.8	5687
640.0	5661
640.2	5643
640.4	5636
640.6	5621
640.8	5587
641.0	5554
641.2	5511
641.4	5473
641.6	5446
641.8	5413
642.0	5394
642.2	5387
642.4	5373
642.6	5344
642.8	5323
643.0	5289
643.2	5286
643.4	5273
643.6	5241
643.8	5219
644.0	5183
644.2	5144
644.4	5107
644.6	5069
644.8	5043
645.0	5048
645.2	5035
645.4	5027
645.6	4996
645.8	4960
646.0	4928
646.2	4907
646.4	4883
646.6	4873
646.8	4848
647.0	4825
647.2	4807
647.4	4788
647.6	4761
647.8	4730
648.0	4700
648.2	4680
648.4	4647
648.6	4636
648.8	4619
649.0	4595
649.2	4575
649.4	4561
649.6	4523
649.8	4512
650.0	4492
650.2	4470
650.4	4442
650.6	4427
650.8	4408
651.0	4379
651.2	4347
651.4	4335
651.6	4310
651.8	4302
652.0	4294
652.2	4263
652.4	4233
652.6	4210
652.8	4173
653.0	4156
653.2	4137
653.4	4120
653.6	4109
653.8	4096
654.0	4075
654.2	4043
654.4	4010
654.6	3985
654.8	3952
655.0	3945
655.2	3936
655.4	3933
655.6	3926
655.8	3909
656.0	3867
656.2	3841
656.4	3788
656.6	3766
656.8	3748
657.0	3740
657.2	3738
657.4	3736
657.6	3715
657.8	3697
658.0	3672
658.2	3647
658.4	3628
658.6	3611
658.8	3600
659.0	3586
659.2	3553
659.4	3519
659.6	3501
659.8	3487
660.0	3471
660.2	3461
660.4	3432
660.6	3402
660.8	3395
661.0	3380
661.2	3366
661.4	3345
661.6	3312
661.8	3278
662.0	3264
662.2	3237
662.4	3233
662.6	3231
662.8	3223
663.0	3207
663.2	3186
663.4	3157
663.6	3134
663.8	3123
664.0	3109
664.2	3089
664.4	3065
664.6	3054
664.8	3027
665.0	3019
665.2	3010
665.4	2984
665.6	2962
665.8	2946
666.0	2925
666.2	2918
666.4	2911
666.6	2879
666.8	2866
667.0	2854
667.2	2847
667.4	2834
667.6	2820
667.8	2787
668.0	2760
668.2	2733
668.4	2714
668.6	2696
668.8	2702
669.0	2692
669.2	2679
669.4	2672
669.6	2660
669.8	2642
670.0	2631
670.2	2608
670.4	2592
670.6	2575
670.8	2557
671.0	2532
671.2	2515
671.4	2515
671.6	2501
671.8	2492
672.0	2463
672.2	2431
672.4	2414
672.6	2410
672.8	2400
673.0	2394
673.2	2373
673.4	2364
673.6	2346
673.8	2332
674.0	2326
674.2	2307
674.4	2301
674.6	2289
674.8	2265
675.0	2254
675.2	2247
675.4	2237
675.6	2226
675.8	2201
676.0	2193
676.2	2188
676.4	2178
676.6	2173
676.8	2154
677.0	2140
677.2	2145
677.4	2133
677.6	2108
677.8	2094
678.0	2068
678.2	2046
678.4	2044
678.6	2034
678.8	2020
679.0	2013
679.2	1996
679.4	1986
679.6	1977
679.8	1963
680.0	1949
680.2	1932
680.4	1920
680.6	1908
680.8	1892
681.0	1877
681.2	1872
681.4	1866
681.6	1859
681.8	1844
682.0	1828
682.2	1806
682.4	1801
682.6	1788
682.8	1774
683.0	1762
683.2	1755
683.4	1737
683.6	1728
683.8	1715
684.0	1711
684.2	1703
684.4	1709
684.6	1698
684.8	1690
685.0	1676
685.2	1662
685.4	1643
685.6	1632
685.8	1608
686.0	1594
686.2	1591
686.4	1587
686.6	1591
686.8	1583
687.0	1565
687.2	1545
687.4	1532
687.6	1529
687.8	1531
688.0	1529
688.2	1517
688.4	1505
688.6	1484
688.8	1478
689.0	1467
689.2	1457
689.4	1444
689.6	1440
689.8	1430
690.0	1421
690.2	1409
690.4	1401
690.6	1395
690.8	1391
691.0	1384
691.2	1369
691.4	1354
691.6	1355
691.8	1355
692.0	1347
692.2	1336
692.4	1324
692.6	1307
692.8	1304
693.0	1303
693.2	1293
693.4	1284
693.6	1279
693.8	1273
694.0	1267
694.2	1262
694.4	1253
694.6	1238
694.8	1233
695.0	1231
695.2	1228
695.4	1224
695.6	1217
695.8	1207
696.0	1203
696.2	1198
696.4	1185
696.6	1172
696.8	1158
697.0	1147
697.2	1150
697.4	1153
697.6	1140
697.8	1132
698.0	1122
698.2	1108
698.4	1103
698.6	1109
698.8	1100
699.0	1088
699.2	1082
699.4	1078
699.6	1068
699.8	1068
700.0	1058
700.2	1050
700.4	1055
700.6	1057
700.8	1047
701.0	1036
701.2	1027
701.4	1026
701.6	1021
701.8	1021
702.0	1013
702.2	1010
702.4	1011
702.6	1005
702.8	995.0
703.0	991.7
703.2	978.4
703.4	967.4
703.6	953.5
703.8	935.9
704.0	923.0
704.2	920.5
704.4	924.0
704.6	926.0
704.8	922.2
705.0	917.8
705.2	906.9
705.4	903.0
705.6	904.8
705.8	905.1
706.0	897.4
706.2	888.7
706.4	880.2
706.6	873.3
706.8	874.9
707.0	875.2
707.2	868.5
707.4	860.0
707.6	853.6
707.8	850.3
708.0	849.6
708.2	846.6
708.4	840.4
708.6	831.4
708.8	819.2
709.0	817.6
709.2	814.7
709.4	813.0
709.6	810.6
709.8	808.8
710.0	803.8
710.2	795.4
710.4	785.9
710.6	778.7
710.8	773.5
711.0	769.3
711.2	771.6
711.4	766.6
711.6	762.3
711.8	760.7
712.0	754.9
712.2	746.1
712.4	741.8
712.6	739.1
712.8	731.8
713.0	728.2
713.2	723.5
713.4	718.1
713.6	718.7
713.8	716.7
714.0	706.9
714.2	701.0
714.4	694.4
714.6	689.8
714.8	691.7
715.0	688.9
715.2	679.5
715.4	671.3
715.6	664.7
715.8	659.3
716.0	657.5
716.2	653.7
716.4	644.4
716.6	636.8
716.8	634.0
717.0	631.1
717.2	631.2
717.4	626.6
717.6	619.8
717.8	612.5
718.0	603.2
718.2	598.5
718.4	598.2
718.6	596.3
718.8	594.2
719.0	592.7
719.2	588.8
719.4	582.0
719.6	581.6
719.8	574.0
720.0	568.0
720.2	561.2
720.4	555.9
720.6	549.0
720.8	548.3
721.0	545.1
721.2	546.4
721.4	542.6
721.6	537.1
721.8	531.1
722.0	524.7
722.2	524.8
722.4	525.4
722.6	519.8
722.8	514.6
723.0	511.0
723.2	511.9
723.4	512.4
723.6	508.4
723.8	496.9
724.0	487.5
724.2	485.3
724.4	487.6
724.6	483.8
724.8	477.5
725.0	470.2
725.2	464.5
725.4	464.6
725.6	464.3
725.8	457.0
726.0	452.3
726.2	451.6
726.4	445.8
726.6	447.2
726.8	445.5
727.0	444.2
727.2	443.3
727.4	442.8
727.6	434.2
727.8	429.6
728.0	421.4
728.2	418.9
728.4	419.5
728.6	418.7
728.8	413.7
729.0	411.5
729.2	407.8
729.4	402.0
729.6	405.9
729.8	402.5
730.0	399.1
730.2	396.6
730.4	391.3
730.6	382.3
730.8	380.8
731.0	380.0
731.2	381.2
731.4	376.4
731.6	372.2
731.8	367.8
732.0	366.9
732.2	368.8
732.4	366.5
732.6	359.5
732.8	349.1
733.0	345.0
733.2	347.0
733.4	349.4
733.6	349.1
733.8	347.8
734.0	338.9
734.2	334.7
734.4	335.3
734.6	332.8
734.8	330.5
735.0	330.7
735.2	324.8
735.4	323.0
735.6	322.6
735.8	321.6
736.0	317.8
736.2	314.0
736.4	310.2
736.6	309.4
736.8	306.3
737.0	303.1
737.2	300.5
737.4	297.0
737.6	297.0
737.8	294.4
738.0	296.2
738.2	291.1
738.4	294.0
738.6	291.2
738.8	291.6
739.0	288.9
739.2	287.2
739.4	280.2
739.6	275.9
739.8	269.7
740.0	271.0
740.2	272.6
740.4	271.5
740.6	270.3
740.8	267.4
741.0	265.1
741.2	265.2
741.4	264.6
741.6	258.1
741.8	254.8
742.0	250.8
742.2	248.7
742.4	248.8
742.6	248.3
742.8	245.1
743.0	244.0
743.2	238.5
743.4	231.8
743.6	231.9
743.8	227.3
744.0	228.3
744.2	227.8
744.4	226.8
744.6	225.1
744.8	224.5
745.0	218.4
745.2	220.3
745.4	219.9
745.6	220.3
745.8	218.0
746.0	214.3
746.2	212.1
746.4	212.3
746.6	210.6
746.8	208.8
747.0	205.5
747.2	204.6
747.4	205.5
747.6	202.4
747.8	200.4
748.0	202.7
748.2	199.4
748.4	198.9
748.6	199.4
748.8	197.7
749.0	197.7
749.2	196.1
749.4	193.4
749.6	192.3
749.8	189.7
750.0	184.3
750.2	182.5
750.4	180.2
750.6	182.6
750.8	185.0
751.0	186.0
751.2	183.4
751.4	182.9
751.6	178.3
751.8	174.7
752.0	170.7
752.2	170.1
752.4	170.9
752.6	170.5
752.8	168.0
753.0	170.0
753.2	168.8
753.4	169.9
753.6	168.2
753.8	163.3
754.0	160.2
754.2	158.8
754.4	156.8
754.6	155.8
754.8	156.4
755.0	156.6
755.2	155.6
755.4	153.2
755.6	153.7
755.8	152.9
756.0	155.4
756.2	157.3
756.4	155.7
756.6	151.9
756.8	150.1
757.0	147.5
757.2	145.3
757.4	146.0
757.6	147.2
757.8	145.1
758.0	140.5
758.2	142.2
758.4	139.6
758.6	139.1
758.8	139.5
759.0	138.3
759.2	135.6
759.4	139.8
759.6	139.5
759.8	138.2
760.0	137.5
760.2	134.7
760.4	130.7
760.6	127.9
760.8	128.1
761.0	126.7
761.2	127.1
761.4	125.5
761.6	123.8
761.8	123.5
762.0	125.4
762.2	125.4
762.4	124.4
762.6	122.9
762.8	119.9
763.0	118.3
763.2	118.8
763.4	119.0
763.6	118.2
763.8	118.5
764.0	118.0
764.2	117.4
764.4	116.5
764.6	113.6
764.8	110.2
765.0	109.8
765.2	110.9
765.4	110.7
765.6	108.9
765.8	105.9
766.0	105.2
766.2	105.8
766.4	106.6
766.6	107.1
766.8	106.1
767.0	105.3
767.2	106.1
767.4	104.4
767.6	101.6
767.8	100.5
768.0	99.16
768.2	100.3
768.4	100.2
768.6	100.1
768.8	97.60
769.0	94.71
769.2	93.51
769.4	95.73
769.6	95.85
769.8	97.70
770.0	96.61
770.2	92.03
770.4	89.82
770.6	89.81
770.8	89.39
771.0	89.68
771.2	90.85
771.4	89.83
771.6	89.77
771.8	90.74
772.0	91.79
772.2	90.33
772.4	89.65
772.6	87.10
772.8	84.53
773.0	85.95
773.2	87.06
773.4	85.19
773.6	82.70
773.8	81.56
774.0	78.59
774.2	81.58
774.4	84.46
774.6	83.17
774.8	81.21
775.0	80.83
775.2	77.11
775.4	77.99
775.6	80.53
775.8	79.20
776.0	79.78
776.2	79.28
776.4	76.42
776.6	74.82
776.8	75.09
777.0	71.97
777.2	71.49
777.4	71.35
777.6	72.28
777.8	73.92
778.0	76.48
778.2	74.58
778.4	71.46
778.6	69.06
778.8	68.38
779.0	68.92
779.2	70.90
779.4	70.91
779.6	70.88
779.8	68.81
780.0	68.98
780.2	68.31
780.4	68.01
780.6	66.68
780.8	66.26
781.0	64.37
781.2	64.16
781.4	63.08
781.6	62.56
781.8	60.57
782.0	60.42
782.2	62.10
782.4	63.27
782.6	64.74
782.8	65.19
783.0	65.10
783.2	65.14
783.4	65.00
783.6	64.33
783.8	63.05
784.0	61.48
784.2	60.51
784.4	59.47
784.6	56.89
784.8	56.65
785.0	57.39
785.2	59.11
785.4	59.72
785.6	58.73
785.8	55.48
786.0	54.50
786.2	55.75
786.4	56.54
786.6	58.72
786.8	60.09
787.0	58.38
787.2	56.91
787.4	55.78
787.6	52.73
787.8	52.35
788.0	52.73
788.2	51.74
788.4	53.45
788.6	56.14
788.8	56.08
789.0	55.45
789.2	54.62
789.4	52.12
789.6	51.96
789.8	53.17
790.0	53.07
790.2	52.87
790.4	53.46
790.6	52.41
790.8	51.83
791.0	52.36
791.2	51.58
791.4	50.76
791.6	51.01
791.8	49.86
792.0	48.62
792.2	48.62
792.4	48.77
792.6	49.04
792.8	51.02
793.0	51.12
793.2	50.12
793.4	49.37
793.6	48.24
793.8	48.11
794.0	48.21
794.2	48.51
794.4	47.51
794.6	47.65
794.8	47.00
795.0	47.24
795.2	46.52
795.4	46.66
795.6	45.63
795.8	45.99
796.0	46.05
796.2	45.41
796.4	45.03
796.6	44.38
796.8	45.44
797.0	46.25
797.2	47.54
797.4	47.91
797.6	46.63
797.8	45.56
798.0	45.81
798.2	44.47
798.4	43.22
798.6	42.90
798.8	42.81
799.0	44.28
799.2	44.69
799.4	44.34
799.6	42.55
799.8	40.86
800.0	40.06

