Sample:	'20211010A(EM)
File name:	R-CDs 10 1000uM.FDS
Run date:	'15:33:44, 06/09/2023
Operator:	Administrator
Comment:	'

Instrument
Model:	F-4700 FL Spectrophotometer
Serial number:	2019-001
ROM Version:	5J24010 00

Instrument parameters
Measurement type:	Wavelength scan
Scan mode:	Emission
Data mode:	Fluorescence
EX WL:	520.0 nm
EM  Start WL:	540.0 nm
EM  End WL:	800.0 nm
Scan speed:	1200 nm/min
Delay:	0.0 s
EX Slit:	10.0 nm
EM Slit:	10.0 nm
PMT Voltage:	650 V
Response:	0.002 s
Corrected spectra:	Off
Shutter control:	On

Processing performed
Savitsky-Golay smoothed
Smoothing order:	3
Number of points:	7
Number of times:	1

Peak integration
Integration method:	Rectangular
Sensitivity:	1
Threshold:	1.000

Peaks
No.	Start(nm)	Apex(nm)	End(nm)	Height(Data)	Valley(nm)	Valley(Data)
1	540.0	544.4	545.4	235.9	545.4	230.2
2	545.4	584.4	585.2	1624	585.2	1612
3	585.2	587.0	587.8	1671	587.8	1657
4	587.8	595.2	595.8	1740	595.8	1726
5	595.8	597.6	598.2	1744	598.2	1723
6	598.2	599.6	600.4	1749	600.4	1734
7	600.4	601.2	602.8	1753	602.8	1705
8	602.8	604.0	605.0	1739	605.0	1709
9	605.0	606.0	612.4	1738	612.4	1640
10	612.4	613.0	615.2	1659	615.2	1599
11	615.2	616.2	711.6	1617	711.6	183.3
12	711.6	712.4	725.4	189.0	725.4	119.3
13	725.4	726.8	742.6	122.8	742.6	65.80
14	742.6	743.4	745.4	69.35	745.4	60.58
15	745.4	746.2	750.0	65.74	750.0	50.77
16	750.0	751.4	753.8	53.71	753.8	45.98
17	753.8	754.6	756.6	49.70	756.6	41.30
18	756.6	757.2	758.8	44.31	758.8	37.34
19	758.8	759.4	760.0	40.72	760.0	38.54
20	760.0	760.8	767.4	40.08	767.4	29.46
21	767.4	768.0	770.4	33.10	770.4	27.70
22	770.4	771.2	774.0	30.38	774.0	24.85
23	774.0	774.6	777.4	26.28	777.4	22.99
24	777.4	778.4	781.4	26.10	781.4	21.02
25	781.4	782.0	782.6	23.08	782.6	19.42
26	782.6	783.6	785.8	22.20	785.8	18.16
27	785.8	787.6	788.2	21.13	788.2	18.34
28	788.2	788.8	792.6	20.25	792.6	16.40
29	792.6	794.0	794.4	18.56	794.4	16.77
30	794.4	796.0	796.4	18.32	796.4	15.23
31	796.4	797.4	798.4	18.00	798.4	14.39

Data points
nm	Data
540.0	199.7
540.2	203.2
540.4	205.0
540.6	205.4
540.8	204.2
541.0	202.0
541.2	203.8
541.4	201.8
541.6	205.0
541.8	206.2
542.0	209.5
542.2	209.2
542.4	212.6
542.6	212.1
542.8	213.5
543.0	218.5
543.2	223.8
543.4	223.1
543.6	225.7
543.8	225.6
544.0	225.5
544.2	231.9
544.4	235.9
544.6	235.4
544.8	234.5
545.0	234.0
545.2	231.9
545.4	230.2
545.6	231.3
545.8	235.0
546.0	235.2
546.2	239.5
546.4	243.3
546.6	244.8
546.8	247.4
547.0	249.9
547.2	250.2
547.4	252.4
547.6	255.8
547.8	261.2
548.0	264.7
548.2	264.8
548.4	265.3
548.6	262.4
548.8	263.6
549.0	266.6
549.2	270.8
549.4	274.5
549.6	282.8
549.8	287.3
550.0	291.5
550.2	291.4
550.4	291.0
550.6	293.6
550.8	299.5
551.0	301.8
551.2	306.8
551.4	307.1
551.6	310.6
551.8	311.4
552.0	315.9
552.2	318.9
552.4	325.4
552.6	327.9
552.8	331.9
553.0	331.4
553.2	336.4
553.4	338.8
553.6	344.0
553.8	348.9
554.0	354.9
554.2	359.6
554.4	356.7
554.6	354.1
554.8	356.8
555.0	363.8
555.2	374.8
555.4	381.6
555.6	384.7
555.8	389.2
556.0	393.2
556.2	398.6
556.4	403.7
556.6	406.0
556.8	415.2
557.0	422.5
557.2	426.8
557.4	435.8
557.6	444.4
557.8	448.8
558.0	452.5
558.2	455.1
558.4	458.9
558.6	467.2
558.8	480.2
559.0	488.4
559.2	495.9
559.4	504.5
559.6	512.7
559.8	517.7
560.0	527.3
560.2	531.7
560.4	538.8
560.6	542.8
560.8	548.6
561.0	557.6
561.2	570.0
561.4	579.1
561.6	583.9
561.8	593.8
562.0	602.1
562.2	606.8
562.4	615.4
562.6	627.9
562.8	635.5
563.0	651.6
563.2	654.8
563.4	654.9
563.6	665.4
563.8	679.5
564.0	688.1
564.2	697.6
564.4	699.8
564.6	709.3
564.8	722.5
565.0	737.3
565.2	743.6
565.4	752.3
565.6	763.9
565.8	774.3
566.0	781.8
566.2	792.9
566.4	794.2
566.6	803.2
566.8	819.2
567.0	834.8
567.2	853.4
567.4	867.7
567.6	867.2
567.8	871.6
568.0	876.5
568.2	891.2
568.4	908.5
568.6	926.6
568.8	938.3
569.0	949.5
569.2	956.4
569.4	968.5
569.6	975.7
569.8	986.8
570.0	996.8
570.2	1015
570.4	1039
570.6	1052
570.8	1055
571.0	1053
571.2	1053
571.4	1067
571.6	1090
571.8	1110
572.0	1126
572.2	1131
572.4	1138
572.6	1149
572.8	1154
573.0	1172
573.2	1193
573.4	1199
573.6	1213
573.8	1223
574.0	1226
574.2	1236
574.4	1246
574.6	1254
574.8	1274
575.0	1288
575.2	1298
575.4	1311
575.6	1320
575.8	1326
576.0	1334
576.2	1343
576.4	1356
576.6	1376
576.8	1384
577.0	1383
577.2	1386
577.4	1387
577.6	1399
577.8	1408
578.0	1418
578.2	1426
578.4	1445
578.6	1455
578.8	1468
579.0	1466
579.2	1477
579.4	1479
579.6	1489
579.8	1494
580.0	1501
580.2	1500
580.4	1518
580.6	1530
580.8	1543
581.0	1543
581.2	1538
581.4	1535
581.6	1543
581.8	1555
582.0	1565
582.2	1565
582.4	1568
582.6	1581
582.8	1583
583.0	1590
583.2	1591
583.4	1592
583.6	1600
583.8	1613
584.0	1618
584.2	1622
584.4	1624
584.6	1621
584.8	1619
585.0	1616
585.2	1612
585.4	1615
585.6	1624
585.8	1627
586.0	1630
586.2	1629
586.4	1634
586.6	1647
586.8	1666
587.0	1671
587.2	1668
587.4	1662
587.6	1658
587.8	1657
588.0	1663
588.2	1660
588.4	1659
588.6	1660
588.8	1659
589.0	1664
589.2	1671
589.4	1685
589.6	1685
589.8	1685
590.0	1682
590.2	1689
590.4	1694
590.6	1706
590.8	1700
591.0	1705
591.2	1703
591.4	1699
591.6	1700
591.8	1703
592.0	1706
592.2	1717
592.4	1710
592.6	1704
592.8	1703
593.0	1706
593.2	1717
593.4	1728
593.6	1729
593.8	1734
594.0	1737
594.2	1734
594.4	1730
594.6	1730
594.8	1729
595.0	1731
595.2	1740
595.4	1738
595.6	1728
595.8	1726
596.0	1728
596.2	1732
596.4	1740
596.6	1737
596.8	1732
597.0	1730
597.2	1738
597.4	1742
597.6	1744
597.8	1736
598.0	1729
598.2	1723
598.4	1731
598.6	1729
598.8	1744
599.0	1747
599.2	1745
599.4	1746
599.6	1749
599.8	1740
600.0	1744
600.2	1735
600.4	1734
600.6	1736
600.8	1742
601.0	1743
601.2	1753
601.4	1746
601.6	1741
601.8	1732
602.0	1733
602.2	1722
602.4	1718
602.6	1708
602.8	1705
603.0	1709
603.2	1727
603.4	1735
603.6	1737
603.8	1736
604.0	1739
604.2	1731
604.4	1724
604.6	1720
604.8	1712
605.0	1709
605.2	1719
605.4	1725
605.6	1726
605.8	1736
606.0	1738
606.2	1738
606.4	1733
606.6	1724
606.8	1715
607.0	1713
607.2	1710
607.4	1705
607.6	1698
607.8	1700
608.0	1698
608.2	1700
608.4	1695
608.6	1696
608.8	1694
609.0	1689
609.2	1682
609.4	1689
609.6	1693
609.8	1700
610.0	1694
610.2	1681
610.4	1662
610.6	1657
610.8	1659
611.0	1662
611.2	1667
611.4	1673
611.6	1659
611.8	1657
612.0	1651
612.2	1645
612.4	1640
612.6	1646
612.8	1643
613.0	1659
613.2	1656
613.4	1646
613.6	1635
613.8	1638
614.0	1636
614.2	1638
614.4	1633
614.6	1618
614.8	1612
615.0	1607
615.2	1599
615.4	1601
615.6	1606
615.8	1606
616.0	1612
616.2	1617
616.4	1607
616.6	1603
616.8	1595
617.0	1585
617.2	1580
617.4	1587
617.6	1586
617.8	1586
618.0	1574
618.2	1565
618.4	1567
618.6	1565
618.8	1566
619.0	1567
619.2	1553
619.4	1552
619.6	1557
619.8	1556
620.0	1551
620.2	1543
620.4	1540
620.6	1545
620.8	1544
621.0	1551
621.2	1530
621.4	1516
621.6	1506
621.8	1508
622.0	1509
622.2	1515
622.4	1509
622.6	1509
622.8	1499
623.0	1497
623.2	1498
623.4	1493
623.6	1498
623.8	1493
624.0	1479
624.2	1470
624.4	1463
624.6	1462
624.8	1471
625.0	1471
625.2	1463
625.4	1456
625.6	1451
625.8	1459
626.0	1463
626.2	1460
626.4	1447
626.6	1440
626.8	1432
627.0	1426
627.2	1426
627.4	1427
627.6	1419
627.8	1422
628.0	1414
628.2	1399
628.4	1396
628.6	1398
628.8	1393
629.0	1401
629.2	1397
629.4	1398
629.6	1394
629.8	1382
630.0	1373
630.2	1364
630.4	1357
630.6	1361
630.8	1372
631.0	1370
631.2	1367
631.4	1356
631.6	1350
631.8	1339
632.0	1336
632.2	1326
632.4	1319
632.6	1321
632.8	1320
633.0	1317
633.2	1314
633.4	1308
633.6	1307
633.8	1303
634.0	1296
634.2	1294
634.4	1294
634.6	1296
634.8	1296
635.0	1283
635.2	1271
635.4	1258
635.6	1247
635.8	1248
636.0	1252
636.2	1247
636.4	1240
636.6	1232
636.8	1224
637.0	1219
637.2	1223
637.4	1221
637.6	1221
637.8	1225
638.0	1223
638.2	1217
638.4	1213
638.6	1207
638.8	1204
639.0	1202
639.2	1195
639.4	1185
639.6	1181
639.8	1182
640.0	1178
640.2	1174
640.4	1169
640.6	1156
640.8	1150
641.0	1149
641.2	1144
641.4	1145
641.6	1141
641.8	1132
642.0	1130
642.2	1124
642.4	1118
642.6	1118
642.8	1112
643.0	1112
643.2	1112
643.4	1104
643.6	1095
643.8	1084
644.0	1073
644.2	1071
644.4	1074
644.6	1076
644.8	1073
645.0	1067
645.2	1058
645.4	1046
645.6	1041
645.8	1035
646.0	1034
646.2	1036
646.4	1040
646.6	1038
646.8	1035
647.0	1024
647.2	1019
647.4	1013
647.6	1012
647.8	1010
648.0	1007
648.2	1001
648.4	994.0
648.6	985.0
648.8	973.9
649.0	964.2
649.2	959.0
649.4	953.7
649.6	948.8
649.8	948.2
650.0	948.9
650.2	955.3
650.4	952.9
650.6	940.4
650.8	932.9
651.0	931.5
651.2	928.8
651.4	922.7
651.6	917.7
651.8	908.9
652.0	910.6
652.2	913.7
652.4	910.8
652.6	908.9
652.8	910.7
653.0	905.5
653.2	894.3
653.4	887.6
653.6	877.9
653.8	874.7
654.0	872.2
654.2	865.5
654.4	859.8
654.6	858.6
654.8	855.9
655.0	860.7
655.2	857.4
655.4	853.9
655.6	851.4
655.8	848.5
656.0	841.5
656.2	840.9
656.4	831.3
656.6	823.0
656.8	815.7
657.0	817.7
657.2	814.6
657.4	813.5
657.6	813.4
657.8	804.3
658.0	793.2
658.2	790.6
658.4	787.0
658.6	787.0
658.8	789.5
659.0	782.2
659.2	772.4
659.4	765.1
659.6	760.4
659.8	758.8
660.0	760.7
660.2	755.4
660.4	748.6
660.6	739.5
660.8	740.0
661.0	735.1
661.2	735.9
661.4	728.9
661.6	718.2
661.8	713.0
662.0	719.5
662.2	722.4
662.4	726.1
662.6	720.3
662.8	709.1
663.0	700.1
663.2	695.2
663.4	691.3
663.6	683.6
663.8	676.1
664.0	671.2
664.2	671.0
664.4	678.6
664.6	680.7
664.8	678.4
665.0	669.4
665.2	662.8
665.4	656.2
665.6	657.6
665.8	649.3
666.0	648.0
666.2	645.7
666.4	652.3
666.6	654.0
666.8	652.6
667.0	639.3
667.2	629.6
667.4	623.6
667.6	625.3
667.8	627.6
668.0	626.6
668.2	620.0
668.4	615.9
668.6	611.7
668.8	609.0
669.0	601.8
669.2	595.7
669.4	589.5
669.6	589.7
669.8	591.7
670.0	592.7
670.2	584.3
670.4	585.8
670.6	583.9
670.8	578.7
671.0	572.4
671.2	565.8
671.4	557.4
671.6	558.4
671.8	562.2
672.0	558.3
672.2	548.6
672.4	541.8
672.6	534.9
672.8	534.2
673.0	540.0
673.2	541.4
673.4	540.0
673.6	539.2
673.8	535.8
674.0	531.7
674.2	530.3
674.4	526.6
674.6	519.0
674.8	515.2
675.0	509.2
675.2	507.2
675.4	508.8
675.6	507.2
675.8	506.6
676.0	505.9
676.2	494.9
676.4	496.1
676.6	493.0
676.8	491.1
677.0	491.8
677.2	490.9
677.4	481.4
677.6	481.3
677.8	475.1
678.0	471.8
678.2	466.1
678.4	460.3
678.6	454.6
678.8	452.3
679.0	445.1
679.2	448.0
679.4	446.8
679.6	443.8
679.8	444.6
680.0	441.5
680.2	438.9
680.4	438.7
680.6	434.9
680.8	432.0
681.0	430.4
681.2	428.8
681.4	431.4
681.6	430.0
681.8	431.6
682.0	425.5
682.2	417.7
682.4	414.4
682.6	411.3
682.8	409.1
683.0	409.7
683.2	405.3
683.4	398.2
683.6	399.8
683.8	401.3
684.0	399.1
684.2	396.2
684.4	391.3
684.6	384.4
684.8	382.2
685.0	380.6
685.2	378.3
685.4	374.4
685.6	372.1
685.8	373.6
686.0	374.1
686.2	371.8
686.4	372.0
686.6	362.7
686.8	358.8
687.0	359.3
687.2	361.0
687.4	361.8
687.6	363.4
687.8	355.9
688.0	349.8
688.2	346.6
688.4	345.7
688.6	346.5
688.8	345.9
689.0	342.9
689.2	342.6
689.4	337.9
689.6	335.1
689.8	332.1
690.0	328.3
690.2	330.2
690.4	333.4
690.6	330.5
690.8	326.0
691.0	325.1
691.2	325.7
691.4	329.5
691.6	328.3
691.8	325.4
692.0	320.0
692.2	318.0
692.4	315.8
692.6	318.8
692.8	319.5
693.0	316.1
693.2	313.4
693.4	308.0
693.6	302.6
693.8	300.4
694.0	301.9
694.2	298.9
694.4	295.7
694.6	296.2
694.8	295.5
695.0	288.8
695.2	287.9
695.4	282.9
695.6	280.8
695.8	284.3
696.0	285.3
696.2	283.2
696.4	281.8
696.6	282.6
696.8	285.7
697.0	286.6
697.2	282.2
697.4	276.2
697.6	266.8
697.8	267.1
698.0	270.5
698.2	272.5
698.4	273.6
698.6	274.0
698.8	265.5
699.0	262.6
699.2	260.3
699.4	259.4
699.6	260.3
699.8	262.6
700.0	261.4
700.2	255.8
700.4	256.2
700.6	256.7
700.8	255.0
701.0	254.4
701.2	255.4
701.4	248.9
701.6	250.1
701.8	246.7
702.0	241.6
702.2	239.1
702.4	237.4
702.6	235.1
702.8	237.8
703.0	240.2
703.2	241.5
703.4	240.4
703.6	235.9
703.8	226.7
704.0	225.0
704.2	228.5
704.4	232.3
704.6	232.0
704.8	230.3
705.0	223.8
705.2	222.5
705.4	226.1
705.6	226.2
705.8	221.4
706.0	219.3
706.2	216.6
706.4	214.2
706.6	217.1
706.8	217.8
707.0	214.0
707.2	213.0
707.4	212.8
707.6	207.4
707.8	206.8
708.0	206.4
708.2	207.4
708.4	206.2
708.6	207.7
708.8	205.5
709.0	207.6
709.2	206.0
709.4	207.4
709.6	201.2
709.8	196.1
710.0	191.4
710.2	189.1
710.4	186.6
710.6	188.2
710.8	188.0
711.0	185.6
711.2	185.0
711.4	184.4
711.6	183.3
711.8	184.9
712.0	186.7
712.2	186.6
712.4	189.0
712.6	185.9
712.8	181.3
713.0	173.0
713.2	172.4
713.4	175.9
713.6	180.2
713.8	179.4
714.0	177.9
714.2	173.7
714.4	175.1
714.6	174.5
714.8	174.3
715.0	169.4
715.2	162.8
715.4	162.4
715.6	165.2
715.8	167.2
716.0	168.1
716.2	166.1
716.4	160.1
716.6	158.4
716.8	160.2
717.0	161.8
717.2	161.1
717.4	161.7
717.6	158.9
717.8	156.7
718.0	153.1
718.2	152.1
718.4	152.6
718.6	153.4
718.8	151.8
719.0	147.2
719.2	145.4
719.4	147.8
719.6	150.3
719.8	150.4
720.0	147.3
720.2	140.7
720.4	141.7
720.6	144.4
720.8	144.9
721.0	144.7
721.2	144.0
721.4	141.8
721.6	139.6
721.8	136.9
722.0	133.8
722.2	130.6
722.4	132.4
722.6	133.0
722.8	131.3
723.0	131.2
723.2	130.9
723.4	127.6
723.6	128.5
723.8	127.9
724.0	127.6
724.2	127.8
724.4	127.0
724.6	124.8
724.8	121.9
725.0	120.6
725.2	119.5
725.4	119.3
725.6	119.4
725.8	120.7
726.0	121.4
726.2	121.2
726.4	120.9
726.6	122.3
726.8	122.8
727.0	120.6
727.2	119.0
727.4	116.2
727.6	115.0
727.8	114.6
728.0	115.4
728.2	113.7
728.4	110.9
728.6	109.4
728.8	106.1
729.0	104.2
729.2	104.5
729.4	104.8
729.6	103.7
729.8	104.8
730.0	105.4
730.2	105.5
730.4	103.8
730.6	102.7
730.8	101.2
731.0	100.6
731.2	102.0
731.4	102.6
731.6	101.1
731.8	102.1
732.0	102.5
732.2	99.37
732.4	97.81
732.6	97.33
732.8	96.92
733.0	96.86
733.2	97.00
733.4	93.28
733.6	91.92
733.8	92.16
734.0	93.37
734.2	93.66
734.4	94.77
734.6	92.55
734.8	89.48
735.0	88.94
735.2	87.99
735.4	87.35
735.6	86.80
735.8	87.32
736.0	86.87
736.2	87.40
736.4	88.30
736.6	86.28
736.8	83.75
737.0	83.04
737.2	82.24
737.4	80.28
737.6	80.05
737.8	78.83
738.0	80.25
738.2	80.77
738.4	79.88
738.6	78.18
738.8	76.41
739.0	75.89
739.2	77.49
739.4	77.28
739.6	74.98
739.8	73.95
740.0	72.85
740.2	73.30
740.4	75.36
740.6	75.41
740.8	73.60
741.0	73.90
741.2	73.20
741.4	73.97
741.6	74.92
741.8	74.09
742.0	70.11
742.2	67.72
742.4	66.18
742.6	65.80
742.8	67.40
743.0	68.94
743.2	68.94
743.4	69.35
743.6	69.22
743.8	68.55
744.0	68.46
744.2	67.84
744.4	66.61
744.6	65.79
744.8	63.52
745.0	61.68
745.2	60.67
745.4	60.58
745.6	61.06
745.8	63.40
746.0	63.99
746.2	65.74
746.4	65.65
746.6	63.70
746.8	61.97
747.0	59.70
747.2	58.72
747.4	58.90
747.6	58.68
747.8	58.85
748.0	58.52
748.2	57.52
748.4	57.26
748.6	56.11
748.8	55.97
749.0	58.51
749.2	57.16
749.4	57.06
749.6	54.86
749.8	52.39
750.0	50.77
750.2	51.94
750.4	51.08
750.6	52.15
750.8	53.14
751.0	52.50
751.2	53.60
751.4	53.71
751.6	52.35
751.8	51.23
752.0	51.62
752.2	51.40
752.4	51.69
752.6	51.46
752.8	51.25
753.0	50.97
753.2	49.66
753.4	48.77
753.6	47.06
753.8	45.98
754.0	47.93
754.2	49.36
754.4	49.20
754.6	49.70
754.8	48.61
755.0	47.32
755.2	47.29
755.4	46.15
755.6	45.84
755.8	45.45
756.0	44.80
756.2	44.79
756.4	43.60
756.6	41.30
756.8	42.51
757.0	43.37
757.2	44.31
757.4	43.95
757.6	43.09
757.8	41.76
758.0	43.62
758.2	43.81
758.4	42.19
758.6	38.71
758.8	37.34
759.0	37.90
759.2	40.41
759.4	40.72
759.6	40.48
759.8	39.09
760.0	38.54
760.2	38.72
760.4	39.36
760.6	39.73
760.8	40.08
761.0	39.89
761.2	39.52
761.4	39.06
761.6	38.33
761.8	37.80
762.0	36.71
762.2	35.73
762.4	35.62
762.6	37.21
762.8	36.15
763.0	36.20
763.2	36.07
763.4	36.47
763.6	36.44
763.8	36.96
764.0	34.79
764.2	34.87
764.4	34.36
764.6	34.45
764.8	34.27
765.0	33.78
765.2	34.32
765.4	34.13
765.6	34.02
765.8	33.45
766.0	33.08
766.2	32.77
766.4	33.19
766.6	33.69
766.8	33.97
767.0	32.42
767.2	30.52
767.4	29.46
767.6	29.47
767.8	32.13
768.0	33.10
768.2	31.82
768.4	32.01
768.6	30.55
768.8	30.17
769.0	31.46
769.2	30.62
769.4	30.77
769.6	31.46
769.8	29.49
770.0	29.08
770.2	28.75
770.4	27.70
770.6	29.05
770.8	30.24
771.0	30.25
771.2	30.38
771.4	29.18
771.6	28.25
771.8	28.05
772.0	28.18
772.2	27.62
772.4	27.33
772.6	26.40
772.8	25.97
773.0	26.53
773.2	26.76
773.4	26.74
773.6	26.58
773.8	25.11
774.0	24.85
774.2	25.35
774.4	25.79
774.6	26.28
774.8	26.20
775.0	25.91
775.2	25.88
775.4	25.72
775.6	25.17
775.8	24.80
776.0	24.50
776.2	24.66
776.4	24.63
776.6	25.32
776.8	24.90
777.0	24.82
777.2	24.13
777.4	22.99
777.6	23.29
777.8	24.37
778.0	24.48
778.2	26.00
778.4	26.10
778.6	24.47
778.8	23.37
779.0	23.12
779.2	22.78
779.4	23.42
779.6	23.15
779.8	21.98
780.0	20.99
780.2	21.39
780.4	21.38
780.6	22.18
780.8	22.59
781.0	21.86
781.2	21.73
781.4	21.02
781.6	21.27
781.8	22.78
782.0	23.08
782.2	22.35
782.4	21.32
782.6	19.42
782.8	19.75
783.0	21.30
783.2	21.41
783.4	22.01
783.6	22.20
783.8	21.74
784.0	20.97
784.2	20.58
784.4	19.70
784.6	19.42
784.8	19.84
785.0	20.08
785.2	19.75
785.4	19.37
785.6	18.53
785.8	18.16
786.0	19.29
786.2	19.54
786.4	20.49
786.6	19.91
786.8	19.86
787.0	19.39
787.2	20.60
787.4	20.47
787.6	21.13
787.8	19.91
788.0	19.08
788.2	18.34
788.4	19.44
788.6	19.32
788.8	20.25
789.0	20.07
789.2	19.38
789.4	19.15
789.6	19.65
789.8	19.29
790.0	19.91
790.2	19.51
790.4	20.26
790.6	19.71
790.8	19.64
791.0	19.39
791.2	18.23
791.4	17.32
791.6	18.80
791.8	19.30
792.0	19.68
792.2	18.71
792.4	17.26
792.6	16.40
792.8	16.98
793.0	17.17
793.2	17.00
793.4	17.53
793.6	18.28
793.8	18.52
794.0	18.56
794.2	17.50
794.4	16.77
794.6	17.45
794.8	18.07
795.0	17.46
795.2	17.35
795.4	17.55
795.6	17.79
795.8	18.18
796.0	18.32
796.2	16.44
796.4	15.23
796.6	15.29
796.8	15.73
797.0	16.56
797.2	17.72
797.4	18.00
797.6	17.52
797.8	16.90
798.0	16.28
798.2	15.12
798.4	14.39
798.6	14.67
798.8	15.57
799.0	16.99
799.2	17.55
799.4	17.06
799.6	15.65
799.8	14.92
800.0	15.89

