Sample:	'20211010A(EM)
File name:	B-CDs 10.FDS
Run date:	'16:28:46, 06/08/2023
Operator:	Administrator
Comment:	'

Instrument
Model:	F-4700 FL Spectrophotometer
Serial number:	2019-001
ROM Version:	5J24010 00

Instrument parameters
Measurement type:	Wavelength scan
Scan mode:	Emission
Data mode:	Fluorescence
EX WL:	350.0 nm
EM  Start WL:	370.0 nm
EM  End WL:	680.0 nm
Scan speed:	1200 nm/min
Delay:	0.0 s
EX Slit:	10.0 nm
EM Slit:	10.0 nm
PMT Voltage:	420 V
Response:	0.002 s
Corrected spectra:	Off
Shutter control:	On

Processing performed
Savitsky-Golay smoothed
Smoothing order:	3
Number of points:	7
Number of times:	1

Peak integration
Integration method:	Rectangular
Sensitivity:	1
Threshold:	1.000

Peaks
No.	Start(nm)	Apex(nm)	End(nm)	Height(Data)	Valley(nm)	Valley(Data)
1	370.0	467.0	468.2	1235	468.2	1227
2	468.2	469.0	680.0	1233	680.0	6.529

Data points
nm	Data
370.0	1.515
370.2	1.705
370.4	1.681
370.6	1.555
370.8	1.498
371.0	1.464
371.2	1.667
371.4	1.770
371.6	1.773
371.8	1.781
372.0	1.714
372.2	1.665
372.4	1.722
372.6	1.753
372.8	1.751
373.0	1.736
373.2	1.635
373.4	1.578
373.6	1.501
373.8	1.518
374.0	1.577
374.2	1.707
374.4	1.747
374.6	1.803
374.8	1.839
375.0	1.812
375.2	1.760
375.4	1.835
375.6	1.802
375.8	1.861
376.0	1.884
376.2	1.864
376.4	1.861
376.6	1.829
376.8	1.772
377.0	1.804
377.2	1.806
377.4	1.805
377.6	1.916
377.8	1.980
378.0	1.936
378.2	2.014
378.4	1.998
378.6	1.894
378.8	1.881
379.0	1.957
379.2	1.904
379.4	1.993
379.6	2.111
379.8	2.076
380.0	2.146
380.2	2.105
380.4	2.044
380.6	1.997
380.8	2.058
381.0	2.030
381.2	2.168
381.4	2.132
381.6	2.260
381.8	2.356
382.0	2.327
382.2	2.220
382.4	2.172
382.6	2.169
382.8	2.257
383.0	2.442
383.2	2.412
383.4	2.357
383.6	2.389
383.8	2.450
384.0	2.500
384.2	2.547
384.4	2.509
384.6	2.530
384.8	2.617
385.0	2.650
385.2	2.733
385.4	2.684
385.6	2.719
385.8	2.769
386.0	2.810
386.2	2.900
386.4	3.029
386.6	2.968
386.8	3.089
387.0	3.233
387.2	3.295
387.4	3.371
387.6	3.375
387.8	3.189
388.0	3.369
388.2	3.675
388.4	3.848
388.6	3.903
388.8	3.900
389.0	3.812
389.2	3.903
389.4	4.099
389.6	4.228
389.8	4.296
390.0	4.407
390.2	4.413
390.4	4.405
390.6	4.586
390.8	4.842
391.0	4.948
391.2	5.140
391.4	5.142
391.6	5.097
391.8	5.300
392.0	5.526
392.2	5.560
392.4	5.706
392.6	5.930
392.8	6.201
393.0	6.546
393.2	6.777
393.4	7.137
393.6	7.336
393.8	7.570
394.0	7.855
394.2	7.859
394.4	8.044
394.6	8.519
394.8	8.783
395.0	9.010
395.2	9.362
395.4	9.744
395.6	10.02
395.8	10.43
396.0	10.72
396.2	10.89
396.4	11.06
396.6	11.47
396.8	11.75
397.0	12.41
397.2	12.87
397.4	13.34
397.6	13.79
397.8	14.11
398.0	14.67
398.2	15.44
398.4	15.87
398.6	16.49
398.8	17.21
399.0	17.81
399.2	18.40
399.4	19.51
399.6	20.43
399.8	21.37
400.0	22.24
400.2	22.92
400.4	23.35
400.6	24.24
400.8	25.09
401.0	26.25
401.2	27.23
401.4	28.08
401.6	29.22
401.8	29.97
402.0	30.94
402.2	32.34
402.4	33.39
402.6	34.40
402.8	35.40
403.0	36.14
403.2	37.52
403.4	39.47
403.6	41.42
403.8	43.34
404.0	44.93
404.2	46.05
404.4	47.77
404.6	49.38
404.8	50.45
405.0	52.25
405.2	54.31
405.4	56.55
405.6	58.94
405.8	61.26
406.0	62.62
406.2	64.67
406.4	66.52
406.6	68.98
406.8	70.65
407.0	73.20
407.2	76.09
407.4	78.91
407.6	81.50
407.8	83.98
408.0	86.17
408.2	88.56
408.4	91.42
408.6	93.81
408.8	96.15
409.0	98.84
409.2	102.6
409.4	106.6
409.6	110.8
409.8	114.5
410.0	117.4
410.2	119.9
410.4	123.5
410.6	128.0
410.8	132.4
411.0	136.0
411.2	139.3
411.4	142.5
411.6	146.2
411.8	150.8
412.0	154.9
412.2	158.9
412.4	162.8
412.6	167.4
412.8	171.5
413.0	176.0
413.2	180.0
413.4	184.5
413.6	187.6
413.8	191.8
414.0	195.4
414.2	200.1
414.4	205.7
414.6	211.9
414.8	217.1
415.0	222.8
415.2	227.2
415.4	232.4
415.6	237.8
415.8	243.4
416.0	248.9
416.2	254.8
416.4	260.8
416.6	266.1
416.8	271.0
417.0	276.6
417.2	280.7
417.4	284.9
417.6	290.4
417.8	297.0
418.0	304.2
418.2	312.0
418.4	317.7
418.6	323.0
418.8	328.0
419.0	334.6
419.2	341.6
419.4	348.4
419.6	355.4
419.8	361.6
420.0	367.4
420.2	374.1
420.4	380.1
420.6	386.4
420.8	393.5
421.0	400.2
421.2	407.0
421.4	413.5
421.6	419.0
421.8	423.7
422.0	428.9
422.2	435.6
422.4	443.2
422.6	451.7
422.8	460.9
423.0	466.6
423.2	470.2
423.4	476.2
423.6	482.5
423.8	489.7
424.0	498.5
424.2	504.1
424.4	509.5
424.6	517.3
424.8	524.1
425.0	530.0
425.2	537.1
425.4	541.4
425.6	548.9
425.8	556.3
426.0	564.8
426.2	571.3
426.4	578.2
426.6	584.3
426.8	590.9
427.0	595.7
427.2	603.8
427.4	610.8
427.6	617.7
427.8	624.8
428.0	629.6
428.2	634.1
428.4	640.6
428.6	646.5
428.8	652.7
429.0	660.0
429.2	666.2
429.4	673.6
429.6	680.0
429.8	686.8
430.0	693.3
430.2	698.9
430.4	704.9
430.6	710.6
430.8	714.3
431.0	719.8
431.2	727.6
431.4	735.7
431.6	744.9
431.8	751.9
432.0	757.6
432.2	761.4
432.4	766.4
432.6	771.0
432.8	774.9
433.0	778.9
433.2	786.5
433.4	793.9
433.6	801.8
433.8	806.6
434.0	809.6
434.2	811.6
434.4	816.5
434.6	822.4
434.8	829.4
435.0	834.0
435.2	838.3
435.4	844.8
435.6	851.1
435.8	858.1
436.0	862.0
436.2	866.9
436.4	872.1
436.6	878.4
436.8	882.1
437.0	885.5
437.2	887.7
437.4	891.8
437.6	899.6
437.8	903.8
438.0	908.1
438.2	912.3
438.4	915.8
438.6	919.6
438.8	926.5
439.0	930.9
439.2	935.4
439.4	938.7
439.6	941.6
439.8	947.6
440.0	952.4
440.2	957.0
440.4	961.2
440.6	963.4
440.8	966.8
441.0	972.3
441.2	974.9
441.4	976.7
441.6	981.6
441.8	984.2
442.0	989.0
442.2	993.4
442.4	996.8
442.6	998.3
442.8	1002
443.0	1005
443.2	1007
443.4	1010
443.6	1013
443.8	1016
444.0	1021
444.2	1027
444.4	1031
444.6	1034
444.8	1036
445.0	1039
445.2	1041
445.4	1044
445.6	1047
445.8	1050
446.0	1053
446.2	1057
446.4	1058
446.6	1062
446.8	1063
447.0	1065
447.2	1067
447.4	1071
447.6	1074
447.8	1079
448.0	1081
448.2	1084
448.4	1087
448.6	1090
448.8	1092
449.0	1096
449.2	1098
449.4	1100
449.6	1101
449.8	1101
450.0	1106
450.2	1109
450.4	1115
450.6	1117
450.8	1119
451.0	1120
451.2	1124
451.4	1127
451.6	1129
451.8	1130
452.0	1133
452.2	1134
452.4	1135
452.6	1135
452.8	1133
453.0	1136
453.2	1142
453.4	1146
453.6	1151
453.8	1152
454.0	1151
454.2	1152
454.4	1154
454.6	1158
454.8	1163
455.0	1165
455.2	1167
455.4	1167
455.6	1166
455.8	1171
456.0	1171
456.2	1173
456.4	1177
456.6	1177
456.8	1179
457.0	1180
457.2	1183
457.4	1187
457.6	1190
457.8	1190
458.0	1188
458.2	1189
458.4	1191
458.6	1196
458.8	1199
459.0	1200
459.2	1197
459.4	1196
459.6	1197
459.8	1199
460.0	1202
460.2	1204
460.4	1202
460.6	1207
460.8	1211
461.0	1215
461.2	1218
461.4	1218
461.6	1217
461.8	1218
462.0	1218
462.2	1220
462.4	1220
462.6	1220
462.8	1221
463.0	1221
463.2	1222
463.4	1223
463.6	1222
463.8	1223
464.0	1223
464.2	1223
464.4	1225
464.6	1224
464.8	1225
465.0	1225
465.2	1226
465.4	1225
465.6	1226
465.8	1227
466.0	1228
466.2	1227
466.4	1229
466.6	1229
466.8	1233
467.0	1235
467.2	1235
467.4	1233
467.6	1231
467.8	1230
468.0	1229
468.2	1227
468.4	1228
468.6	1228
468.8	1231
469.0	1233
469.2	1232
469.4	1229
469.6	1229
469.8	1229
470.0	1230
470.2	1231
470.4	1227
470.6	1226
470.8	1229
471.0	1229
471.2	1228
471.4	1229
471.6	1227
471.8	1226
472.0	1229
472.2	1227
472.4	1227
472.6	1225
472.8	1224
473.0	1222
473.2	1222
473.4	1221
473.6	1221
473.8	1220
474.0	1219
474.2	1216
474.4	1216
474.6	1216
474.8	1217
475.0	1217
475.2	1217
475.4	1213
475.6	1213
475.8	1213
476.0	1212
476.2	1212
476.4	1211
476.6	1207
476.8	1208
477.0	1208
477.2	1206
477.4	1203
477.6	1201
477.8	1201
478.0	1201
478.2	1200
478.4	1198
478.6	1194
478.8	1193
479.0	1195
479.2	1196
479.4	1196
479.6	1195
479.8	1190
480.0	1186
480.2	1186
480.4	1188
480.6	1190
480.8	1190
481.0	1187
481.2	1181
481.4	1179
481.6	1177
481.8	1175
482.0	1174
482.2	1174
482.4	1175
482.6	1174
482.8	1174
483.0	1170
483.2	1167
483.4	1164
483.6	1162
483.8	1157
484.0	1155
484.2	1155
484.4	1155
484.6	1154
484.8	1151
485.0	1147
485.2	1146
485.4	1148
485.6	1147
485.8	1144
486.0	1141
486.2	1138
486.4	1138
486.6	1136
486.8	1134
487.0	1132
487.2	1133
487.4	1133
487.6	1129
487.8	1124
488.0	1121
488.2	1118
488.4	1117
488.6	1115
488.8	1112
489.0	1109
489.2	1107
489.4	1105
489.6	1102
489.8	1098
490.0	1096
490.2	1092
490.4	1088
490.6	1086
490.8	1084
491.0	1084
491.2	1084
491.4	1081
491.6	1079
491.8	1075
492.0	1074
492.2	1071
492.4	1068
492.6	1065
492.8	1062
493.0	1057
493.2	1056
493.4	1055
493.6	1053
493.8	1049
494.0	1044
494.2	1038
494.4	1037
494.6	1037
494.8	1036
495.0	1033
495.2	1028
495.4	1024
495.6	1021
495.8	1016
496.0	1014
496.2	1010
496.4	1007
496.6	1006
496.8	1004
497.0	1001
497.2	1000
497.4	997.4
497.6	994.0
497.8	990.7
498.0	988.4
498.2	982.5
498.4	981.0
498.6	976.5
498.8	972.9
499.0	969.2
499.2	970.1
499.4	968.7
499.6	967.1
499.8	960.6
500.0	955.4
500.2	950.2
500.4	948.3
500.6	947.1
500.8	943.5
501.0	939.0
501.2	933.9
501.4	932.5
501.6	930.7
501.8	927.9
502.0	923.4
502.2	921.6
502.4	918.6
502.6	917.9
502.8	914.5
503.0	908.9
503.2	903.8
503.4	902.1
503.6	899.0
503.8	897.6
504.0	895.8
504.2	891.4
504.4	886.8
504.6	881.9
504.8	877.0
505.0	876.6
505.2	874.0
505.4	871.5
505.6	867.6
505.8	861.9
506.0	858.3
506.2	855.0
506.4	851.9
506.6	849.4
506.8	846.5
507.0	841.9
507.2	839.2
507.4	835.8
507.6	834.1
507.8	831.2
508.0	829.5
508.2	823.2
508.4	819.8
508.6	816.4
508.8	812.2
509.0	810.7
509.2	810.2
509.4	805.0
509.6	800.9
509.8	797.5
510.0	793.6
510.2	791.7
510.4	790.2
510.6	785.6
510.8	781.3
511.0	778.6
511.2	776.4
511.4	773.9
511.6	772.3
511.8	769.3
512.0	766.0
512.2	761.7
512.4	756.7
512.6	751.3
512.8	749.1
513.0	746.9
513.2	745.7
513.4	743.2
513.6	740.3
513.8	736.6
514.0	734.0
514.2	730.6
514.4	727.7
514.6	723.7
514.8	720.3
515.0	715.7
515.2	712.4
515.4	709.0
515.6	705.1
515.8	702.9
516.0	701.4
516.2	699.1
516.4	695.9
516.6	692.6
516.8	689.8
517.0	687.2
517.2	685.4
517.4	682.6
517.6	680.6
517.8	677.3
518.0	673.1
518.2	669.5
518.4	667.2
518.6	662.6
518.8	659.6
519.0	655.6
519.2	652.1
519.4	651.3
519.6	650.4
519.8	648.2
520.0	644.0
520.2	641.6
520.4	638.7
520.6	635.5
520.8	631.7
521.0	629.4
521.2	626.4
521.4	624.5
521.6	622.4
521.8	619.0
522.0	617.0
522.2	615.2
522.4	613.2
522.6	610.1
522.8	604.9
523.0	600.7
523.2	598.4
523.4	596.9
523.6	593.4
523.8	590.6
524.0	586.0
524.2	585.6
524.4	584.6
524.6	582.2
524.8	577.3
525.0	575.8
525.2	573.2
525.4	572.8
525.6	568.9
525.8	564.8
526.0	561.3
526.2	559.9
526.4	557.6
526.6	556.1
526.8	553.1
527.0	550.6
527.2	548.2
527.4	546.1
527.6	543.6
527.8	540.9
528.0	538.3
528.2	534.6
528.4	530.2
528.6	528.6
528.8	527.8
529.0	526.0
529.2	523.8
529.4	521.3
529.6	516.5
529.8	514.6
530.0	514.8
530.2	513.0
530.4	510.9
530.6	508.8
530.8	504.3
531.0	501.4
531.2	499.9
531.4	497.5
531.6	494.1
531.8	491.4
532.0	488.7
532.2	487.5
532.4	486.7
532.6	484.8
532.8	482.4
533.0	478.8
533.2	477.6
533.4	475.2
533.6	473.9
533.8	471.5
534.0	468.3
534.2	465.9
534.4	465.9
534.6	464.2
534.8	464.1
535.0	462.1
535.2	457.6
535.4	454.9
535.6	452.1
535.8	449.5
536.0	447.2
536.2	444.9
536.4	442.4
536.6	440.2
536.8	439.2
537.0	438.4
537.2	437.2
537.4	433.9
537.6	429.5
537.8	426.1
538.0	424.6
538.2	424.8
538.4	422.5
538.6	420.7
538.8	416.9
539.0	415.2
539.2	412.9
539.4	411.1
539.6	407.8
539.8	407.3
540.0	405.0
540.2	403.4
540.4	400.1
540.6	398.1
540.8	397.9
541.0	396.6
541.2	394.8
541.4	391.9
541.6	388.0
541.8	386.6
542.0	386.7
542.2	384.5
542.4	382.4
542.6	380.1
542.8	377.6
543.0	376.5
543.2	375.3
543.4	373.3
543.6	372.8
543.8	371.0
544.0	369.0
544.2	366.2
544.4	363.6
544.6	361.7
544.8	361.4
545.0	358.2
545.2	355.4
545.4	353.6
545.6	351.8
545.8	351.4
546.0	351.6
546.2	348.8
546.4	346.1
546.6	345.0
546.8	341.9
547.0	339.9
547.2	338.7
547.4	336.7
547.6	335.3
547.8	334.7
548.0	332.5
548.2	330.3
548.4	328.4
548.6	326.6
548.8	325.1
549.0	323.2
549.2	322.1
549.4	320.6
549.6	318.6
549.8	316.0
550.0	313.2
550.2	311.4
550.4	310.5
550.6	309.2
550.8	307.4
551.0	305.7
551.2	303.0
551.4	301.2
551.6	299.3
551.8	297.7
552.0	296.7
552.2	296.9
552.4	295.8
552.6	294.1
552.8	291.8
553.0	289.1
553.2	287.2
553.4	286.0
553.6	285.7
553.8	285.8
554.0	284.4
554.2	282.9
554.4	280.2
554.6	276.8
554.8	274.7
555.0	273.0
555.2	270.6
555.4	270.2
555.6	268.9
555.8	268.0
556.0	267.7
556.2	267.1
556.4	264.7
556.6	263.3
556.8	261.3
557.0	260.0
557.2	259.0
557.4	257.8
557.6	255.8
557.8	253.5
558.0	251.7
558.2	251.5
558.4	251.0
558.6	250.1
558.8	248.9
559.0	246.7
559.2	244.4
559.4	243.0
559.6	242.4
559.8	240.6
560.0	239.7
560.2	239.0
560.4	238.1
560.6	237.2
560.8	235.8
561.0	233.7
561.2	231.5
561.4	230.3
561.6	229.2
561.8	227.9
562.0	225.8
562.2	224.4
562.4	223.4
562.6	223.3
562.8	222.7
563.0	221.3
563.2	220.4
563.4	219.1
563.6	218.0
563.8	215.9
564.0	214.0
564.2	211.8
564.4	211.6
564.6	210.3
564.8	210.3
565.0	208.7
565.2	207.3
565.4	205.8
565.6	204.5
565.8	201.7
566.0	201.8
566.2	201.0
566.4	200.5
566.6	200.8
566.8	199.7
567.0	197.2
567.2	195.7
567.4	193.6
567.6	192.3
567.8	191.8
568.0	191.0
568.2	190.1
568.4	188.9
568.6	187.8
568.8	186.9
569.0	186.3
569.2	184.9
569.4	184.0
569.6	182.9
569.8	181.9
570.0	181.1
570.2	181.2
570.4	179.9
570.6	179.2
570.8	178.3
571.0	176.8
571.2	175.1
571.4	173.6
571.6	172.4
571.8	171.3
572.0	170.1
572.2	170.5
572.4	170.5
572.6	169.4
572.8	168.4
573.0	166.8
573.2	165.4
573.4	165.9
573.6	165.1
573.8	164.0
574.0	162.9
574.2	162.3
574.4	161.9
574.6	161.3
574.8	159.4
575.0	157.2
575.2	155.6
575.4	154.7
575.6	154.5
575.8	154.3
576.0	153.3
576.2	151.9
576.4	150.6
576.6	150.2
576.8	150.1
577.0	150.0
577.2	148.8
577.4	146.9
577.6	145.4
577.8	145.9
578.0	145.4
578.2	145.1
578.4	143.7
578.6	142.2
578.8	141.9
579.0	142.0
579.2	140.4
579.4	138.8
579.6	137.4
579.8	136.5
580.0	136.5
580.2	136.6
580.4	136.0
580.6	135.1
580.8	134.1
581.0	133.0
581.2	132.9
581.4	132.9
581.6	132.2
581.8	130.7
582.0	129.0
582.2	127.5
582.4	127.5
582.6	128.0
582.8	128.0
583.0	127.3
583.2	126.4
583.4	125.2
583.6	124.0
583.8	122.9
584.0	121.9
584.2	121.1
584.4	120.8
584.6	120.8
584.8	120.0
585.0	118.6
585.2	117.9
585.4	117.1
585.6	116.3
585.8	115.6
586.0	115.7
586.2	115.2
586.4	115.5
586.6	115.3
586.8	115.0
587.0	113.4
587.2	113.4
587.4	112.2
587.6	111.2
587.8	110.5
588.0	109.8
588.2	108.8
588.4	108.4
588.6	107.6
588.8	106.9
589.0	106.4
589.2	105.1
589.4	104.3
589.6	103.4
589.8	103.1
590.0	103.4
590.2	103.4
590.4	103.1
590.6	102.5
590.8	101.7
591.0	100.6
591.2	100.2
591.4	99.06
591.6	98.98
591.8	97.96
592.0	97.69
592.2	97.61
592.4	97.08
592.6	96.29
592.8	96.23
593.0	94.73
593.2	94.53
593.4	94.21
593.6	93.72
593.8	93.36
594.0	92.47
594.2	90.73
594.4	89.47
594.6	89.24
594.8	89.32
595.0	89.35
595.2	88.87
595.4	88.89
595.6	88.50
595.8	88.48
596.0	87.89
596.2	87.41
596.4	86.89
596.6	85.92
596.8	84.93
597.0	84.59
597.2	84.27
597.4	84.42
597.6	83.77
597.8	82.96
598.0	82.07
598.2	81.55
598.4	80.82
598.6	81.09
598.8	80.47
599.0	80.14
599.2	79.64
599.4	77.77
599.6	76.69
599.8	76.71
600.0	76.85
600.2	76.47
600.4	76.48
600.6	75.88
600.8	75.60
601.0	75.24
601.2	75.56
601.4	75.13
601.6	73.71
601.8	73.77
602.0	72.94
602.2	72.71
602.4	72.79
602.6	71.86
602.8	70.80
603.0	71.05
603.2	70.49
603.4	70.33
603.6	70.26
603.8	69.28
604.0	68.95
604.2	68.51
604.4	67.69
604.6	66.64
604.8	66.63
605.0	66.61
605.2	66.37
605.4	65.96
605.6	65.53
605.8	65.39
606.0	65.22
606.2	64.95
606.4	64.53
606.6	63.72
606.8	63.35
607.0	62.53
607.2	61.84
607.4	61.94
607.6	62.11
607.8	62.00
608.0	61.65
608.2	60.13
608.4	59.65
608.6	59.63
608.8	59.07
609.0	59.20
609.2	58.82
609.4	58.72
609.6	58.53
609.8	58.81
610.0	58.21
610.2	58.32
610.4	57.60
610.6	57.34
610.8	55.92
611.0	55.26
611.2	54.59
611.4	54.85
611.6	54.81
611.8	55.12
612.0	54.38
612.2	53.80
612.4	53.21
612.6	52.98
612.8	52.69
613.0	52.70
613.2	52.26
613.4	52.17
613.6	51.72
613.8	51.32
614.0	51.58
614.2	51.39
614.4	51.23
614.6	50.50
614.8	49.59
615.0	48.88
615.2	48.76
615.4	48.56
615.6	48.63
615.8	48.23
616.0	48.36
616.2	48.20
616.4	47.93
616.6	47.76
616.8	46.80
617.0	46.35
617.2	45.86
617.4	45.75
617.6	45.82
617.8	45.67
618.0	44.88
618.2	44.57
618.4	44.06
618.6	44.10
618.8	43.70
619.0	43.64
619.2	43.40
619.4	43.32
619.6	43.04
619.8	42.52
620.0	42.25
620.2	42.25
620.4	42.31
620.6	42.48
620.8	42.00
621.0	41.40
621.2	41.15
621.4	40.36
621.6	40.33
621.8	40.43
622.0	40.48
622.2	40.46
622.4	40.09
622.6	39.22
622.8	38.80
623.0	38.08
623.2	37.84
623.4	37.66
623.6	37.60
623.8	37.71
624.0	37.40
624.2	36.89
624.4	36.98
624.6	36.97
624.8	36.82
625.0	36.89
625.2	36.59
625.4	36.21
625.6	36.18
625.8	35.59
626.0	34.64
626.2	34.13
626.4	34.26
626.6	34.55
626.8	34.58
627.0	34.11
627.2	33.38
627.4	33.26
627.6	32.98
627.8	32.81
628.0	32.79
628.2	32.69
628.4	32.59
628.6	32.75
628.8	32.11
629.0	31.75
629.2	31.65
629.4	31.55
629.6	31.30
629.8	31.51
630.0	31.48
630.2	31.34
630.4	30.74
630.6	30.13
630.8	29.53
631.0	29.65
631.2	29.68
631.4	29.75
631.6	29.51
631.8	29.41
632.0	29.34
632.2	29.14
632.4	28.96
632.6	28.34
632.8	27.85
633.0	27.59
633.2	27.63
633.4	27.74
633.6	27.91
633.8	27.35
634.0	27.21
634.2	27.15
634.4	27.46
634.6	27.39
634.8	26.85
635.0	26.26
635.2	25.75
635.4	25.58
635.6	25.67
635.8	25.61
636.0	25.26
636.2	25.28
636.4	24.96
636.6	24.90
636.8	24.79
637.0	24.79
637.2	24.47
637.4	24.15
637.6	23.79
637.8	23.61
638.0	23.61
638.2	23.80
638.4	23.73
638.6	23.45
638.8	23.27
639.0	22.80
639.2	22.56
639.4	22.49
639.6	22.41
639.8	22.50
640.0	22.65
640.2	22.25
640.4	22.03
640.6	21.89
640.8	21.87
641.0	21.88
641.2	21.78
641.4	21.43
641.6	21.14
641.8	21.26
642.0	21.55
642.2	21.68
642.4	21.43
642.6	21.01
642.8	20.50
643.0	20.43
643.2	20.39
643.4	20.73
643.6	20.48
643.8	20.15
644.0	19.85
644.2	19.65
644.4	19.54
644.6	19.65
644.8	19.57
645.0	19.28
645.2	18.96
645.4	18.83
645.6	18.73
645.8	18.78
646.0	18.97
646.2	18.56
646.4	18.25
646.6	18.10
646.8	17.97
647.0	17.99
647.2	18.01
647.4	17.91
647.6	17.75
647.8	17.61
648.0	17.56
648.2	17.39
648.4	17.16
648.6	17.17
648.8	17.20
649.0	16.99
649.2	16.93
649.4	16.65
649.6	16.60
649.8	16.72
650.0	16.99
650.2	16.68
650.4	16.42
650.6	16.08
650.8	15.74
651.0	15.76
651.2	15.80
651.4	15.62
651.6	15.42
651.8	15.41
652.0	15.14
652.2	15.12
652.4	14.93
652.6	14.64
652.8	14.50
653.0	14.76
653.2	14.85
653.4	14.68
653.6	14.40
653.8	14.41
654.0	14.33
654.2	14.34
654.4	14.21
654.6	14.01
654.8	13.87
655.0	14.23
655.2	14.17
655.4	14.09
655.6	13.80
655.8	13.47
656.0	13.22
656.2	13.30
656.4	13.44
656.6	13.35
656.8	13.03
657.0	12.87
657.2	12.82
657.4	12.81
657.6	12.99
657.8	12.60
658.0	12.42
658.2	12.50
658.4	12.45
658.6	12.17
658.8	12.42
659.0	12.20
659.2	12.39
659.4	12.38
659.6	12.24
659.8	11.91
660.0	12.10
660.2	11.97
660.4	11.75
660.6	11.75
660.8	11.60
661.0	11.45
661.2	11.64
661.4	11.61
661.6	11.31
661.8	11.62
662.0	11.50
662.2	11.33
662.4	11.36
662.6	11.34
662.8	10.98
663.0	10.96
663.2	10.75
663.4	10.66
663.6	10.46
663.8	10.66
664.0	10.45
664.2	10.50
664.4	10.29
664.6	10.25
664.8	9.942
665.0	10.02
665.2	9.872
665.4	9.989
665.6	9.954
665.8	10.19
666.0	10.07
666.2	9.863
666.4	9.774
666.6	9.870
666.8	9.722
667.0	9.680
667.2	9.520
667.4	9.540
