Sample:	'20211010A(EM)
File name:	G-Ni 5 500.FDS
Run date:	'16:04:47, 06/19/2023
Operator:	Administrator
Comment:	'

Instrument
Model:	F-4700 FL Spectrophotometer
Serial number:	2019-001
ROM Version:	5J24010 00

Instrument parameters
Measurement type:	Wavelength scan
Scan mode:	Emission
Data mode:	Fluorescence
EX WL:	400.0 nm
EM  Start WL:	420.0 nm
EM  End WL:	800.0 nm
Scan speed:	1200 nm/min
Delay:	0.0 s
EX Slit:	10.0 nm
EM Slit:	10.0 nm
PMT Voltage:	500 V
Response:	0.002 s
Corrected spectra:	Off
Shutter control:	On

Processing performed
Savitsky-Golay smoothed
Smoothing order:	3
Number of points:	7
Number of times:	1

Peak integration
Integration method:	Rectangular
Sensitivity:	1
Threshold:	1.000

Peaks
No.	Start(nm)	Apex(nm)	End(nm)	Height(Data)	Valley(nm)	Valley(Data)
1	420.0	547.2	548.2	3099	548.2	3084
2	548.2	549.8	552.8	3104	552.8	3070
3	552.8	553.4	778.4	3080	778.4	4.789

Data points
nm	Data
420.0	1.246
420.2	1.487
420.4	1.648
420.6	1.728
420.8	1.750
421.0	1.544
421.2	1.448
421.4	1.439
421.6	1.518
421.8	1.559
422.0	1.716
422.2	1.679
422.4	1.653
422.6	1.593
422.8	1.448
423.0	1.409
423.2	1.465
423.4	1.503
423.6	1.498
423.8	1.601
424.0	1.616
424.2	1.757
424.4	1.784
424.6	1.858
424.8	1.734
425.0	1.583
425.2	1.393
425.4	1.373
425.6	1.516
425.8	1.711
426.0	1.809
426.2	1.721
426.4	1.602
426.6	1.555
426.8	1.523
427.0	1.534
427.2	1.519
427.4	1.474
427.6	1.495
427.8	1.460
428.0	1.573
428.2	1.719
428.4	1.755
428.6	1.787
428.8	1.743
429.0	1.552
429.2	1.544
429.4	1.439
429.6	1.413
429.8	1.400
430.0	1.490
430.2	1.782
430.4	1.937
430.6	1.860
430.8	1.627
431.0	1.342
431.2	1.237
431.4	1.421
431.6	1.498
431.8	1.567
432.0	1.536
432.2	1.580
432.4	1.643
432.6	1.695
432.8	1.766
433.0	1.791
433.2	1.790
433.4	1.719
433.6	1.632
433.8	1.572
434.0	1.723
434.2	1.803
434.4	1.967
434.6	1.921
434.8	1.789
435.0	1.690
435.2	1.616
435.4	1.585
435.6	1.602
435.8	1.572
436.0	1.566
436.2	1.733
436.4	1.712
436.6	1.680
436.8	1.869
437.0	1.851
437.2	1.838
437.4	1.895
437.6	1.745
437.8	1.651
438.0	1.860
438.2	1.860
438.4	1.827
438.6	1.822
438.8	1.840
439.0	1.964
439.2	2.062
439.4	1.933
439.6	1.857
439.8	1.867
440.0	1.761
440.2	1.722
440.4	1.676
440.6	1.667
440.8	1.759
441.0	1.771
441.2	1.675
441.4	1.583
441.6	1.591
441.8	1.712
442.0	1.744
442.2	1.712
442.4	1.856
442.6	1.866
442.8	1.945
443.0	1.941
443.2	1.933
443.4	1.994
443.6	2.082
443.8	2.139
444.0	2.043
444.2	2.044
444.4	1.991
444.6	2.083
444.8	2.170
445.0	2.195
445.2	2.071
445.4	2.039
445.6	1.976
445.8	1.944
446.0	2.107
446.2	2.108
446.4	2.136
446.6	2.106
446.8	2.099
447.0	2.068
447.2	2.089
447.4	2.139
447.6	2.104
447.8	2.147
448.0	2.224
448.2	2.227
448.4	2.185
448.6	2.316
448.8	2.305
449.0	2.283
449.2	2.378
449.4	2.307
449.6	2.251
449.8	2.227
450.0	2.146
450.2	2.026
450.4	2.263
450.6	2.297
450.8	2.247
451.0	2.199
451.2	2.359
451.4	2.645
451.6	2.829
451.8	2.780
452.0	2.693
452.2	2.516
452.4	2.531
452.6	2.573
452.8	2.527
453.0	2.739
453.2	2.835
453.4	2.977
453.6	2.995
453.8	2.836
454.0	2.734
454.2	2.712
454.4	2.590
454.6	2.750
454.8	2.968
455.0	2.974
455.2	3.036
455.4	3.103
455.6	3.054
455.8	2.927
456.0	3.160
456.2	3.167
456.4	3.259
456.6	3.487
456.8	3.402
457.0	3.059
457.2	3.263
457.4	3.246
457.6	3.211
457.8	3.519
458.0	3.664
458.2	3.594
458.4	3.738
458.6	3.748
458.8	3.965
459.0	4.083
459.2	4.357
459.4	4.349
459.6	4.300
459.8	4.238
460.0	4.329
460.2	4.153
460.4	4.420
460.6	4.529
460.8	4.629
461.0	4.744
461.2	4.541
461.4	4.456
461.6	4.671
461.8	4.958
462.0	5.230
462.2	5.515
462.4	5.462
462.6	5.759
462.8	5.765
463.0	5.822
463.2	5.762
463.4	5.564
463.6	5.432
463.8	5.399
464.0	5.330
464.2	5.457
464.4	5.705
464.6	6.176
464.8	6.518
465.0	6.731
465.2	6.931
465.4	6.948
465.6	6.855
465.8	6.965
466.0	6.834
466.2	6.988
466.4	7.092
466.6	7.404
466.8	7.882
467.0	8.345
467.2	8.648
467.4	8.943
467.6	9.030
467.8	9.196
468.0	9.284
468.2	9.245
468.4	9.261
468.6	9.304
468.8	9.749
469.0	10.18
469.2	10.48
469.4	10.65
469.6	10.71
469.8	10.62
470.0	11.19
470.2	11.79
470.4	12.46
470.6	13.07
470.8	13.50
471.0	13.76
471.2	14.17
471.4	14.87
471.6	14.94
471.8	15.46
472.0	15.69
472.2	16.04
472.4	16.10
472.6	17.02
472.8	17.55
473.0	17.83
473.2	18.08
473.4	18.33
473.6	18.33
473.8	19.41
474.0	20.40
474.2	20.98
474.4	21.74
474.6	22.53
474.8	22.80
475.0	23.22
475.2	23.57
475.4	24.56
475.6	25.77
475.8	26.36
476.0	26.86
476.2	27.12
476.4	27.60
476.6	29.19
476.8	30.35
477.0	31.15
477.2	31.91
477.4	32.04
477.6	32.83
477.8	33.67
478.0	34.19
478.2	35.83
478.4	37.09
478.6	38.65
478.8	40.61
479.0	41.53
479.2	41.98
479.4	42.71
479.6	43.63
479.8	45.77
480.0	47.48
480.2	48.64
480.4	49.31
480.6	50.12
480.8	51.83
481.0	54.53
481.2	57.40
481.4	58.84
481.6	59.35
481.8	61.21
482.0	62.59
482.2	63.23
482.4	65.32
482.6	66.39
482.8	67.45
483.0	71.12
483.2	73.60
483.4	75.07
483.6	77.82
483.8	80.00
484.0	81.70
484.2	84.37
484.4	86.63
484.6	89.25
484.8	92.75
485.0	95.20
485.2	97.47
485.4	100.4
485.6	102.5
485.8	105.2
486.0	107.7
486.2	109.9
486.4	112.9
486.6	115.7
486.8	118.0
487.0	121.3
487.2	125.0
487.4	128.9
487.6	133.2
487.8	135.8
488.0	137.1
488.2	139.6
488.4	143.3
488.6	148.1
488.8	153.5
489.0	157.9
489.2	161.3
489.4	164.4
489.6	166.7
489.8	171.0
490.0	176.2
490.2	181.8
490.4	186.3
490.6	190.4
490.8	194.3
491.0	198.4
491.2	204.0
491.4	209.1
491.6	215.4
491.8	221.9
492.0	228.8
492.2	233.7
492.4	238.5
492.6	240.9
492.8	246.7
493.0	251.6
493.2	257.9
493.4	264.5
493.6	272.8
493.8	279.4
494.0	285.7
494.2	292.4
494.4	299.2
494.6	304.4
494.8	310.2
495.0	316.7
495.2	320.6
495.4	327.0
495.6	334.9
495.8	341.2
496.0	348.3
496.2	358.1
496.4	366.8
496.6	376.6
496.8	385.1
497.0	391.7
497.2	398.0
497.4	405.6
497.6	413.9
497.8	422.8
498.0	429.6
498.2	437.3
498.4	445.8
498.6	455.5
498.8	463.6
499.0	472.7
499.2	478.8
499.4	489.0
499.6	497.7
499.8	509.2
500.0	520.5
500.2	531.8
500.4	540.6
500.6	554.3
500.8	560.5
501.0	569.7
501.2	579.3
501.4	588.7
501.6	597.7
501.8	612.6
502.0	623.3
502.2	634.0
502.4	645.2
502.6	654.7
502.8	664.4
503.0	677.3
503.2	688.9
503.4	701.3
503.6	713.3
503.8	722.4
504.0	733.4
504.2	745.3
504.4	757.1
504.6	772.5
504.8	785.0
505.0	797.1
505.2	805.0
505.4	815.3
505.6	826.6
505.8	844.3
506.0	862.2
506.2	878.1
506.4	888.6
506.6	899.6
506.8	910.1
507.0	923.5
507.2	937.5
507.4	950.6
507.6	962.8
507.8	978.3
508.0	994.6
508.2	1008
508.4	1021
508.6	1034
508.8	1043
509.0	1058
509.2	1075
509.4	1092
509.6	1104
509.8	1119
510.0	1129
510.2	1145
510.4	1160
510.6	1178
510.8	1190
511.0	1207
511.2	1220
511.4	1240
511.6	1255
511.8	1270
512.0	1281
512.2	1293
512.4	1304
512.6	1321
512.8	1337
513.0	1353
513.2	1366
513.4	1384
513.6	1397
513.8	1411
514.0	1423
514.2	1440
514.4	1457
514.6	1477
514.8	1493
515.0	1505
515.2	1517
515.4	1534
515.6	1547
515.8	1563
516.0	1578
516.2	1591
516.4	1608
516.6	1625
516.8	1639
517.0	1655
517.2	1673
517.4	1687
517.6	1703
517.8	1717
518.0	1737
518.2	1753
518.4	1772
518.6	1787
518.8	1802
519.0	1819
519.2	1838
519.4	1851
519.6	1866
519.8	1882
520.0	1900
520.2	1916
520.4	1931
520.6	1940
520.8	1951
521.0	1958
521.2	1972
521.4	1989
521.6	2009
521.8	2025
522.0	2042
522.2	2052
522.4	2065
522.6	2084
522.8	2099
523.0	2112
523.2	2129
523.4	2147
523.6	2156
523.8	2168
524.0	2179
524.2	2191
524.4	2207
524.6	2228
524.8	2237
525.0	2251
525.2	2263
525.4	2274
525.6	2285
525.8	2305
526.0	2320
526.2	2335
526.4	2348
526.6	2356
526.8	2363
527.0	2378
527.2	2393
527.4	2406
527.6	2429
527.8	2441
528.0	2451
528.2	2462
528.4	2474
528.6	2484
528.8	2492
529.0	2498
529.2	2508
529.4	2527
529.6	2546
529.8	2555
530.0	2553
530.2	2564
530.4	2573
530.6	2594
530.8	2615
531.0	2629
531.2	2640
531.4	2651
531.6	2654
531.8	2660
532.0	2671
532.2	2684
532.4	2697
532.6	2704
532.8	2716
533.0	2723
533.2	2732
533.4	2745
533.6	2753
533.8	2761
534.0	2773
534.2	2776
534.4	2786
534.6	2799
534.8	2809
535.0	2822
535.2	2830
535.4	2837
535.6	2847
535.8	2858
536.0	2860
536.2	2867
536.4	2872
536.6	2876
536.8	2876
537.0	2886
537.2	2892
537.4	2898
537.6	2905
537.8	2913
538.0	2919
538.2	2930
538.4	2942
538.6	2942
538.8	2944
539.0	2953
539.2	2961
539.4	2968
539.6	2976
539.8	2978
540.0	2975
540.2	2981
540.4	2985
540.6	2991
540.8	3001
541.0	3009
541.2	3006
541.4	3017
541.6	3015
541.8	3024
542.0	3036
542.2	3040
542.4	3047
542.6	3054
542.8	3054
543.0	3055
543.2	3057
543.4	3056
543.6	3060
543.8	3054
544.0	3059
544.2	3057
544.4	3060
544.6	3064
544.8	3068
545.0	3069
545.2	3077
545.4	3082
545.6	3080
545.8	3084
546.0	3090
546.2	3094
546.4	3094
546.6	3093
546.8	3091
547.0	3095
547.2	3099
547.4	3096
547.6	3096
547.8	3089
548.0	3086
548.2	3084
548.4	3087
548.6	3095
548.8	3101
549.0	3100
549.2	3093
549.4	3093
549.6	3096
549.8	3104
550.0	3103
550.2	3101
550.4	3094
550.6	3089
550.8	3086
551.0	3087
551.2	3089
551.4	3087
551.6	3084
551.8	3082
552.0	3082
552.2	3078
552.4	3075
552.6	3074
552.8	3070
553.0	3071
553.2	3080
553.4	3080
553.6	3079
553.8	3079
554.0	3066
554.2	3058
554.4	3059
554.6	3063
554.8	3067
555.0	3065
555.2	3061
555.4	3056
555.6	3054
555.8	3041
556.0	3032
556.2	3020
556.4	3016
556.6	3011
556.8	3013
557.0	3009
557.2	3012
557.4	3009
557.6	3011
557.8	3006
558.0	3004
558.2	3003
558.4	2998
558.6	2989
558.8	2985
559.0	2975
559.2	2969
559.4	2964
559.6	2958
559.8	2954
560.0	2948
560.2	2943
560.4	2939
560.6	2933
560.8	2925
561.0	2920
561.2	2915
561.4	2919
561.6	2921
561.8	2919
562.0	2911
562.2	2893
562.4	2884
562.6	2884
562.8	2886
563.0	2883
563.2	2878
563.4	2865
563.6	2858
563.8	2852
564.0	2842
564.2	2832
564.4	2824
564.6	2823
564.8	2821
565.0	2817
565.2	2811
565.4	2807
565.6	2796
565.8	2790
566.0	2781
566.2	2773
566.4	2770
566.6	2762
566.8	2754
567.0	2744
567.2	2732
567.4	2723
567.6	2720
567.8	2713
568.0	2707
568.2	2704
568.4	2700
568.6	2691
568.8	2691
569.0	2684
569.2	2677
569.4	2670
569.6	2665
569.8	2652
570.0	2648
570.2	2640
570.4	2638
570.6	2634
570.8	2630
571.0	2619
571.2	2605
571.4	2597
571.6	2587
571.8	2582
572.0	2575
572.2	2570
572.4	2562
572.6	2559
572.8	2548
573.0	2542
573.2	2533
573.4	2529
573.6	2523
573.8	2519
574.0	2514
574.2	2506
574.4	2495
574.6	2484
574.8	2482
575.0	2480
575.2	2476
575.4	2468
575.6	2460
575.8	2445
576.0	2435
576.2	2425
576.4	2415
576.6	2407
576.8	2402
577.0	2392
577.2	2384
577.4	2381
577.6	2375
577.8	2369
578.0	2351
578.2	2345
578.4	2338
578.6	2335
578.8	2332
579.0	2330
579.2	2316
579.4	2307
579.6	2297
579.8	2282
580.0	2272
580.2	2267
580.4	2259
580.6	2249
580.8	2247
581.0	2236
581.2	2226
581.4	2217
581.6	2211
581.8	2206
582.0	2205
582.2	2200
582.4	2193
582.6	2185
582.8	2179
583.0	2170
583.2	2160
583.4	2153
583.6	2143
583.8	2140
584.0	2133
584.2	2126
584.4	2114
584.6	2102
584.8	2086
585.0	2078
585.2	2070
585.4	2068
585.6	2063
585.8	2057
586.0	2054
586.2	2051
586.4	2046
586.6	2036
586.8	2025
587.0	2011
587.2	2006
587.4	2002
587.6	1994
587.8	1986
588.0	1979
588.2	1969
588.4	1964
588.6	1953
588.8	1947
589.0	1944
589.2	1935
589.4	1929
589.6	1923
589.8	1913
590.0	1909
590.2	1902
590.4	1889
590.6	1879
590.8	1872
591.0	1869
591.2	1865
591.4	1861
591.6	1854
591.8	1845
592.0	1833
592.2	1824
592.4	1813
592.6	1805
592.8	1794
593.0	1790
593.2	1781
593.4	1777
593.6	1772
593.8	1767
594.0	1752
594.2	1745
594.4	1737
594.6	1732
594.8	1727
595.0	1723
595.2	1717
595.4	1709
595.6	1703
595.8	1693
596.0	1687
596.2	1679
596.4	1675
596.6	1668
596.8	1663
597.0	1660
597.2	1653
597.4	1642
597.6	1631
597.8	1622
598.0	1615
598.2	1610
598.4	1601
598.6	1591
598.8	1583
599.0	1579
599.2	1574
599.4	1565
599.6	1561
599.8	1556
600.0	1552
600.2	1545
600.4	1540
600.6	1525
600.8	1518
601.0	1511
601.2	1508
601.4	1504
601.6	1500
601.8	1488
602.0	1482
602.2	1472
602.4	1468
602.6	1467
602.8	1461
603.0	1453
603.2	1446
603.4	1437
603.6	1429
603.8	1426
604.0	1422
604.2	1415
604.4	1408
604.6	1401
604.8	1392
605.0	1384
605.2	1380
605.4	1371
605.6	1364
605.8	1357
606.0	1353
606.2	1344
606.4	1342
606.6	1336
606.8	1329
607.0	1325
607.2	1318
607.4	1312
607.6	1307
607.8	1302
608.0	1294
608.2	1288
608.4	1280
608.6	1270
608.8	1258
609.0	1250
609.2	1243
609.4	1240
609.6	1238
609.8	1231
610.0	1224
610.2	1221
610.4	1217
610.6	1211
610.8	1203
611.0	1196
611.2	1190
611.4	1185
611.6	1180
611.8	1174
612.0	1168
612.2	1167
612.4	1162
612.6	1155
612.8	1144
613.0	1138
613.2	1132
613.4	1129
613.6	1123
613.8	1115
614.0	1107
614.2	1101
614.4	1095
614.6	1090
614.8	1078
615.0	1070
615.2	1067
615.4	1066
615.6	1067
615.8	1065
616.0	1054
616.2	1048
616.4	1044
616.6	1039
616.8	1034
617.0	1027
617.2	1020
617.4	1016
617.6	1014
617.8	1010
618.0	1004
618.2	997.0
618.4	989.8
618.6	983.4
618.8	980.0
619.0	974.0
619.2	966.7
619.4	959.5
619.6	950.3
619.8	945.7
620.0	941.1
620.2	938.0
620.4	937.8
620.6	936.4
620.8	930.2
621.0	922.6
621.2	912.5
621.4	902.9
621.6	900.2
621.8	897.5
622.0	891.2
622.2	883.5
622.4	879.6
622.6	873.4
622.8	870.5
623.0	868.2
623.2	862.8
623.4	856.9
623.6	854.7
623.8	850.7
624.0	848.6
624.2	844.4
624.4	839.1
624.6	834.9
624.8	829.5
625.0	823.9
625.2	819.7
625.4	813.0
625.6	808.5
625.8	805.6
626.0	802.1
626.2	798.6
626.4	792.3
626.6	789.5
626.8	785.6
627.0	780.2
627.2	774.6
627.4	769.0
627.6	761.4
627.8	756.4
628.0	753.7
628.2	749.4
628.4	746.1
628.6	744.3
628.8	740.6
629.0	731.2
629.2	724.4
629.4	719.9
629.6	716.9
629.8	716.9
630.0	713.6
630.2	705.6
630.4	701.0
630.6	697.7
630.8	692.7
631.0	692.0
631.2	688.6
631.4	686.2
631.6	684.7
631.8	679.0
632.0	674.3
632.2	670.0
632.4	667.7
632.6	664.0
632.8	657.5
633.0	651.5
633.2	648.0
633.4	644.7
633.6	646.1
633.8	643.9
634.0	639.0
634.2	633.4
634.4	628.6
634.6	622.8
634.8	619.3
635.0	614.7
635.2	609.6
635.4	605.6
635.6	604.6
635.8	600.1
636.0	595.6
636.2	593.2
636.4	590.9
636.6	585.9
636.8	581.9
637.0	575.9
637.2	571.9
637.4	571.9
637.6	572.7
637.8	569.4
638.0	563.9
638.2	557.6
638.4	553.2
638.6	546.5
638.8	543.2
639.0	541.9
639.2	536.7
639.4	534.6
639.6	531.7
639.8	527.8
640.0	527.4
640.2	527.7
640.4	526.6
640.6	523.8
640.8	519.2
641.0	514.2
641.2	510.8
641.4	508.9
641.6	507.5
641.8	502.3
642.0	499.2
642.2	494.7
642.4	490.3
642.6	488.7
642.8	484.8
643.0	482.7
643.2	481.6
643.4	479.7
643.6	474.6
643.8	469.8
644.0	464.1
644.2	462.9
644.4	460.9
644.6	460.1
644.8	456.0
645.0	452.5
645.2	449.6
645.4	447.5
645.6	444.7
645.8	442.2
646.0	438.2
646.2	435.8
646.4	432.2
646.6	427.5
646.8	425.2
647.0	423.9
647.2	424.4
647.4	421.9
647.6	418.7
647.8	415.0
648.0	411.6
648.2	409.1
648.4	405.9
648.6	401.7
648.8	400.7
649.0	397.2
649.2	394.6
649.4	394.3
649.6	391.9
649.8	391.4
650.0	387.8
650.2	382.3
650.4	380.7
650.6	379.2
650.8	377.8
651.0	376.7
651.2	373.1
651.4	369.0
651.6	367.2
651.8	365.4
652.0	363.1
652.2	361.5
652.4	360.5
652.6	356.0
652.8	352.9
653.0	352.9
653.2	351.8
653.4	349.3
653.6	346.5
653.8	342.3
654.0	337.2
654.2	335.4
654.4	333.9
654.6	332.0
654.8	330.4
655.0	327.4
655.2	324.7
655.4	322.6
655.6	319.5
655.8	318.8
656.0	317.4
656.2	313.4
656.4	312.8
656.6	311.3
656.8	306.7
657.0	305.3
657.2	301.7
657.4	299.3
657.6	299.8
657.8	299.6
658.0	297.5
658.2	298.5
658.4	296.3
658.6	293.6
658.8	290.3
659.0	286.9
659.2	283.4
659.4	282.5
659.6	280.2
659.8	278.4
660.0	278.5
660.2	277.3
660.4	274.5
660.6	273.6
660.8	271.5
661.0	270.5
661.2	269.7
661.4	266.9
661.6	264.1
661.8	262.7
662.0	261.9
662.2	260.1
662.4	257.2
662.6	256.7
662.8	255.2
663.0	254.6
663.2	253.6
663.4	252.8
663.6	250.3
663.8	249.2
664.0	245.0
664.2	241.5
664.4	239.0
664.6	237.6
664.8	238.0
665.0	238.5
665.2	238.2
665.4	237.1
665.6	236.7
665.8	233.6
666.0	231.5
666.2	229.2
666.4	227.8
666.6	225.8
666.8	224.0
667.0	221.8
667.2	220.2
667.4	219.4
667.6	218.2
667.8	215.0
668.0	212.1
668.2	210.3
668.4	209.5
668.6	209.7
668.8	209.1
669.0	207.8
669.2	207.2
669.4	204.3
669.6	202.5
669.8	201.8
670.0	200.6
670.2	199.5
670.4	198.7
670.6	195.3
670.8	194.1
671.0	192.4
671.2	190.9
671.4	189.7
671.6	188.7
671.8	188.8
672.0	189.3
672.2	188.3
672.4	185.6
672.6	181.9
672.8	178.8
673.0	179.0
673.2	178.9
673.4	177.8
673.6	177.2
673.8	176.1
674.0	174.6
674.2	173.8
674.4	172.5
674.6	170.5
674.8	169.8
675.0	169.1
675.2	167.1
675.4	165.1
675.6	165.0
675.8	164.5
676.0	163.3
676.2	163.0
676.4	161.2
676.6	157.7
676.8	156.2
677.0	155.3
677.2	154.2
677.4	153.8
677.6	154.2
677.8	152.5
678.0	150.8
678.2	149.7
678.4	147.1
678.6	145.1
678.8	145.4
679.0	145.0
679.2	145.0
679.4	145.4
679.6	143.6
679.8	143.2
680.0	142.3
680.2	141.1
680.4	141.4
680.6	140.4
680.8	138.5
681.0	137.5
681.2	135.6
681.4	134.0
681.6	133.5
681.8	132.0
682.0	132.1
682.2	132.1
682.4	131.1
682.6	130.6
682.8	129.2
683.0	127.6
683.2	126.1
683.4	124.1
683.6	123.2
683.8	122.7
684.0	122.6
684.2	122.1
684.4	121.6
684.6	120.8
684.8	121.2
685.0	120.6
685.2	120.6
685.4	119.5
685.6	117.5
685.8	115.9
686.0	114.8
686.2	114.3
686.4	114.2
686.6	113.6
686.8	111.6
687.0	109.8
687.2	109.1
687.4	109.1
687.6	109.0
687.8	108.8
688.0	108.7
688.2	107.6
688.4	107.3
688.6	105.6
688.8	103.6
689.0	102.2
689.2	101.8
689.4	101.1
689.6	101.2
689.8	100.9
690.0	100.2
690.2	100.1
690.4	100.0
690.6	98.18
690.8	97.54
691.0	97.33
691.2	96.49
691.4	96.59
691.6	96.80
691.8	95.60
692.0	95.10
692.2	93.77
692.4	93.10
692.6	93.82
692.8	93.11
693.0	92.91
693.2	91.06
693.4	88.88
693.6	87.99
693.8	88.17
694.0	88.47
694.2	88.40
694.4	87.96
694.6	87.74
694.8	86.16
695.0	84.72
695.2	84.36
695.4	83.46
695.6	83.90
695.8	84.19
696.0	83.64
696.2	82.37
696.4	81.42
696.6	81.44
696.8	80.88
697.0	79.53
697.2	78.76
697.4	77.73
697.6	77.73
697.8	78.43
698.0	78.61
698.2	78.20
698.4	77.71
698.6	76.91
698.8	75.49
699.0	74.32
699.2	73.63
699.4	73.62
699.6	73.71
699.8	74.11
700.0	73.51
700.2	72.99
700.4	72.02
700.6	71.45
700.8	71.18
701.0	71.40
701.2	71.28
701.4	70.30
701.6	69.61
701.8	68.84
702.0	67.79
702.2	67.07
702.4	66.63
702.6	67.23
702.8	67.98
703.0	67.80
703.2	67.28
703.4	65.74
703.6	64.34
703.8	64.21
704.0	63.62
704.2	63.70
704.4	64.46
704.6	63.97
704.8	63.88
705.0	63.24
705.2	62.90
705.4	62.33
705.6	61.68
705.8	61.23
706.0	61.58
706.2	61.04
706.4	61.74
706.6	61.57
706.8	61.71
707.0	61.50
707.2	60.18
707.4	58.30
707.6	57.30
707.8	56.35
708.0	56.93
708.2	57.34
708.4	57.23
708.6	57.34
708.8	56.48
709.0	55.64
709.2	55.42
709.4	54.68
709.6	54.00
709.8	53.45
710.0	52.95
710.2	53.44
710.4	53.88
710.6	53.16
710.8	52.12
711.0	51.14
711.2	51.65
711.4	51.85
711.6	51.72
711.8	51.52
712.0	51.22
712.2	50.88
712.4	51.29
712.6	50.45
712.8	49.20
713.0	48.29
713.2	48.11
713.4	47.67
713.6	48.42
713.8	48.50
714.0	48.37
714.2	47.95
714.4	48.26
714.6	47.50
714.8	47.77
715.0	47.09
715.2	46.63
715.4	46.48
715.6	45.82
715.8	45.83
716.0	45.52
716.2	44.60
716.4	43.62
716.6	42.82
716.8	41.50
717.0	41.62
717.2	41.56
717.4	41.54
717.6	41.60
717.8	41.08
718.0	40.93
718.2	40.50
718.4	40.17
718.6	39.70
718.8	39.76
719.0	39.84
719.2	40.00
719.4	39.40
719.6	38.79
719.8	38.00
720.0	37.84
720.2	37.61
720.4	37.63
720.6	37.30
720.8	37.49
721.0	37.74
