Sample:	'20211010A(EM)
File name:	G-Ni 8 800.FDS
Run date:	'16:15:04, 06/19/2023
Operator:	Administrator
Comment:	'

Instrument
Model:	F-4700 FL Spectrophotometer
Serial number:	2019-001
ROM Version:	5J24010 00

Instrument parameters
Measurement type:	Wavelength scan
Scan mode:	Emission
Data mode:	Fluorescence
EX WL:	400.0 nm
EM  Start WL:	420.0 nm
EM  End WL:	800.0 nm
Scan speed:	1200 nm/min
Delay:	0.0 s
EX Slit:	10.0 nm
EM Slit:	10.0 nm
PMT Voltage:	500 V
Response:	0.002 s
Corrected spectra:	Off
Shutter control:	On

Processing performed
Savitsky-Golay smoothed
Smoothing order:	3
Number of points:	7
Number of times:	1

Peak integration
Integration method:	Rectangular
Sensitivity:	1
Threshold:	1.000

Peaks
No.	Start(nm)	Apex(nm)	End(nm)	Height(Data)	Valley(nm)	Valley(Data)
1	420.0	547.8	549.4	4835	549.4	4806
2	549.4	550.8	753.6	4833	753.6	16.48
3	753.6	754.4	769.8	17.76	769.8	9.896
4	769.8	770.6	788.4	10.90	788.4	6.822

Data points
nm	Data
420.0	2.116
420.2	2.333
420.4	2.311
420.6	2.163
420.8	2.049
421.0	2.028
421.2	2.070
421.4	2.003
421.6	1.811
421.8	1.877
422.0	2.004
422.2	2.038
422.4	1.991
422.6	1.800
422.8	1.842
423.0	1.999
423.2	2.154
423.4	2.254
423.6	2.184
423.8	2.099
424.0	2.079
424.2	2.109
424.4	2.243
424.6	2.314
424.8	2.354
425.0	2.291
425.2	2.235
425.4	2.344
425.6	2.305
425.8	2.055
426.0	2.069
426.2	2.061
426.4	2.153
426.6	2.189
426.8	2.171
427.0	2.120
427.2	2.140
427.4	2.211
427.6	2.311
427.8	2.192
428.0	2.213
428.2	2.081
428.4	1.954
428.6	2.013
428.8	2.168
429.0	2.148
429.2	2.199
429.4	2.049
429.6	1.936
429.8	1.990
430.0	2.131
430.2	2.189
430.4	2.217
430.6	2.150
430.8	2.159
431.0	2.227
431.2	2.386
431.4	2.446
431.6	2.406
431.8	2.428
432.0	2.346
432.2	2.101
432.4	1.970
432.6	1.918
432.8	1.898
433.0	2.126
433.2	2.253
433.4	2.378
433.6	2.446
433.8	2.471
434.0	2.399
434.2	2.189
434.4	2.018
434.6	2.086
434.8	2.164
435.0	2.244
435.2	2.373
435.4	2.341
435.6	2.406
435.8	2.527
436.0	2.516
436.2	2.462
436.4	2.525
436.6	2.435
436.8	2.332
437.0	2.310
437.2	2.360
437.4	2.336
437.6	2.463
437.8	2.478
438.0	2.201
438.2	2.126
438.4	2.308
438.6	2.288
438.8	2.462
439.0	2.692
439.2	2.447
439.4	2.591
439.6	2.721
439.8	2.640
440.0	2.594
440.2	2.512
440.4	2.296
440.6	2.333
440.8	2.416
441.0	2.488
441.2	2.591
441.4	2.620
441.6	2.705
441.8	2.791
442.0	2.774
442.2	2.801
442.4	2.705
442.6	2.513
442.8	2.456
443.0	2.464
443.2	2.470
443.4	2.664
443.6	2.814
443.8	3.025
444.0	3.075
444.2	2.941
444.4	3.016
444.6	3.023
444.8	3.091
445.0	3.148
445.2	3.127
445.4	2.972
445.6	2.940
445.8	2.896
446.0	2.846
446.2	3.035
446.4	3.120
446.6	3.292
446.8	3.386
447.0	3.310
447.2	3.072
447.4	3.264
447.6	3.216
447.8	3.243
448.0	3.283
448.2	3.259
448.4	3.132
448.6	3.176
448.8	3.221
449.0	3.148
449.2	3.272
449.4	3.278
449.6	3.464
449.8	3.716
450.0	3.965
450.2	3.970
450.4	4.102
450.6	3.940
450.8	3.772
451.0	3.711
451.2	3.546
451.4	3.437
451.6	3.508
451.8	3.824
452.0	3.849
452.2	4.040
452.4	4.041
452.6	3.989
452.8	3.998
453.0	4.319
453.2	4.531
453.4	4.714
453.6	4.751
453.8	4.671
454.0	4.680
454.2	4.596
454.4	4.649
454.6	4.474
454.8	4.422
455.0	4.626
455.2	4.712
455.4	5.012
455.6	5.131
455.8	5.002
456.0	4.656
456.2	4.923
456.4	4.978
456.6	5.193
456.8	5.198
457.0	5.373
457.2	5.150
457.4	5.343
457.6	5.514
457.8	5.671
458.0	5.800
458.2	5.968
458.4	6.035
458.6	5.973
458.8	6.052
459.0	6.431
459.2	6.641
459.4	6.779
459.6	6.838
459.8	7.001
460.0	6.936
460.2	6.835
460.4	6.864
460.6	6.733
460.8	6.675
461.0	7.015
461.2	7.604
461.4	8.085
461.6	8.434
461.8	8.262
462.0	7.913
462.2	7.506
462.4	7.888
462.6	8.268
462.8	8.514
463.0	8.749
463.2	8.831
463.4	9.009
463.6	9.238
463.8	9.522
464.0	9.509
464.2	9.834
464.4	10.18
464.6	10.46
464.8	10.50
465.0	11.08
465.2	11.25
465.4	11.55
465.6	11.48
465.8	11.35
466.0	11.74
466.2	12.90
466.4	13.61
466.6	14.17
466.8	13.78
467.0	13.52
467.2	13.48
467.4	13.80
467.6	14.05
467.8	14.56
468.0	14.70
468.2	15.08
468.4	15.90
468.6	16.34
468.8	16.70
469.0	17.16
469.2	17.32
469.4	17.40
469.6	17.80
469.8	18.00
470.0	18.87
470.2	19.70
470.4	20.58
470.6	21.08
470.8	21.35
471.0	22.00
471.2	22.55
471.4	23.39
471.6	24.15
471.8	24.03
472.0	24.71
472.2	25.64
472.4	25.96
472.6	27.20
472.8	28.33
473.0	28.85
473.2	29.87
473.4	31.03
473.6	32.13
473.8	33.46
474.0	34.39
474.2	35.09
474.4	35.35
474.6	36.17
474.8	37.02
475.0	38.51
475.2	39.33
475.4	40.51
475.6	42.05
475.8	43.40
476.0	44.49
476.2	45.73
476.4	46.72
476.6	47.93
476.8	49.56
477.0	50.48
477.2	52.45
477.4	53.63
477.6	54.90
477.8	56.01
478.0	57.08
478.2	58.45
478.4	61.21
478.6	63.13
478.8	65.46
479.0	68.21
479.2	70.55
479.4	71.99
479.6	74.46
479.8	75.27
480.0	76.19
480.2	78.68
480.4	80.75
480.6	82.98
480.8	86.39
481.0	89.12
481.2	91.30
481.4	95.38
481.6	97.49
481.8	99.61
482.0	101.1
482.2	102.6
482.4	105.6
482.6	110.6
482.8	113.9
483.0	117.2
483.2	118.7
483.4	120.2
483.6	124.2
483.8	128.0
484.0	131.2
484.2	135.1
484.4	139.3
484.6	144.7
484.8	149.6
485.0	153.2
485.2	156.8
485.4	159.0
485.6	162.8
485.8	168.4
486.0	172.8
486.2	178.2
486.4	184.6
486.6	188.6
486.8	193.3
487.0	198.4
487.2	202.6
487.4	208.2
487.6	213.5
487.8	218.4
488.0	226.0
488.2	231.2
488.4	235.4
488.6	242.1
488.8	246.7
489.0	252.0
489.2	260.3
489.4	266.6
489.6	271.7
489.8	277.5
490.0	282.0
490.2	289.1
490.4	296.4
490.6	304.7
490.8	313.2
491.0	321.6
491.2	328.9
491.4	338.2
491.6	344.7
491.8	351.7
492.0	359.7
492.2	369.3
492.4	379.3
492.6	388.7
492.8	396.1
493.0	403.7
493.2	410.7
493.4	419.4
493.6	430.6
493.8	442.9
494.0	452.8
494.2	463.4
494.4	470.9
494.6	477.9
494.8	486.1
495.0	497.1
495.2	508.0
495.4	522.5
495.6	533.7
495.8	545.5
496.0	558.7
496.2	569.9
496.4	582.4
496.6	593.6
496.8	602.2
497.0	614.6
497.2	629.8
497.4	644.5
497.6	657.6
497.8	666.0
498.0	674.0
498.2	688.1
498.4	704.9
498.6	721.6
498.8	733.9
499.0	746.0
499.2	756.0
499.4	769.4
499.6	783.2
499.8	800.3
500.0	814.5
500.2	833.0
500.4	850.8
500.6	865.9
500.8	878.8
501.0	895.3
501.2	911.0
501.4	929.6
501.6	949.3
501.8	965.6
502.0	978.5
502.2	994.4
502.4	1012
502.6	1031
502.8	1049
503.0	1065
503.2	1082
503.4	1102
503.6	1120
503.8	1140
504.0	1156
504.2	1173
504.4	1186
504.6	1201
504.8	1220
505.0	1241
505.2	1263
505.4	1287
505.6	1305
505.8	1326
506.0	1344
506.2	1363
506.4	1379
506.6	1396
506.8	1418
507.0	1440
507.2	1461
507.4	1489
507.6	1508
507.8	1525
508.0	1545
508.2	1561
508.4	1585
508.6	1612
508.8	1634
509.0	1654
509.2	1678
509.4	1697
509.6	1720
509.8	1739
510.0	1761
510.2	1786
510.4	1815
510.6	1841
510.8	1867
511.0	1887
511.2	1911
511.4	1933
511.6	1957
511.8	1977
512.0	1997
512.2	2017
512.4	2037
512.6	2057
512.8	2083
513.0	2106
513.2	2131
513.4	2155
513.6	2171
513.8	2193
514.0	2221
514.2	2246
514.4	2267
514.6	2290
514.8	2307
515.0	2338
515.2	2372
515.4	2399
515.6	2414
515.8	2436
516.0	2459
516.2	2492
516.4	2516
516.6	2537
516.8	2547
517.0	2568
517.2	2594
517.4	2626
517.6	2650
517.8	2677
518.0	2701
518.2	2723
518.4	2742
518.6	2762
518.8	2784
519.0	2811
519.2	2839
519.4	2863
519.6	2884
519.8	2911
520.0	2938
520.2	2967
520.4	2992
520.6	3013
520.8	3033
521.0	3054
521.2	3074
521.4	3094
521.6	3112
521.8	3132
522.0	3158
522.2	3184
522.4	3215
522.6	3235
522.8	3259
523.0	3275
523.2	3293
523.4	3314
523.6	3334
523.8	3356
524.0	3388
524.2	3412
524.4	3431
524.6	3447
524.8	3460
525.0	3477
525.2	3496
525.4	3521
525.6	3544
525.8	3561
526.0	3584
526.2	3609
526.4	3637
526.6	3666
526.8	3698
527.0	3718
527.2	3734
527.4	3747
527.6	3755
527.8	3766
528.0	3780
528.2	3798
528.4	3822
528.6	3842
528.8	3865
529.0	3883
529.2	3897
529.4	3912
529.6	3935
529.8	3954
530.0	3982
530.2	3996
530.4	4013
530.6	4026
530.8	4044
531.0	4058
531.2	4079
531.4	4092
531.6	4109
531.8	4125
532.0	4138
532.2	4148
532.4	4165
532.6	4186
532.8	4204
533.0	4214
533.2	4224
533.4	4242
533.6	4263
533.8	4288
534.0	4305
534.2	4312
534.4	4325
534.6	4343
534.8	4353
535.0	4358
535.2	4366
535.4	4379
535.6	4397
535.8	4423
536.0	4436
536.2	4438
536.4	4449
536.6	4464
536.8	4475
537.0	4491
537.2	4490
537.4	4484
537.6	4496
537.8	4510
538.0	4525
538.2	4546
538.4	4552
538.6	4556
538.8	4563
539.0	4573
539.2	4586
539.4	4607
539.6	4613
539.8	4622
540.0	4629
540.2	4634
540.4	4635
540.6	4642
540.8	4649
541.0	4657
541.2	4672
541.4	4680
541.6	4682
541.8	4688
542.0	4700
542.2	4701
542.4	4717
542.6	4722
542.8	4724
543.0	4725
543.2	4737
543.4	4742
543.6	4754
543.8	4761
544.0	4765
544.2	4762
544.4	4765
544.6	4765
544.8	4767
545.0	4780
545.2	4789
545.4	4793
545.6	4794
545.8	4784
546.0	4784
546.2	4787
546.4	4790
546.6	4799
546.8	4808
547.0	4812
547.2	4821
547.4	4828
547.6	4834
547.8	4835
548.0	4832
548.2	4820
548.4	4816
548.6	4819
548.8	4821
549.0	4817
549.2	4813
549.4	4806
549.6	4812
549.8	4813
550.0	4815
550.2	4820
550.4	4826
550.6	4831
550.8	4833
551.0	4823
551.2	4815
551.4	4815
551.6	4815
551.8	4809
552.0	4811
552.2	4799
552.4	4795
552.6	4783
552.8	4779
553.0	4778
553.2	4794
553.4	4788
553.6	4790
553.8	4774
554.0	4763
554.2	4758
554.4	4768
554.6	4759
554.8	4762
555.0	4755
555.2	4751
555.4	4750
555.6	4738
555.8	4726
556.0	4723
556.2	4717
556.4	4722
556.6	4727
556.8	4714
557.0	4710
557.2	4710
557.4	4703
557.6	4702
557.8	4695
558.0	4687
558.2	4677
558.4	4670
558.6	4657
558.8	4646
559.0	4630
559.2	4622
559.4	4614
559.6	4615
559.8	4609
560.0	4609
560.2	4600
560.4	4595
560.6	4583
560.8	4577
561.0	4572
561.2	4572
561.4	4558
561.6	4550
561.8	4533
562.0	4520
562.2	4507
562.4	4496
562.6	4490
562.8	4490
563.0	4488
563.2	4480
563.4	4473
563.6	4464
563.8	4457
564.0	4450
564.2	4445
564.4	4427
564.6	4420
564.8	4402
565.0	4388
565.2	4378
565.4	4369
565.6	4360
565.8	4347
566.0	4330
566.2	4319
566.4	4308
566.6	4292
566.8	4282
567.0	4276
567.2	4277
567.4	4270
567.6	4267
567.8	4251
568.0	4235
568.2	4227
568.4	4218
568.6	4209
568.8	4195
569.0	4179
569.2	4166
569.4	4159
569.6	4154
569.8	4149
570.0	4136
570.2	4116
570.4	4098
570.6	4088
570.8	4083
571.0	4069
571.2	4065
571.4	4050
571.6	4034
571.8	4028
572.0	4020
572.2	4007
572.4	4006
572.6	3991
572.8	3973
573.0	3962
573.2	3956
573.4	3948
573.6	3939
573.8	3916
574.0	3900
574.2	3893
574.4	3886
574.6	3878
574.8	3861
575.0	3839
575.2	3829
575.4	3821
575.6	3814
575.8	3806
576.0	3790
576.2	3777
576.4	3767
576.6	3754
576.8	3743
577.0	3729
577.2	3718
577.4	3713
577.6	3710
577.8	3696
578.0	3674
578.2	3657
578.4	3642
578.6	3632
578.8	3625
579.0	3614
579.2	3598
579.4	3584
579.6	3576
579.8	3566
580.0	3560
580.2	3555
580.4	3544
580.6	3529
580.8	3513
581.0	3490
581.2	3479
581.4	3471
581.6	3464
581.8	3453
582.0	3444
582.2	3429
582.4	3413
582.6	3389
582.8	3374
583.0	3361
583.2	3360
583.4	3354
583.6	3345
583.8	3321
584.0	3311
584.2	3303
584.4	3292
584.6	3279
584.8	3268
585.0	3245
585.2	3238
585.4	3235
585.6	3227
585.8	3216
586.0	3202
586.2	3187
586.4	3180
586.6	3173
586.8	3161
587.0	3143
587.2	3125
587.4	3113
587.6	3101
587.8	3093
588.0	3086
588.2	3078
588.4	3065
588.6	3048
588.8	3037
589.0	3024
589.2	3009
589.4	2995
589.6	2985
589.8	2973
590.0	2968
590.2	2951
590.4	2939
590.6	2931
590.8	2923
591.0	2907
591.2	2895
591.4	2879
591.6	2872
591.8	2866
592.0	2851
592.2	2835
592.4	2826
592.6	2816
592.8	2809
593.0	2798
593.2	2783
593.4	2774
593.6	2759
593.8	2749
594.0	2738
594.2	2725
594.4	2713
594.6	2707
594.8	2693
595.0	2684
595.2	2678
595.4	2663
595.6	2645
595.8	2630
596.0	2614
596.2	2605
596.4	2605
596.6	2594
596.8	2587
597.0	2573
597.2	2558
597.4	2548
597.6	2535
597.8	2523
598.0	2516
598.2	2506
598.4	2496
598.6	2484
598.8	2467
599.0	2446
599.2	2432
599.4	2425
599.6	2424
599.8	2418
600.0	2407
600.2	2391
600.4	2383
600.6	2375
600.8	2370
601.0	2362
601.2	2348
601.4	2339
601.6	2327
601.8	2320
602.0	2308
602.2	2298
602.4	2286
602.6	2278
602.8	2268
603.0	2262
603.2	2247
603.4	2233
603.6	2223
603.8	2213
604.0	2208
604.2	2200
604.4	2186
604.6	2172
604.8	2166
605.0	2155
605.2	2150
605.4	2138
605.6	2124
605.8	2113
606.0	2108
606.2	2099
606.4	2090
606.6	2076
606.8	2064
607.0	2052
607.2	2047
607.4	2039
607.6	2030
607.8	2020
608.0	2008
608.2	1999
608.4	1992
608.6	1981
608.8	1975
609.0	1965
609.2	1953
609.4	1946
609.6	1940
609.8	1931
610.0	1917
610.2	1907
610.4	1901
610.6	1891
610.8	1883
611.0	1872
611.2	1854
611.4	1843
611.6	1836
611.8	1826
612.0	1819
612.2	1810
612.4	1804
612.6	1797
612.8	1787
613.0	1781
613.2	1770
613.4	1758
613.6	1747
613.8	1738
614.0	1726
614.2	1720
614.4	1710
614.6	1702
614.8	1696
615.0	1692
615.2	1681
615.4	1671
615.6	1658
615.8	1648
616.0	1643
616.2	1636
616.4	1627
616.6	1616
616.8	1608
617.0	1603
617.2	1596
617.4	1585
617.6	1574
617.8	1562
618.0	1555
618.2	1547
618.4	1537
618.6	1528
618.8	1519
619.0	1516
619.2	1511
619.4	1499
619.6	1488
619.8	1477
620.0	1469
620.2	1470
620.4	1465
620.6	1452
620.8	1445
621.0	1436
621.2	1425
621.4	1418
621.6	1412
621.8	1400
622.0	1396
622.2	1390
622.4	1382
622.6	1375
622.8	1369
623.0	1360
623.2	1354
623.4	1348
623.6	1343
623.8	1335
624.0	1327
624.2	1317
624.4	1311
624.6	1307
624.8	1302
625.0	1290
625.2	1281
625.4	1272
625.6	1266
625.8	1260
626.0	1250
626.2	1241
626.4	1232
626.6	1229
626.8	1225
627.0	1224
627.2	1212
627.4	1199
627.6	1191
627.8	1182
628.0	1176
628.2	1173
628.4	1165
628.6	1158
628.8	1153
629.0	1142
629.2	1135
629.4	1126
629.6	1123
629.8	1119
630.0	1113
630.2	1108
630.4	1101
630.6	1091
630.8	1086
631.0	1079
631.2	1068
631.4	1062
631.6	1056
631.8	1051
632.0	1049
632.2	1043
632.4	1031
632.6	1023
632.8	1016
633.0	1012
633.2	1007
633.4	1003
633.6	1000
633.8	996.5
634.0	993.5
634.2	991.1
634.4	981.5
634.6	971.1
634.8	964.6
635.0	956.5
635.2	951.4
635.4	947.8
635.6	943.4
635.8	937.8
636.0	933.3
636.2	926.8
636.4	921.1
636.6	912.2
636.8	907.9
637.0	902.5
637.2	898.5
637.4	893.2
637.6	886.5
637.8	876.5
638.0	873.6
638.2	868.5
638.4	866.8
638.6	862.7
638.8	857.4
639.0	850.4
639.2	846.1
639.4	839.4
639.6	835.1
639.8	831.2
640.0	827.4
640.2	820.6
640.4	817.3
640.6	814.5
640.8	810.2
641.0	807.3
641.2	802.7
641.4	792.6
641.6	786.2
641.8	779.0
642.0	771.6
642.2	766.8
642.4	764.3
642.6	762.3
642.8	762.7
643.0	760.2
643.2	753.0
643.4	746.8
643.6	738.1
643.8	730.8
644.0	725.0
644.2	721.0
644.4	715.7
644.6	715.3
644.8	712.9
645.0	706.7
645.2	700.4
645.4	693.9
645.6	688.3
645.8	688.3
646.0	686.4
646.2	682.0
646.4	674.2
646.6	668.4
646.8	663.9
647.0	660.7
647.2	657.1
647.4	652.1
647.6	644.9
647.8	642.4
648.0	639.9
648.2	637.0
648.4	637.0
648.6	634.6
648.8	629.2
649.0	624.7
649.2	618.4
649.4	612.8
649.6	610.5
649.8	608.0
650.0	605.6
650.2	602.3
650.4	599.1
650.6	591.4
650.8	587.1
651.0	580.7
651.2	578.6
651.4	574.1
651.6	572.9
651.8	567.3
652.0	565.2
652.2	561.1
652.4	559.1
652.6	553.2
652.8	548.1
653.0	543.6
653.2	542.3
653.4	541.1
653.6	539.8
653.8	536.5
654.0	528.7
654.2	523.8
654.4	521.6
654.6	519.2
654.8	519.6
655.0	515.7
655.2	509.6
655.4	507.8
655.6	507.1
655.8	504.3
656.0	499.3
656.2	490.3
656.4	488.4
656.6	487.1
656.8	485.6
657.0	484.0
657.2	479.9
657.4	477.0
657.6	475.6
657.8	470.3
658.0	463.7
658.2	459.0
658.4	457.5
658.6	457.8
658.8	454.7
659.0	450.4
659.2	446.1
659.4	443.2
659.6	442.4
659.8	440.8
660.0	436.0
660.2	432.9
660.4	428.7
660.6	426.5
660.8	424.5
661.0	421.8
661.2	422.0
661.4	421.3
661.6	416.3
661.8	411.2
662.0	405.5
662.2	402.2
662.4	402.2
662.6	401.0
662.8	399.0
663.0	397.5
663.2	392.9
663.4	388.1
663.6	382.5
663.8	379.2
664.0	377.8
664.2	378.1
664.4	376.9
664.6	374.8
664.8	371.8
665.0	369.4
665.2	366.7
665.4	363.2
665.6	361.9
665.8	359.4
666.0	359.1
666.2	355.9
666.4	353.6
666.6	350.1
666.8	346.7
667.0	345.2
667.2	343.7
667.4	340.2
667.6	338.6
667.8	335.5
668.0	333.1
668.2	334.3
668.4	330.5
668.6	329.4
668.8	327.8
669.0	324.2
669.2	321.9
669.4	319.0
669.6	314.2
669.8	310.9
670.0	309.1
670.2	306.1
670.4	307.4
670.6	307.0
670.8	307.6
671.0	303.4
671.2	300.9
671.4	294.5
671.6	294.7
671.8	292.6
672.0	291.8
672.2	289.5
672.4	286.6
672.6	281.4
672.8	279.9
673.0	277.4
673.2	275.9
673.4	276.4
673.6	274.1
673.8	270.4
674.0	267.7
674.2	265.0
674.4	263.2
674.6	264.1
674.8	264.2
675.0	262.2
675.2	262.3
675.4	259.7
675.6	256.8
675.8	254.4
676.0	252.8
676.2	252.1
676.4	252.3
676.6	251.1
676.8	248.2
677.0	245.3
677.2	242.9
677.4	241.3
677.6	238.9
677.8	238.1
678.0	237.1
678.2	236.1
678.4	235.4
678.6	234.0
678.8	231.1
679.0	227.6
679.2	226.1
679.4	225.7
679.6	225.8
679.8	224.6
680.0	223.8
680.2	221.1
680.4	219.0
680.6	216.8
680.8	213.9
681.0	210.6
681.2	210.8
681.4	209.8
681.6	208.4
681.8	206.6
682.0	204.2
682.2	202.6
682.4	201.7
682.6	199.2
682.8	198.4
683.0	197.2
683.2	196.5
683.4	197.1
683.6	196.6
683.8	194.1
684.0	194.1
684.2	190.1
684.4	187.9
684.6	188.4
684.8	187.4
685.0	186.2
685.2	185.4
685.4	181.7
685.6	180.8
685.8	180.2
686.0	177.7
686.2	176.6
686.4	174.4
686.6	173.0
686.8	172.9
687.0	171.6
687.2	170.4
687.4	169.7
687.6	169.4
687.8	167.2
688.0	166.2
688.2	165.1
688.4	164.3
688.6	162.7
688.8	161.8
689.0	160.6
689.2	161.0
689.4	160.5
689.6	159.0
689.8	155.7
690.0	153.3
690.2	153.5
690.4	153.9
690.6	152.9
690.8	151.5
691.0	149.5
691.2	148.4
691.4	147.7
691.6	147.4
691.8	146.2
692.0	146.3
692.2	146.7
692.4	145.8
692.6	143.9
692.8	142.9
693.0	141.4
693.2	139.1
693.4	138.1
693.6	136.5
693.8	134.9
694.0	134.0
694.2	133.6
694.4	131.6
694.6	130.6
694.8	129.2
695.0	128.8
695.2	129.3
695.4	130.8
695.6	129.2
695.8	128.2
696.0	126.3
696.2	125.7
696.4	125.0
696.6	125.0
696.8	123.8
697.0	123.9
697.2	124.0
697.4	124.5
697.6	123.3
697.8	121.9
698.0	121.1
698.2	120.4
698.4	118.6
698.6	117.9
698.8	117.7
699.0	117.6
699.2	118.6
699.4	119.0
699.6	115.8
699.8	113.2
700.0	112.4
700.2	112.2
700.4	112.6
700.6	111.9
700.8	109.7
701.0	109.0
701.2	109.5
701.4	109.5
701.6	109.2
701.8	107.7
702.0	106.5
702.2	107.1
702.4	107.5
702.6	106.8
702.8	105.9
703.0	104.7
703.2	102.8
703.4	102.9
703.6	102.6
703.8	101.0
704.0	100.8
704.2	100.8
704.4	101.0
704.6	101.2
704.8	100.6
705.0	98.40
705.2	96.72
705.4	97.39
705.6	97.84
705.8	97.20
706.0	95.55
706.2	93.51
706.4	91.49
706.6	93.28
706.8	93.19
707.0	92.64
707.2	91.72
707.4	90.28
707.6	88.30
707.8	89.07
708.0	88.46
708.2	87.35
708.4	87.39
708.6	86.35
708.8	85.03
709.0	85.46
709.2	85.51
709.4	85.26
709.6	85.20
709.8	84.92
710.0	83.60
710.2	82.42
710.4	81.77
710.6	81.34
710.8	81.77
711.0	82.58
711.2	82.80
711.4	81.82
711.6	79.76
711.8	78.36
712.0	77.66
712.2	76.96
712.4	77.52
712.6	76.93
712.8	76.08
713.0	75.44
713.2	74.67
713.4	74.12
713.6	74.52
713.8	74.11
714.0	74.59
714.2	73.72
714.4	72.96
714.6	72.15
714.8	71.44
715.0	70.29
715.2	69.85
715.4	68.69
715.6	69.20
715.8	69.64
716.0	69.81
716.2	69.42
716.4	68.21
716.6	66.17
716.8	66.63
717.0	66.82
717.2	66.71
717.4	66.53
717.6	65.59
717.8	64.30
718.0	64.50
718.2	62.84
718.4	62.31
718.6	61.39
718.8	61.16
719.0	60.50
719.2	61.01
719.4	60.80
719.6	60.63
719.8	59.95
720.0	59.86
720.2	58.80
720.4	58.84
720.6	58.06
720.8	57.14
721.0	57.34
721.2	57.42
721.4	56.69
721.6	56.13
721.8	54.35
722.0	53.95
722.2	54.16
