Sample:	'20211010A(EM)
File name:	G-Ni 0.FDS
Run date:	'14:48:10, 06/19/2023
Operator:	Administrator
Comment:	'

Instrument
Model:	F-4700 FL Spectrophotometer
Serial number:	2019-001
ROM Version:	5J24010 00

Instrument parameters
Measurement type:	Wavelength scan
Scan mode:	Emission
Data mode:	Fluorescence
EX WL:	400.0 nm
EM  Start WL:	420.0 nm
EM  End WL:	800.0 nm
Scan speed:	1200 nm/min
Delay:	0.0 s
EX Slit:	10.0 nm
EM Slit:	10.0 nm
PMT Voltage:	400 V
Response:	0.002 s
Corrected spectra:	Off
Shutter control:	On

Processing performed
Savitsky-Golay smoothed
Smoothing order:	3
Number of points:	7
Number of times:	1

Peak integration
Integration method:	Rectangular
Sensitivity:	1
Threshold:	1.000

Peaks
No.	Start(nm)	Apex(nm)	End(nm)	Height(Data)	Valley(nm)	Valley(Data)
1	420.0	537.8	542.0	135.5	542.0	134.0
2	542.0	543.2	800.0	135.4	800.0	0.316

Data points
nm	Data
420.0	0.128
420.2	0.149
420.4	0.157
420.6	0.157
420.8	0.155
421.0	0.146
421.2	0.153
421.4	0.148
421.6	0.123
421.8	0.154
422.0	0.166
422.2	0.177
422.4	0.186
422.6	0.147
422.8	0.110
423.0	0.122
423.2	0.134
423.4	0.183
423.6	0.209
423.8	0.204
424.0	0.185
424.2	0.173
424.4	0.153
424.6	0.159
424.8	0.148
425.0	0.151
425.2	0.134
425.4	0.128
425.6	0.139
425.8	0.157
426.0	0.153
426.2	0.162
426.4	0.155
426.6	0.161
426.8	0.183
427.0	0.166
427.2	0.137
427.4	0.127
427.6	0.104
427.8	0.130
428.0	0.155
428.2	0.144
428.4	0.141
428.6	0.148
428.8	0.126
429.0	0.147
429.2	0.137
429.4	0.120
429.6	0.114
429.8	0.148
430.0	0.162
430.2	0.188
430.4	0.169
430.6	0.151
430.8	0.146
431.0	0.145
431.2	0.135
431.4	0.138
431.6	0.151
431.8	0.155
432.0	0.184
432.2	0.192
432.4	0.185
432.6	0.173
432.8	0.163
433.0	0.149
433.2	0.140
433.4	0.134
433.6	0.122
433.8	0.123
434.0	0.118
434.2	0.135
434.4	0.156
434.6	0.174
434.8	0.178
435.0	0.173
435.2	0.131
435.4	0.129
435.6	0.143
435.8	0.146
436.0	0.142
436.2	0.144
436.4	0.139
436.6	0.162
436.8	0.156
437.0	0.142
437.2	0.156
437.4	0.164
437.6	0.192
437.8	0.184
438.0	0.133
438.2	0.113
438.4	0.132
438.6	0.118
438.8	0.152
439.0	0.171
439.2	0.150
439.4	0.152
439.6	0.174
439.8	0.161
440.0	0.184
440.2	0.194
440.4	0.158
440.6	0.136
440.8	0.147
441.0	0.133
441.2	0.153
441.4	0.152
441.6	0.141
441.8	0.153
442.0	0.160
442.2	0.166
442.4	0.189
442.6	0.181
442.8	0.151
443.0	0.167
443.2	0.132
443.4	0.156
443.6	0.165
443.8	0.172
444.0	0.150
444.2	0.157
444.4	0.111
444.6	0.159
444.8	0.165
445.0	0.190
445.2	0.180
445.4	0.169
445.6	0.146
445.8	0.187
446.0	0.174
446.2	0.176
446.4	0.155
446.6	0.148
446.8	0.138
447.0	0.162
447.2	0.151
447.4	0.180
447.6	0.198
447.8	0.187
448.0	0.152
448.2	0.154
448.4	0.131
448.6	0.129
448.8	0.163
449.0	0.161
449.2	0.167
449.4	0.164
449.6	0.141
449.8	0.120
450.0	0.150
450.2	0.158
450.4	0.169
450.6	0.172
450.8	0.157
451.0	0.149
451.2	0.163
451.4	0.191
451.6	0.189
451.8	0.202
452.0	0.158
452.2	0.151
452.4	0.128
452.6	0.161
452.8	0.182
453.0	0.210
453.2	0.177
453.4	0.189
453.6	0.144
453.8	0.158
454.0	0.169
454.2	0.188
454.4	0.196
454.6	0.215
454.8	0.201
455.0	0.220
455.2	0.204
455.4	0.189
455.6	0.186
455.8	0.177
456.0	0.168
456.2	0.198
456.4	0.185
456.6	0.173
456.8	0.159
457.0	0.154
457.2	0.182
457.4	0.231
457.6	0.207
457.8	0.202
458.0	0.156
458.2	0.126
458.4	0.140
458.6	0.184
458.8	0.177
459.0	0.196
459.2	0.187
459.4	0.173
459.6	0.151
459.8	0.157
460.0	0.142
460.2	0.153
460.4	0.171
460.6	0.174
460.8	0.185
461.0	0.227
461.2	0.211
461.4	0.235
461.6	0.208
461.8	0.168
462.0	0.167
462.2	0.177
462.4	0.160
462.6	0.194
462.8	0.207
463.0	0.227
463.2	0.246
463.4	0.224
463.6	0.199
463.8	0.199
464.0	0.198
464.2	0.229
464.4	0.230
464.6	0.213
464.8	0.204
465.0	0.206
465.2	0.197
465.4	0.207
465.6	0.184
465.8	0.198
466.0	0.225
466.2	0.235
466.4	0.245
466.6	0.241
466.8	0.218
467.0	0.258
467.2	0.289
467.4	0.290
467.6	0.287
467.8	0.304
468.0	0.285
468.2	0.305
468.4	0.329
468.6	0.304
468.8	0.305
469.0	0.327
469.2	0.324
469.4	0.350
469.6	0.365
469.8	0.317
470.0	0.323
470.2	0.325
470.4	0.317
470.6	0.367
470.8	0.384
471.0	0.384
471.2	0.383
471.4	0.406
471.6	0.407
471.8	0.458
472.0	0.464
472.2	0.480
472.4	0.461
472.6	0.440
472.8	0.431
473.0	0.470
473.2	0.481
473.4	0.524
473.6	0.552
473.8	0.545
474.0	0.565
474.2	0.611
474.4	0.597
474.6	0.655
474.8	0.677
475.0	0.696
475.2	0.724
475.4	0.732
475.6	0.702
475.8	0.760
476.0	0.801
476.2	0.804
476.4	0.823
476.6	0.845
476.8	0.839
477.0	0.888
477.2	0.953
477.4	0.960
477.6	1.044
477.8	1.150
478.0	1.181
478.2	1.204
478.4	1.192
478.6	1.184
478.8	1.213
479.0	1.256
479.2	1.272
479.4	1.288
479.6	1.355
479.8	1.461
480.0	1.559
480.2	1.595
480.4	1.642
480.6	1.621
480.8	1.732
481.0	1.773
481.2	1.847
481.4	1.952
481.6	2.079
481.8	2.138
482.0	2.242
482.2	2.321
482.4	2.343
482.6	2.404
482.8	2.517
483.0	2.573
483.2	2.658
483.4	2.774
483.6	2.788
483.8	2.918
484.0	3.087
484.2	3.205
484.4	3.331
484.6	3.397
484.8	3.451
485.0	3.688
485.2	3.787
485.4	3.936
485.6	4.049
485.8	4.100
486.0	4.172
486.2	4.387
486.4	4.475
486.6	4.764
486.8	5.022
487.0	5.133
487.2	5.287
487.4	5.411
487.6	5.439
487.8	5.630
488.0	5.812
488.2	5.924
488.4	6.228
488.6	6.468
488.8	6.675
489.0	6.849
489.2	6.994
489.4	7.121
489.6	7.414
489.8	7.657
490.0	7.985
490.2	8.215
490.4	8.465
490.6	8.698
490.8	9.045
491.0	9.301
491.2	9.692
491.4	9.873
491.6	10.14
491.8	10.49
492.0	10.88
492.2	11.23
492.4	11.51
492.6	11.64
492.8	11.86
493.0	12.28
493.2	12.66
493.4	13.16
493.6	13.59
493.8	13.97
494.0	14.27
494.2	14.71
494.4	15.07
494.6	15.47
494.8	15.98
495.0	16.32
495.2	16.69
495.4	17.14
495.6	17.69
495.8	18.29
496.0	18.79
496.2	19.21
496.4	19.49
496.6	19.93
496.8	20.29
497.0	21.01
497.2	21.41
497.4	21.95
497.6	22.47
497.8	22.88
498.0	23.21
498.2	23.83
498.4	24.18
498.6	24.63
498.8	25.33
499.0	26.04
499.2	26.72
499.4	27.42
499.6	28.15
499.8	28.77
500.0	29.33
500.2	30.04
500.4	30.50
500.6	30.83
500.8	31.37
501.0	32.22
501.2	33.01
501.4	33.89
501.6	34.83
501.8	35.21
502.0	35.49
502.2	36.04
502.4	36.53
502.6	37.24
502.8	38.24
503.0	39.25
503.2	40.33
503.4	41.18
503.6	41.66
503.8	42.25
504.0	42.86
504.2	43.73
504.4	44.68
504.6	45.51
504.8	46.21
505.0	46.83
505.2	47.71
505.4	48.87
505.6	49.74
505.8	50.62
506.0	51.29
506.2	51.72
506.4	52.31
506.6	53.20
506.8	54.14
507.0	54.97
507.2	55.96
507.4	56.97
507.6	57.39
507.8	58.19
508.0	58.98
508.2	59.78
508.4	60.59
508.6	61.57
508.8	62.15
509.0	63.36
509.2	64.35
509.4	65.46
509.6	65.81
509.8	66.82
510.0	67.48
510.2	68.26
510.4	69.14
510.6	70.27
510.8	71.10
511.0	72.55
511.2	73.43
511.4	73.87
511.6	73.87
511.8	74.25
512.0	74.95
512.2	76.29
512.4	77.70
512.6	78.77
512.8	79.47
513.0	80.19
513.2	80.67
513.4	81.41
513.6	82.09
513.8	82.77
514.0	84.06
514.2	85.10
514.4	85.96
514.6	86.91
514.8	87.49
515.0	88.09
515.2	88.88
515.4	89.52
515.6	90.55
515.8	91.41
516.0	92.15
516.2	92.75
516.4	93.55
516.6	94.26
516.8	95.19
517.0	95.70
517.2	96.72
517.4	97.58
517.6	98.13
517.8	98.49
518.0	98.81
518.2	99.25
518.4	100.3
518.6	101.3
518.8	101.7
519.0	102.5
519.2	102.7
519.4	103.7
519.6	104.9
519.8	105.8
520.0	106.1
520.2	107.0
520.4	107.4
520.6	107.9
520.8	108.2
521.0	108.7
521.2	108.7
521.4	109.9
521.6	111.4
521.8	112.3
522.0	112.9
522.2	113.3
522.4	113.1
522.6	113.6
522.8	114.5
523.0	115.1
523.2	115.8
523.4	116.7
523.6	116.6
523.8	117.3
524.0	118.1
524.2	118.0
524.4	119.3
524.6	120.0
524.8	119.3
525.0	120.0
525.2	120.4
525.4	120.0
525.6	120.5
525.8	121.1
526.0	121.3
526.2	122.1
526.4	122.8
526.6	123.4
526.8	123.2
527.0	123.8
527.2	124.5
527.4	124.7
527.6	125.1
527.8	125.5
528.0	125.9
528.2	125.7
528.4	125.9
528.6	126.0
528.8	126.7
529.0	127.4
529.2	128.0
529.4	128.1
529.6	128.3
529.8	128.0
530.0	128.7
530.2	129.2
530.4	129.3
530.6	129.7
530.8	129.6
531.0	129.8
531.2	130.1
531.4	130.6
531.6	131.2
531.8	131.5
532.0	131.2
532.2	131.5
532.4	131.4
532.6	132.0
532.8	132.7
533.0	133.4
533.2	133.7
533.4	133.9
533.6	133.9
533.8	133.5
534.0	133.3
534.2	133.4
534.4	133.5
534.6	133.8
534.8	134.6
535.0	134.5
535.2	134.5
535.4	134.8
535.6	134.3
535.8	134.2
536.0	134.8
536.2	134.5
536.4	134.9
536.6	135.7
536.8	135.4
537.0	135.5
537.2	135.1
537.4	134.5
537.6	135.0
537.8	135.5
538.0	135.5
538.2	135.5
538.4	135.2
538.6	135.1
538.8	135.5
539.0	135.5
539.2	135.1
539.4	134.6
539.6	134.6
539.8	135.2
540.0	135.5
540.2	135.4
540.4	135.1
540.6	134.7
540.8	134.6
541.0	135.2
541.2	134.9
541.4	134.7
541.6	134.4
541.8	134.0
542.0	134.0
542.2	134.2
542.4	134.3
542.6	134.8
542.8	135.2
543.0	135.3
543.2	135.4
543.4	134.8
543.6	134.1
543.8	133.9
544.0	134.0
544.2	134.3
544.4	134.4
544.6	134.3
544.8	133.8
545.0	133.6
545.2	133.2
545.4	133.0
545.6	132.6
545.8	133.0
546.0	132.7
546.2	132.6
546.4	132.3
546.6	132.2
546.8	132.3
547.0	132.2
547.2	132.2
547.4	131.8
547.6	131.6
547.8	131.6
548.0	132.2
548.2	131.8
548.4	131.4
548.6	130.7
548.8	130.0
549.0	129.7
549.2	130.2
549.4	130.5
549.6	130.0
549.8	130.1
550.0	129.6
550.2	128.7
550.4	129.0
550.6	129.5
550.8	128.8
551.0	128.9
551.2	129.1
551.4	128.8
551.6	128.8
551.8	128.7
552.0	128.2
552.2	127.8
552.4	127.7
552.6	127.9
552.8	127.7
553.0	127.4
553.2	127.0
553.4	126.1
553.6	125.7
553.8	125.8
554.0	125.7
554.2	125.6
554.4	125.9
554.6	125.5
554.8	125.4
555.0	125.0
555.2	124.5
555.4	123.8
555.6	123.8
555.8	123.8
556.0	123.3
556.2	122.8
556.4	122.4
556.6	121.7
556.8	121.7
557.0	121.9
557.2	122.0
557.4	121.6
557.6	121.7
557.8	121.2
558.0	120.7
558.2	119.9
558.4	119.7
558.6	119.5
558.8	119.9
559.0	119.6
559.2	119.5
559.4	118.8
559.6	118.4
559.8	118.1
560.0	118.0
560.2	117.3
560.4	117.2
560.6	116.7
560.8	116.4
561.0	116.5
561.2	116.9
561.4	116.5
561.6	116.1
561.8	115.2
562.0	114.8
562.2	115.1
562.4	115.6
562.6	115.3
562.8	114.5
563.0	113.9
563.2	113.5
563.4	113.5
563.6	113.9
563.8	113.5
564.0	112.9
564.2	112.4
564.4	111.6
564.6	111.1
564.8	111.1
565.0	110.7
565.2	110.6
565.4	110.3
565.6	109.9
565.8	109.6
566.0	109.7
566.2	109.6
566.4	109.6
566.6	109.1
566.8	108.3
567.0	107.5
567.2	107.3
567.4	107.5
567.6	107.6
567.8	107.1
568.0	106.0
568.2	105.6
568.4	105.5
568.6	105.8
568.8	105.7
569.0	105.6
569.2	104.5
569.4	104.2
569.6	103.3
569.8	102.7
570.0	102.5
570.2	103.0
570.4	102.6
570.6	102.4
570.8	101.8
571.0	101.4
571.2	101.1
571.4	100.8
571.6	100.3
571.8	100.5
572.0	100.4
572.2	99.83
572.4	98.56
572.6	98.04
572.8	97.67
573.0	98.24
573.2	98.33
573.4	98.27
573.6	97.49
573.8	97.25
574.0	96.64
574.2	96.13
574.4	95.98
574.6	96.16
574.8	95.98
575.0	95.68
575.2	95.18
575.4	94.29
575.6	93.80
575.8	93.84
576.0	93.71
576.2	93.65
576.4	93.17
576.6	92.42
576.8	91.81
577.0	92.31
577.2	92.31
577.4	92.05
577.6	91.45
577.8	90.99
578.0	90.25
578.2	90.10
578.4	89.72
578.6	89.28
578.8	89.15
579.0	89.08
579.2	88.85
579.4	88.51
579.6	88.10
579.8	87.40
580.0	87.20
580.2	86.60
580.4	86.54
580.6	86.47
580.8	86.21
581.0	85.75
581.2	85.18
581.4	84.91
581.6	84.61
581.8	84.17
582.0	83.77
582.2	83.32
582.4	82.63
582.6	83.03
582.8	83.23
583.0	83.15
583.2	82.70
583.4	81.97
583.6	80.87
583.8	80.65
584.0	80.42
584.2	80.53
584.4	80.81
584.6	80.72
584.8	80.15
585.0	79.55
585.2	79.08
585.4	78.50
585.6	78.49
585.8	78.29
586.0	77.69
586.2	77.26
586.4	77.01
586.6	76.36
586.8	76.55
587.0	76.31
587.2	76.03
587.4	75.97
587.6	75.55
587.8	75.11
588.0	74.94
588.2	74.34
588.4	74.06
588.6	73.83
588.8	73.68
589.0	73.58
589.2	73.00
589.4	72.60
589.6	72.11
589.8	72.22
590.0	72.12
590.2	72.11
590.4	71.96
590.6	71.43
590.8	70.78
591.0	70.38
591.2	69.76
591.4	69.38
591.6	69.56
591.8	69.29
592.0	69.44
592.2	68.96
592.4	68.45
592.6	67.88
592.8	67.36
593.0	67.08
593.2	66.82
593.4	66.54
593.6	66.48
593.8	66.16
594.0	65.91
594.2	66.02
594.4	65.85
594.6	65.68
594.8	65.24
595.0	64.66
595.2	64.15
595.4	64.11
595.6	64.23
595.8	64.23
596.0	64.14
596.2	64.00
596.4	63.42
596.6	63.19
596.8	62.69
597.0	62.62
597.2	62.06
597.4	61.71
597.6	61.40
597.8	61.13
598.0	60.93
598.2	61.11
598.4	60.54
598.6	60.34
598.8	59.77
599.0	59.38
599.2	59.25
599.4	59.23
599.6	58.97
599.8	59.00
600.0	58.38
600.2	58.28
600.4	57.64
600.6	57.36
600.8	57.20
601.0	57.26
601.2	57.13
601.4	57.21
601.6	56.86
601.8	56.39
602.0	56.14
602.2	55.72
602.4	55.19
602.6	54.85
602.8	54.83
603.0	54.40
603.2	54.30
603.4	54.26
603.6	53.72
603.8	53.32
604.0	53.06
604.2	52.78
604.4	52.57
604.6	52.69
604.8	52.46
605.0	52.29
605.2	51.80
605.4	51.51
605.6	51.41
605.8	51.51
606.0	51.49
606.2	51.37
606.4	51.01
606.6	50.92
606.8	50.44
607.0	49.81
607.2	49.49
607.4	48.82
607.6	48.60
607.8	48.92
608.0	48.86
608.2	48.48
608.4	48.43
608.6	47.80
608.8	47.41
609.0	47.12
609.2	47.02
609.4	47.07
609.6	47.16
609.8	47.02
610.0	46.89
610.2	46.44
610.4	46.13
610.6	45.89
610.8	45.48
611.0	45.08
611.2	44.97
611.4	44.68
611.6	44.58
611.8	44.08
612.0	43.86
612.2	43.68
612.4	44.02
612.6	43.92
612.8	43.87
613.0	43.40
613.2	42.89
613.4	42.27
613.6	42.45
613.8	42.43
614.0	42.51
614.2	42.28
614.4	41.74
614.6	41.26
614.8	40.99
615.0	40.78
615.2	40.91
615.4	40.87
615.6	40.40
615.8	40.40
616.0	40.24
616.2	39.85
616.4	39.70
616.6	39.55
616.8	38.85
617.0	38.77
617.2	38.82
617.4	38.55
617.6	38.52
617.8	38.53
618.0	38.20
618.2	38.15
618.4	38.03
618.6	37.81
618.8	37.73
619.0	37.46
619.2	37.04
619.4	36.66
619.6	36.43
619.8	36.34
620.0	36.51
620.2	36.42
620.4	36.06
620.6	35.82
620.8	35.40
621.0	35.10
621.2	35.11
621.4	35.02
621.6	34.74
621.8	34.75
622.0	34.61
622.2	34.23
622.4	34.05
622.6	34.03
622.8	33.83
623.0	33.72
623.2	33.68
623.4	33.25
623.6	33.24
623.8	32.94
624.0	32.61
624.2	32.20
624.4	32.06
624.6	31.89
624.8	32.08
625.0	31.96
625.2	31.91
625.4	31.55
625.6	31.41
625.8	31.19
626.0	31.14
626.2	31.15
626.4	31.18
626.6	30.70
626.8	30.36
627.0	30.07
627.2	29.91
627.4	29.60
627.6	29.40
627.8	29.42
628.0	29.57
628.2	29.62
628.4	29.61
628.6	29.24
628.8	28.70
629.0	28.60
629.2	28.60
629.4	28.53
629.6	28.43
629.8	28.29
630.0	28.06
630.2	27.84
630.4	27.70
630.6	27.79
630.8	27.78
631.0	27.44
631.2	27.06
631.4	26.52
631.6	26.21
631.8	26.34
632.0	26.50
632.2	26.11
632.4	25.92
632.6	25.63
632.8	25.54
633.0	25.60
633.2	25.52
633.4	25.41
633.6	25.64
633.8	25.62
634.0	25.34
634.2	25.12
634.4	24.57
634.6	24.32
634.8	24.50
635.0	24.73
635.2	24.72
635.4	24.57
635.6	24.18
635.8	23.83
636.0	23.56
636.2	23.50
636.4	23.36
636.6	23.16
636.8	23.13
637.0	23.08
637.2	22.89
637.4	23.00
637.6	22.76
637.8	22.52
638.0	22.20
638.2	21.95
638.4	21.90
638.6	21.94
638.8	21.89
639.0	21.77
639.2	21.46
639.4	21.46
639.6	21.67
639.8	21.55
640.0	21.49
640.2	21.12
640.4	20.89
640.6	20.64
640.8	20.69
641.0	20.59
641.2	20.63
641.4	20.48
641.6	20.31
641.8	19.91
642.0	19.85
642.2	19.57
642.4	19.57
642.6	19.61
642.8	19.37
643.0	19.27
643.2	19.32
643.4	18.95
643.6	18.87
643.8	18.93
644.0	18.82
644.2	18.71
644.4	18.68
644.6	18.40
644.8	18.32
645.0	18.48
645.2	18.26
645.4	18.00
645.6	17.89
645.8	17.70
646.0	17.65
646.2	17.85
646.4	17.62
646.6	17.46
646.8	17.25
647.0	17.17
647.2	16.89
647.4	16.88
647.6	16.97
647.8	17.10
648.0	17.18
648.2	17.25
648.4	16.78
648.6	16.57
648.8	16.25
649.0	16.06
649.2	15.91
649.4	15.86
649.6	15.67
649.8	15.78
650.0	15.65
650.2	15.64
650.4	15.48
650.6	15.55
650.8	15.56
651.0	15.62
651.2	15.58
651.4	15.18
651.6	14.88
651.8	14.75
652.0	14.67
652.2	14.50
652.4	14.51
652.6	14.47
652.8	14.64
653.0	14.66
653.2	14.48
653.4	14.05
653.6	13.78
653.8	13.82
654.0	13.74
654.2	13.86
654.4	13.93
654.6	13.97
654.8	13.78
655.0	13.72
655.2	13.53
655.4	13.43
655.6	13.44
655.8	13.44
656.0	13.13
656.2	13.10
656.4	13.02
656.6	12.93
656.8	12.94
657.0	12.88
657.2	12.59
657.4	12.56
657.6	12.35
657.8	12.30
658.0	12.28
658.2	12.18
658.4	12.14
658.6	12.24
658.8	12.11
659.0	11.97
659.2	11.78
659.4	11.55
659.6	11.56
659.8	11.50
660.0	11.41
660.2	11.45
660.4	11.55
660.6	11.61
660.8	11.58
661.0	11.51
661.2	11.36
661.4	11.32
661.6	11.26
661.8	11.16
662.0	11.11
662.2	11.12
662.4	10.97
662.6	10.95
662.8	10.83
663.0	10.68
663.2	10.54
663.4	10.34
663.6	10.06
663.8	10.11
664.0	10.30
664.2	10.36
664.4	10.25
664.6	10.13
664.8	9.951
665.0	9.839
665.2	9.869
665.4	9.945
665.6	9.819
665.8	9.605
666.0	9.472
666.2	9.364
666.4	9.448
666.6	9.636
666.8	9.436
667.0	9.189
667.2	9.051
667.4	8.974
667.6	9.057
667.8	9.063
668.0	8.978
668.2	8.895
668.4	8.832
668.6	8.735
668.8	8.668
669.0	8.566
669.2	8.553
669.4	8.555
669.6	8.617
669.8	8.564
670.0	8.387
670.2	8.358
670.4	8.375
670.6	8.513
670.8	8.589
671.0	8.522
671.2	8.281
671.4	8.091
671.6	7.992
671.8	8.065
672.0	7.974
672.2	7.882
672.4	7.896
672.6	7.826
672.8	7.774
673.0	7.820
673.2	7.655
673.4	7.523
673.6	7.550
673.8	7.562
674.0	7.486
674.2	7.462
674.4	7.387
674.6	7.412
674.8	7.343
675.0	7.358
675.2	7.306
675.4	7.268
675.6	7.161
675.8	7.070
676.0	6.913
676.2	6.928
676.4	6.948
676.6	6.978
676.8	6.996
677.0	6.784
677.2	6.621
677.4	6.593
677.6	6.701
677.8	6.881
678.0	6.958
678.2	6.773
678.4	6.547
678.6	6.317
678.8	6.272
679.0	6.387
679.2	6.383
679.4	6.302
679.6	6.291
679.8	6.162
680.0	6.128
680.2	6.177
680.4	6.203
680.6	6.106
680.8	6.098
681.0	5.937
681.2	5.900
681.4	5.876
681.6	5.827
681.8	5.726
682.0	5.701
682.2	5.665
682.4	5.671
682.6	5.776
682.8	5.764
683.0	5.677
683.2	5.676
683.4	5.591
683.6	5.558
683.8	5.581
684.0	5.491
684.2	5.423
684.4	5.391
684.6	5.310
684.8	5.320
685.0	5.309
685.2	5.218
685.4	5.209
685.6	5.092
685.8	5.099
686.0	5.093
686.2	5.125
686.4	5.164
686.6	5.138
686.8	5.076
687.0	5.089
687.2	5.012
687.4	4.911
687.6	4.864
687.8	4.790
688.0	4.794
688.2	4.804
688.4	4.848
688.6	4.807
688.8	4.801
689.0	4.654
689.2	4.606
689.4	4.531
689.6	4.485
689.8	4.484
690.0	4.511
690.2	4.580
690.4	4.674
690.6	4.599
690.8	4.425
691.0	4.307
691.2	4.255
691.4	4.393
691.6	4.481
691.8	4.481
692.0	4.363
692.2	4.243
692.4	4.095
692.6	4.089
692.8	4.068
693.0	4.065
693.2	4.092
693.4	4.134
693.6	4.124
693.8	4.118
694.0	4.100
694.2	3.983
694.4	3.997
694.6	3.959
694.8	3.983
695.0	4.024
695.2	4.002
695.4	3.969
695.6	3.964
695.8	3.829
696.0	3.758
696.2	3.783
696.4	3.666
696.6	3.730
696.8	3.727
697.0	3.614
697.2	3.655
697.4	3.620
697.6	3.574
697.8	3.646
698.0	3.682
698.2	3.548
698.4	3.645
698.6	3.572
698.8	3.532
699.0	3.538
699.2	3.536
699.4	3.534
699.6	3.593
699.8	3.665
700.0	3.574
700.2	3.549
700.4	3.561
700.6	3.535
700.8	3.449
701.0	3.376
701.2	3.191
701.4	3.118
701.6	3.070
701.8	3.081
702.0	3.174
702.2	3.287
702.4	3.336
702.6	3.325
702.8	3.196
703.0	3.109
703.2	3.117
703.4	3.113
703.6	3.075
703.8	3.058
704.0	3.047
704.2	3.050
704.4	3.080
704.6	3.072
704.8	3.032
705.0	3.014
705.2	3.037
705.4	3.067
705.6	3.004
705.8	2.955
706.0	2.874
706.2	2.835
706.4	2.762
706.6	2.748
706.8	2.747
707.0	2.779
707.2	2.862
707.4	2.915
707.6	2.853
707.8	2.756
708.0	2.832
708.2	2.844
708.4	2.874
708.6	2.858
708.8	2.719
709.0	2.685
709.2	2.759
709.4	2.712
709.6	2.664
709.8	2.618
710.0	2.519
710.2	2.562
710.4	2.592
710.6	2.549
710.8	2.639
711.0	2.653
711.2	2.609
711.4	2.469
711.6	2.402
711.8	2.332
712.0	2.452
712.2	2.504
712.4	2.559
712.6	2.507
712.8	2.512
713.0	2.511
713.2	2.427
