Sample:	'20211010A(EM)
File name:	G-Ni 10.FDS
Run date:	'16:21:11, 06/19/2023
Operator:	Administrator
Comment:	'

Instrument
Model:	F-4700 FL Spectrophotometer
Serial number:	2019-001
ROM Version:	5J24010 00

Instrument parameters
Measurement type:	Wavelength scan
Scan mode:	Emission
Data mode:	Fluorescence
EX WL:	400.0 nm
EM  Start WL:	420.0 nm
EM  End WL:	800.0 nm
Scan speed:	1200 nm/min
Delay:	0.0 s
EX Slit:	10.0 nm
EM Slit:	10.0 nm
PMT Voltage:	500 V
Response:	0.002 s
Corrected spectra:	Off
Shutter control:	On

Processing performed
Savitsky-Golay smoothed
Smoothing order:	3
Number of points:	7
Number of times:	1

Peak integration
Integration method:	Rectangular
Sensitivity:	1
Threshold:	1.000

Peaks
No.	Start(nm)	Apex(nm)	End(nm)	Height(Data)	Valley(nm)	Valley(Data)
1	420.0	532.4	533.2	323.4	533.2	317.6
2	533.2	535.0	535.8	324.0	535.8	321.0
3	535.8	537.8	540.8	328.3	540.8	321.4
4	540.8	542.4	543.8	326.4	543.8	318.7
5	543.8	545.2	547.2	324.7	547.2	313.3
6	547.2	547.8	551.0	317.0	551.0	304.8
7	551.0	552.0	554.6	310.2	554.6	293.3
8	554.6	555.8	600.2	297.2	600.2	128.7
9	600.2	600.8	640.8	131.7	640.8	41.85
10	640.8	642.6	661.8	42.88	661.8	20.90
11	661.8	662.6	668.6	22.61	668.6	17.07
12	668.6	669.8	682.0	18.38	682.0	10.47
13	682.0	683.4	778.2	11.62	778.2	0.629

Data points
nm	Data
420.0	0.794
420.2	0.611
420.4	0.445
420.6	0.334
420.8	0.381
421.0	0.483
421.2	0.531
421.4	0.539
421.6	0.435
421.8	0.336
422.0	0.337
422.2	0.442
422.4	0.471
422.6	0.511
422.8	0.404
423.0	0.404
423.2	0.343
423.4	0.279
423.6	0.366
423.8	0.384
424.0	0.447
424.2	0.620
424.4	0.681
424.6	0.574
424.8	0.453
425.0	0.297
425.2	0.248
425.4	0.367
425.6	0.435
425.8	0.466
426.0	0.350
426.2	0.350
426.4	0.383
426.6	0.563
426.8	0.589
427.0	0.613
427.2	0.502
427.4	0.412
427.6	0.464
427.8	0.545
428.0	0.531
428.2	0.462
428.4	0.397
428.6	0.345
428.8	0.361
429.0	0.379
429.2	0.305
429.4	0.289
429.6	0.331
429.8	0.459
430.0	0.534
430.2	0.588
430.4	0.546
430.6	0.514
430.8	0.431
431.0	0.429
431.2	0.393
431.4	0.453
431.6	0.502
431.8	0.468
432.0	0.505
432.2	0.434
432.4	0.352
432.6	0.427
432.8	0.369
433.0	0.343
433.2	0.340
433.4	0.278
433.6	0.267
433.8	0.364
434.0	0.485
434.2	0.581
434.4	0.562
434.6	0.514
434.8	0.455
435.0	0.413
435.2	0.429
435.4	0.416
435.6	0.493
435.8	0.494
436.0	0.500
436.2	0.532
436.4	0.491
436.6	0.444
436.8	0.542
437.0	0.494
437.2	0.471
437.4	0.553
437.6	0.548
437.8	0.486
438.0	0.527
438.2	0.532
438.4	0.502
438.6	0.475
438.8	0.376
439.0	0.335
439.2	0.269
439.4	0.358
439.6	0.415
439.8	0.431
440.0	0.418
440.2	0.433
440.4	0.342
440.6	0.329
440.8	0.301
441.0	0.376
441.2	0.492
441.4	0.664
441.6	0.668
441.8	0.583
442.0	0.410
442.2	0.418
442.4	0.440
442.6	0.578
442.8	0.592
443.0	0.537
443.2	0.504
443.4	0.470
443.6	0.448
443.8	0.524
444.0	0.497
444.2	0.448
444.4	0.474
444.6	0.465
444.8	0.443
445.0	0.441
445.2	0.355
445.4	0.318
445.6	0.278
445.8	0.350
446.0	0.459
446.2	0.520
446.4	0.516
446.6	0.414
446.8	0.263
447.0	0.278
447.2	0.393
447.4	0.416
447.6	0.426
447.8	0.427
448.0	0.445
448.2	0.553
448.4	0.526
448.6	0.453
448.8	0.336
449.0	0.455
449.2	0.580
449.4	0.675
449.6	0.601
449.8	0.565
450.0	0.500
450.2	0.553
450.4	0.538
450.6	0.501
450.8	0.400
451.0	0.389
451.2	0.454
451.4	0.388
451.6	0.443
451.8	0.512
452.0	0.603
452.2	0.742
452.4	0.866
452.6	0.686
452.8	0.658
453.0	0.577
453.2	0.494
453.4	0.452
453.6	0.534
453.8	0.413
454.0	0.459
454.2	0.551
454.4	0.530
454.6	0.468
454.8	0.459
455.0	0.331
455.2	0.336
455.4	0.423
455.6	0.451
455.8	0.534
456.0	0.550
456.2	0.575
456.4	0.592
456.6	0.621
456.8	0.600
457.0	0.607
457.2	0.609
457.4	0.513
457.6	0.459
457.8	0.522
458.0	0.544
458.2	0.563
458.4	0.561
458.6	0.448
458.8	0.454
459.0	0.525
459.2	0.573
459.4	0.586
459.6	0.548
459.8	0.484
460.0	0.389
460.2	0.392
460.4	0.494
460.6	0.470
460.8	0.550
461.0	0.610
461.2	0.545
461.4	0.567
461.6	0.574
461.8	0.456
462.0	0.438
462.2	0.525
462.4	0.571
462.6	0.640
462.8	0.592
463.0	0.527
463.2	0.513
463.4	0.509
463.6	0.541
463.8	0.621
464.0	0.519
464.2	0.526
464.4	0.523
464.6	0.468
464.8	0.549
465.0	0.611
465.2	0.527
465.4	0.590
465.6	0.599
465.8	0.564
466.0	0.612
466.2	0.645
466.4	0.689
466.6	0.771
466.8	0.726
467.0	0.735
467.2	0.742
467.4	0.924
467.6	1.013
467.8	1.020
468.0	0.743
468.2	0.764
468.4	0.654
468.6	0.670
468.8	0.635
469.0	0.665
469.2	0.658
469.4	0.837
469.6	0.806
469.8	0.719
470.0	0.645
470.2	0.628
470.4	0.719
470.6	0.795
470.8	0.890
471.0	0.823
471.2	0.862
471.4	0.875
471.6	0.949
471.8	0.973
472.0	1.149
472.2	1.167
472.4	1.220
472.6	1.250
472.8	1.318
473.0	1.213
473.2	1.221
473.4	1.164
473.6	1.170
473.8	1.240
474.0	1.544
474.2	1.613
474.4	1.678
474.6	1.707
474.8	1.697
475.0	1.624
475.2	1.761
475.4	1.834
475.6	1.746
475.8	1.887
476.0	1.982
476.2	2.048
476.4	2.119
476.6	2.129
476.8	2.103
477.0	2.321
477.2	2.388
477.4	2.530
477.6	2.609
477.8	2.654
478.0	2.659
478.2	2.832
478.4	2.623
478.6	2.566
478.8	2.569
479.0	2.769
479.2	2.823
479.4	3.228
479.6	3.139
479.8	3.315
480.0	3.488
480.2	3.754
480.4	3.962
480.6	4.120
480.8	4.017
481.0	4.300
481.2	4.448
481.4	4.739
481.6	4.646
481.8	4.754
482.0	4.868
482.2	5.119
482.4	5.364
482.6	5.786
482.8	5.764
483.0	6.116
483.2	6.387
483.4	6.331
483.6	6.357
483.8	6.317
484.0	6.651
484.2	7.068
484.4	7.498
484.6	7.769
484.8	7.800
485.0	7.652
485.2	8.064
485.4	8.556
485.6	9.077
485.8	9.625
486.0	9.952
486.2	10.29
486.4	10.61
486.6	10.92
486.8	11.24
487.0	11.55
487.2	11.74
487.4	12.52
487.6	13.20
487.8	13.51
488.0	14.43
488.2	14.88
488.4	14.80
488.6	15.15
488.8	15.22
489.0	15.18
489.2	16.21
489.4	16.97
489.6	17.83
489.8	18.17
490.0	18.91
490.2	19.54
490.4	19.97
490.6	20.60
490.8	21.27
491.0	21.31
491.2	22.38
491.4	22.97
491.6	23.50
491.8	24.66
492.0	25.73
492.2	27.02
492.4	28.10
492.6	28.08
492.8	28.19
493.0	28.53
493.2	28.97
493.4	30.21
493.6	31.74
493.8	32.12
494.0	32.69
494.2	33.71
494.4	34.36
494.6	35.26
494.8	37.00
495.0	38.22
495.2	39.63
495.4	40.88
495.6	41.48
495.8	41.94
496.0	42.97
496.2	43.93
496.4	44.96
496.6	46.56
496.8	47.68
497.0	49.31
497.2	50.22
497.4	51.10
497.6	52.68
497.8	54.56
498.0	56.00
498.2	57.65
498.4	58.45
498.6	58.68
498.8	59.98
499.0	60.73
499.2	61.34
499.4	63.20
499.6	65.94
499.8	67.54
500.0	70.08
500.2	71.78
500.4	72.86
500.6	75.14
500.8	76.46
501.0	77.03
501.2	78.65
501.4	80.16
501.6	81.85
501.8	83.32
502.0	84.19
502.2	85.52
502.4	87.25
502.6	89.31
502.8	90.89
503.0	91.49
503.2	92.65
503.4	94.79
503.6	97.51
503.8	101.1
504.0	104.2
504.2	107.0
504.4	107.9
504.6	109.9
504.8	111.0
505.0	112.1
505.2	114.1
505.4	116.2
505.6	117.7
505.8	120.6
506.0	121.7
506.2	122.8
506.4	125.3
506.6	126.9
506.8	128.9
507.0	131.1
507.2	132.8
507.4	134.6
507.6	137.1
507.8	139.9
508.0	142.7
508.2	144.7
508.4	145.7
508.6	145.5
508.8	148.1
509.0	152.0
509.2	155.7
509.4	157.0
509.6	157.7
509.8	156.6
510.0	160.1
510.2	163.3
510.4	166.6
510.6	168.7
510.8	171.0
511.0	171.6
511.2	174.3
511.4	174.6
511.6	178.2
511.8	181.9
512.0	183.6
512.2	185.8
512.4	187.1
512.6	186.6
512.8	188.9
513.0	191.7
513.2	193.3
513.4	196.6
513.6	198.8
513.8	200.8
514.0	202.2
514.2	204.6
514.4	206.5
514.6	207.6
514.8	210.2
515.0	213.2
515.2	213.7
515.4	216.7
515.6	218.1
515.8	219.7
516.0	223.8
516.2	225.0
516.4	226.4
516.6	228.9
516.8	230.0
517.0	232.1
517.2	234.0
517.4	234.8
517.6	237.0
517.8	240.1
518.0	242.4
518.2	245.5
518.4	246.1
518.6	246.5
518.8	245.1
519.0	247.2
519.2	248.2
519.4	251.2
519.6	254.2
519.8	256.6
520.0	257.3
520.2	257.7
520.4	259.6
520.6	261.3
520.8	263.8
521.0	265.1
521.2	264.8
521.4	263.7
521.6	264.8
521.8	267.7
522.0	271.4
522.2	274.2
522.4	276.1
522.6	275.8
522.8	275.7
523.0	277.1
523.2	278.5
523.4	278.6
523.6	280.2
523.8	281.8
524.0	285.1
524.2	286.7
524.4	287.7
524.6	287.5
524.8	288.8
525.0	293.3
525.2	295.7
525.4	296.5
525.6	296.1
525.8	294.4
526.0	292.6
526.2	294.2
526.4	295.3
526.6	299.3
526.8	301.9
527.0	304.5
527.2	304.2
527.4	304.6
527.6	303.4
527.8	303.2
528.0	303.3
528.2	305.9
528.4	307.2
528.6	309.0
528.8	308.9
529.0	308.7
529.2	308.7
529.4	309.7
529.6	309.2
529.8	309.3
530.0	309.7
530.2	312.1
530.4	314.2
530.6	315.5
530.8	315.9
531.0	315.6
531.2	314.9
531.4	314.8
531.6	315.8
531.8	318.2
532.0	320.4
532.2	322.8
532.4	323.4
532.6	320.6
532.8	319.7
533.0	318.9
533.2	317.6
533.4	318.4
533.6	317.9
533.8	318.4
534.0	319.8
534.2	320.4
534.4	321.4
534.6	322.5
534.8	323.2
535.0	324.0
535.2	323.7
535.4	323.3
535.6	322.2
535.8	321.0
536.0	322.5
536.2	323.9
536.4	324.8
536.6	326.4
536.8	325.1
537.0	323.6
537.2	325.3
537.4	327.0
537.6	327.0
537.8	328.3
538.0	326.4
538.2	324.3
538.4	325.0
538.6	326.4
538.8	326.7
539.0	328.0
539.2	326.6
539.4	323.7
539.6	323.7
539.8	324.5
540.0	325.0
540.2	326.1
540.4	325.5
540.6	324.0
540.8	321.4
541.0	322.6
541.2	324.5
541.4	324.6
541.6	324.9
541.8	324.7
542.0	323.3
542.2	325.1
542.4	326.4
542.6	323.6
542.8	323.8
543.0	324.2
543.2	324.4
543.4	323.8
543.6	321.8
543.8	318.7
544.0	319.1
544.2	318.8
544.4	318.8
544.6	320.3
544.8	322.3
545.0	323.6
545.2	324.7
545.4	323.6
545.6	320.1
545.8	318.4
546.0	317.7
546.2	319.0
546.4	320.3
546.6	320.9
546.8	317.3
547.0	315.1
547.2	313.3
547.4	313.7
547.6	316.1
547.8	317.0
548.0	315.9
548.2	315.4
548.4	315.7
548.6	314.0
548.8	315.4
549.0	315.9
549.2	315.5
549.4	314.0
549.6	313.7
549.8	310.0
550.0	310.8
550.2	311.1
550.4	309.2
550.6	308.1
550.8	307.1
551.0	304.8
551.2	306.2
551.4	307.2
551.6	307.9
551.8	309.9
552.0	310.2
552.2	309.3
552.4	307.6
552.6	305.8
552.8	303.8
553.0	302.8
553.2	301.2
553.4	299.8
553.6	299.3
553.8	298.8
554.0	297.5
554.2	296.2
554.4	293.5
554.6	293.3
554.8	293.4
555.0	295.3
555.2	295.0
555.4	293.7
555.6	294.3
555.8	297.2
556.0	296.4
556.2	296.2
556.4	293.0
556.6	290.7
556.8	290.0
557.0	291.0
557.2	289.8
557.4	289.7
557.6	288.4
557.8	287.8
558.0	284.7
558.2	282.9
558.4	281.7
558.6	282.3
558.8	283.1
559.0	283.2
559.2	284.1
559.4	281.6
559.6	278.8
559.8	278.0
560.0	277.9
560.2	278.3
560.4	280.6
560.6	278.1
560.8	274.9
561.0	275.2
561.2	274.7
561.4	275.8
561.6	277.8
561.8	276.8
562.0	277.0
562.2	277.3
562.4	274.2
562.6	271.7
562.8	270.6
563.0	268.2
563.2	269.7
563.4	269.8
563.6	268.4
563.8	266.7
564.0	263.3
564.2	262.1
564.4	261.2
564.6	263.4
564.8	265.1
565.0	265.4
565.2	263.3
565.4	262.1
565.6	259.0
565.8	258.1
566.0	258.6
566.2	256.8
566.4	254.9
566.6	255.2
566.8	255.6
567.0	254.3
567.2	254.9
567.4	253.2
567.6	251.1
567.8	252.1
568.0	251.9
568.2	251.0
568.4	249.8
568.6	248.5
568.8	246.4
569.0	244.8
569.2	244.7
569.4	244.0
569.6	244.7
569.8	244.9
570.0	244.8
570.2	242.1
570.4	240.8
570.6	238.2
570.8	238.0
571.0	236.7
571.2	238.4
571.4	237.4
571.6	237.2
571.8	236.6
572.0	237.3
572.2	235.6
572.4	235.5
572.6	234.3
572.8	231.9
573.0	229.0
573.2	228.6
573.4	227.5
573.6	226.8
573.8	227.1
574.0	227.0
574.2	227.1
574.4	227.7
574.6	227.5
574.8	224.9
575.0	222.6
575.2	220.2
575.4	219.8
575.6	219.3
575.8	219.4
576.0	217.4
576.2	217.3
576.4	215.3
576.6	214.8
576.8	214.9
577.0	214.7
577.2	213.4
577.4	212.8
577.6	211.6
577.8	211.4
578.0	213.1
578.2	213.3
578.4	213.1
578.6	211.8
578.8	210.0
579.0	207.6
579.2	205.1
579.4	202.2
579.6	202.8
579.8	202.8
580.0	203.4
580.2	202.2
580.4	200.4
580.6	198.0
580.8	197.8
581.0	197.7
581.2	197.1
581.4	196.8
581.6	197.9
581.8	197.6
582.0	197.2
582.2	197.4
582.4	196.6
582.6	196.4
582.8	195.8
583.0	195.1
583.2	192.1
583.4	190.0
583.6	188.9
583.8	188.6
584.0	188.5
584.2	189.4
584.4	188.7
584.6	188.5
584.8	187.2
585.0	186.4
585.2	184.2
585.4	182.0
585.6	180.3
585.8	178.6
586.0	178.7
586.2	178.4
586.4	176.5
586.6	176.1
586.8	175.1
587.0	174.0
587.2	174.0
587.4	173.8
587.6	172.7
587.8	172.0
588.0	171.3
588.2	171.6
588.4	170.9
588.6	170.6
588.8	170.0
589.0	168.6
589.2	167.3
589.4	166.8
589.6	165.2
589.8	164.2
590.0	163.7
590.2	163.7
590.4	164.1
590.6	164.7
590.8	164.9
591.0	164.7
591.2	163.3
591.4	162.1
591.6	161.4
591.8	159.6
592.0	157.3
592.2	155.1
592.4	153.7
592.6	153.4
592.8	152.8
593.0	152.5
593.2	152.1
593.4	151.7
593.6	150.8
593.8	150.6
594.0	149.2
594.2	149.7
594.4	149.1
594.6	147.8
594.8	146.8
595.0	146.1
595.2	145.1
595.4	144.9
595.6	144.0
595.8	143.4
596.0	144.3
596.2	145.4
596.4	145.0
596.6	143.7
596.8	141.2
597.0	139.0
597.2	138.3
597.4	139.1
597.6	139.1
597.8	138.0
598.0	136.9
598.2	136.1
598.4	136.1
598.6	135.6
598.8	135.3
599.0	134.0
599.2	133.0
599.4	132.7
599.6	131.6
599.8	130.0
600.0	128.9
600.2	128.7
600.4	129.7
600.6	131.6
600.8	131.7
601.0	131.3
601.2	129.6
601.4	126.7
601.6	125.9
601.8	125.1
602.0	124.2
602.2	124.6
602.4	124.8
602.6	123.4
602.8	122.4
603.0	121.5
603.2	119.9
603.4	119.5
603.6	119.7
603.8	119.7
604.0	118.7
604.2	118.9
604.4	118.8
604.6	119.1
604.8	118.1
605.0	118.5
605.2	117.6
605.4	116.1
605.6	114.1
605.8	112.7
606.0	111.5
606.2	111.7
606.4	112.8
606.6	112.3
606.8	112.0
607.0	111.3
607.2	111.0
607.4	109.7
607.6	109.3
607.8	109.2
608.0	109.3
608.2	108.9
608.4	108.1
608.6	107.1
608.8	105.8
609.0	105.0
609.2	104.5
609.4	103.5
609.6	103.5
609.8	102.4
610.0	101.9
610.2	101.3
610.4	100.5
610.6	100.1
610.8	99.85
611.0	98.93
611.2	99.43
611.4	99.52
611.6	98.94
611.8	98.32
612.0	97.77
612.2	98.17
612.4	97.61
612.6	96.30
612.8	94.91
613.0	94.27
613.2	94.94
613.4	94.65
613.6	93.58
613.8	93.32
614.0	92.79
614.2	93.40
614.4	92.48
614.6	91.97
614.8	91.12
615.0	90.78
615.2	90.40
615.4	89.60
615.6	89.77
615.8	90.15
616.0	90.20
616.2	89.45
616.4	88.03
616.6	86.76
616.8	86.47
617.0	85.32
617.2	86.06
617.4	86.32
617.6	86.21
617.8	86.81
618.0	86.19
618.2	84.39
618.4	83.81
618.6	83.07
618.8	82.64
619.0	81.28
619.2	80.87
619.4	79.97
619.6	79.10
619.8	79.05
620.0	78.60
620.2	77.70
620.4	77.85
620.6	78.34
620.8	77.34
621.0	77.62
621.2	76.61
621.4	76.37
621.6	75.73
621.8	74.98
622.0	74.53
622.2	75.50
622.4	75.03
622.6	74.79
622.8	74.34
623.0	73.50
623.2	72.78
623.4	72.43
623.6	71.34
623.8	70.83
624.0	71.19
624.2	71.79
624.4	71.61
624.6	71.05
624.8	70.54
625.0	69.51
625.2	68.73
625.4	68.67
625.6	68.42
625.8	68.70
626.0	68.34
626.2	66.86
626.4	64.68
626.6	64.99
626.8	65.23
627.0	65.91
627.2	65.79
627.4	65.36
627.6	63.97
627.8	64.29
628.0	63.62
628.2	62.92
628.4	62.83
628.6	62.85
628.8	62.21
629.0	62.69
629.2	62.27
629.4	61.62
629.6	60.76
629.8	60.18
630.0	59.30
630.2	59.22
630.4	59.55
630.6	59.39
630.8	59.24
631.0	59.42
631.2	59.15
631.4	58.07
631.6	57.08
631.8	56.22
632.0	55.90
632.2	56.08
632.4	56.52
632.6	56.97
632.8	56.80
633.0	55.91
633.2	54.68
633.4	53.33
633.6	52.69
633.8	52.88
634.0	53.05
634.2	52.54
634.4	52.32
634.6	52.07
634.8	51.95
635.0	52.20
635.2	51.52
635.4	50.75
635.6	50.25
635.8	49.89
636.0	49.67
636.2	49.52
636.4	49.04
636.6	48.79
636.8	48.77
637.0	48.26
637.2	48.50
637.4	47.82
637.6	47.84
637.8	47.71
638.0	46.82
638.2	45.99
638.4	45.41
638.6	45.19
638.8	45.49
639.0	45.43
639.2	45.36
639.4	45.69
639.6	45.62
639.8	45.78
640.0	45.32
640.2	43.62
640.4	42.85
640.6	42.38
640.8	41.85
641.0	42.01
641.2	42.19
641.4	42.14
641.6	42.57
641.8	42.74
642.0	42.70
642.2	42.73
642.4	42.40
642.6	42.88
642.8	42.47
643.0	41.14
643.2	40.74
643.4	39.96
643.6	39.31
643.8	39.81
644.0	39.58
644.2	39.47
644.4	39.86
644.6	39.93
644.8	38.75
645.0	38.07
645.2	37.12
645.4	37.07
645.6	36.97
645.8	37.19
646.0	36.39
646.2	36.72
646.4	36.52
646.6	36.73
646.8	36.59
647.0	36.01
647.2	35.73
647.4	35.67
647.6	35.05
647.8	35.01
648.0	35.08
648.2	34.87
648.4	35.12
648.6	34.83
648.8	33.94
649.0	33.45
649.2	33.25
649.4	33.21
649.6	32.97
649.8	33.28
650.0	33.05
650.2	33.17
650.4	32.88
650.6	32.42
650.8	31.34
651.0	31.01
651.2	30.48
651.4	30.95
651.6	31.15
651.8	31.61
652.0	31.10
652.2	30.38
652.4	29.48
652.6	29.23
652.8	29.38
653.0	29.66
653.2	30.10
653.4	29.96
653.6	29.07
653.8	28.23
654.0	27.74
654.2	27.39
654.4	28.00
654.6	28.25
654.8	28.27
655.0	28.14
655.2	27.95
655.4	27.44
655.6	26.84
655.8	26.50
656.0	26.76
656.2	26.66
656.4	26.62
656.6	26.37
656.8	25.99
657.0	26.46
657.2	27.04
657.4	26.62
657.6	25.77
657.8	25.02
658.0	24.45
658.2	24.53
658.4	24.85
658.6	24.66
658.8	24.56
659.0	24.26
659.2	24.01
659.4	23.81
659.6	23.60
659.8	23.42
660.0	23.62
660.2	23.16
660.4	22.72
660.6	22.61
660.8	22.60
661.0	22.12
661.2	22.05
661.4	21.42
661.6	21.00
661.8	20.90
662.0	21.40
662.2	21.82
662.4	22.47
662.6	22.61
662.8	22.12
663.0	21.70
663.2	21.48
663.4	21.46
663.6	21.25
663.8	20.94
664.0	20.61
664.2	20.72
664.4	21.02
664.6	20.96
664.8	20.89
665.0	20.39
665.2	20.04
665.4	19.98
665.6	19.87
665.8	19.91
666.0	20.07
666.2	19.52
666.4	19.10
666.6	18.70
666.8	18.45
667.0	18.64
667.2	18.66
667.4	18.60
667.6	18.98
667.8	18.70
668.0	18.29
668.2	18.04
668.4	17.41
668.6	17.07
668.8	17.31
669.0	17.25
669.2	17.07
669.4	17.34
669.6	18.01
669.8	18.38
670.0	18.33
670.2	17.73
670.4	16.93
670.6	16.33
670.8	16.58
671.0	16.45
671.2	16.28
671.4	16.00
671.6	16.08
671.8	15.97
672.0	15.86
672.2	15.68
672.4	15.83
672.6	15.49
672.8	15.48
673.0	15.47
673.2	15.04
673.4	14.92
673.6	15.01
673.8	14.78
674.0	15.02
674.2	14.99
674.4	14.59
674.6	14.34
674.8	13.95
675.0	13.78
675.2	13.87
675.4	13.96
675.6	14.41
675.8	14.77
676.0	14.34
676.2	13.95
676.4	13.31
676.6	13.19
676.8	13.28
677.0	13.26
677.2	13.06
677.4	13.65
677.6	13.64
677.8	13.96
678.0	13.79
678.2	13.40
678.4	12.98
678.6	12.95
678.8	13.08
679.0	13.45
679.2	13.43
679.4	13.30
679.6	12.62
679.8	12.04
680.0	12.10
680.2	11.94
680.4	11.79
680.6	11.80
680.8	11.56
681.0	11.91
681.2	12.15
681.4	12.06
681.6	11.60
681.8	11.08
682.0	10.47
682.2	10.82
682.4	10.73
682.6	10.75
682.8	10.73
683.0	10.85
683.2	11.00
683.4	11.62
683.6	11.16
683.8	10.80
684.0	10.35
684.2	10.04
684.4	10.24
684.6	10.62
684.8	10.54
685.0	10.55
685.2	10.51
685.4	10.47
685.6	10.42
685.8	10.35
686.0	10.31
686.2	9.899
686.4	9.877
686.6	9.869
686.8	9.536
687.0	9.577
687.2	9.528
687.4	9.453
687.6	9.269
687.8	9.134
688.0	8.814
688.2	8.826
688.4	8.785
688.6	8.947
688.8	8.976
689.0	9.025
689.2	8.830
689.4	9.094
689.6	9.195
689.8	8.986
690.0	9.177
690.2	9.310
690.4	9.305
690.6	9.468
690.8	9.119
691.0	8.684
691.2	8.501
691.4	8.331
691.6	8.192
691.8	7.822
692.0	7.721
692.2	7.998
692.4	8.309
692.6	8.472
692.8	8.562
693.0	8.538
693.2	8.243
693.4	7.991
693.6	7.807
693.8	7.628
694.0	7.440
694.2	7.515
694.4	7.295
694.6	7.378
694.8	7.594
695.0	7.745
695.2	7.697
695.4	7.483
695.6	7.329
695.8	7.117
696.0	7.007
696.2	7.047
696.4	7.163
696.6	7.102
696.8	7.083
697.0	7.022
697.2	6.954
697.4	7.157
697.6	7.030
697.8	6.951
698.0	6.699
698.2	6.574
698.4	6.533
698.6	6.855
698.8	6.734
699.0	6.617
699.2	6.321
699.4	5.990
699.6	6.282
699.8	6.732
700.0	6.820
700.2	6.863
700.4	6.816
700.6	6.316
700.8	6.561
701.0	6.381
701.2	6.091
701.4	6.133
701.6	6.137
701.8	6.096
702.0	6.365
702.2	6.168
702.4	5.914
702.6	5.813
702.8	5.779
703.0	5.904
703.2	5.836
703.4	5.735
703.6	5.752
703.8	5.857
704.0	5.909
704.2	5.626
704.4	5.413
704.6	5.403
704.8	5.646
705.0	5.706
705.2	5.826
705.4	5.523
705.6	5.453
705.8	5.368
706.0	5.524
706.2	5.381
706.4	5.498
706.6	5.313
