Sample:	'20211010A(EM)
File name:	G-Ni 3.FDS
Run date:	'15:39:51, 06/19/2023
Operator:	Administrator
Comment:	'

Instrument
Model:	F-4700 FL Spectrophotometer
Serial number:	2019-001
ROM Version:	5J24010 00

Instrument parameters
Measurement type:	Wavelength scan
Scan mode:	Emission
Data mode:	Fluorescence
EX WL:	400.0 nm
EM  Start WL:	420.0 nm
EM  End WL:	800.0 nm
Scan speed:	1200 nm/min
Delay:	0.0 s
EX Slit:	10.0 nm
EM Slit:	10.0 nm
PMT Voltage:	500 V
Response:	0.002 s
Corrected spectra:	Off
Shutter control:	On

Processing performed
Savitsky-Golay smoothed
Smoothing order:	3
Number of points:	7
Number of times:	1

Peak integration
Integration method:	Rectangular
Sensitivity:	1
Threshold:	1.000

Peaks
No.	Start(nm)	Apex(nm)	End(nm)	Height(Data)	Valley(nm)	Valley(Data)
1	420.0	536.0	537.4	166.3	537.4	163.3
2	537.4	539.0	540.0	165.9	540.0	163.9
3	540.0	540.4	541.2	166.1	541.2	163.7
4	541.2	542.6	544.6	166.9	544.6	162.9
5	544.6	545.4	547.2	165.4	547.2	161.2
6	547.2	548.0	549.4	164.3	549.4	157.8
7	549.4	550.0	554.8	162.3	554.8	151.4
8	554.8	556.4	568.8	154.3	568.8	127.8
9	568.8	569.6	578.2	131.9	578.2	110.6
10	578.2	579.0	637.6	112.5	637.6	27.91
11	637.6	638.6	647.4	29.36	647.4	20.73
12	647.4	648.4	654.4	21.97	654.4	16.78
13	654.4	655.2	669.6	18.00	669.6	10.69
14	669.6	670.4	772.0	11.73	772.0	0.413

Data points
nm	Data
420.0	0.317
420.2	0.484
420.4	0.481
420.6	0.385
420.8	0.298
421.0	0.270
421.2	0.287
421.4	0.290
421.6	0.340
421.8	0.409
422.0	0.377
422.2	0.348
422.4	0.360
422.6	0.357
422.8	0.509
423.0	0.559
423.2	0.498
423.4	0.400
423.6	0.352
423.8	0.343
424.0	0.413
424.2	0.349
424.4	0.319
424.6	0.307
424.8	0.312
425.0	0.303
425.2	0.338
425.4	0.313
425.6	0.275
425.8	0.259
426.0	0.315
426.2	0.342
426.4	0.375
426.6	0.360
426.8	0.284
427.0	0.326
427.2	0.552
427.4	0.625
427.6	0.596
427.8	0.466
428.0	0.315
428.2	0.292
428.4	0.426
428.6	0.454
428.8	0.499
429.0	0.533
429.2	0.558
429.4	0.502
429.6	0.439
429.8	0.336
430.0	0.283
430.2	0.210
430.4	0.244
430.6	0.302
430.8	0.335
431.0	0.362
431.2	0.430
431.4	0.454
431.6	0.474
431.8	0.420
432.0	0.322
432.2	0.307
432.4	0.416
432.6	0.570
432.8	0.571
433.0	0.438
433.2	0.336
433.4	0.296
433.6	0.385
433.8	0.457
434.0	0.522
434.2	0.530
434.4	0.518
434.6	0.443
434.8	0.403
435.0	0.268
435.2	0.269
435.4	0.294
435.6	0.368
435.8	0.401
436.0	0.418
436.2	0.373
436.4	0.264
436.6	0.182
436.8	0.201
437.0	0.157
437.2	0.335
437.4	0.427
437.6	0.401
437.8	0.379
438.0	0.394
438.2	0.316
438.4	0.385
438.6	0.297
438.8	0.295
439.0	0.306
439.2	0.347
439.4	0.391
439.6	0.357
439.8	0.320
440.0	0.400
440.2	0.453
440.4	0.381
440.6	0.368
440.8	0.358
441.0	0.314
441.2	0.355
441.4	0.418
441.6	0.372
441.8	0.380
442.0	0.399
442.2	0.381
442.4	0.366
442.6	0.342
442.8	0.387
443.0	0.429
443.2	0.385
443.4	0.406
443.6	0.444
443.8	0.326
444.0	0.387
444.2	0.439
444.4	0.376
444.6	0.376
444.8	0.432
445.0	0.338
445.2	0.372
445.4	0.347
445.6	0.242
445.8	0.277
446.0	0.320
446.2	0.402
446.4	0.397
446.6	0.360
446.8	0.344
447.0	0.367
447.2	0.405
447.4	0.445
447.6	0.343
447.8	0.348
448.0	0.430
448.2	0.419
448.4	0.358
448.6	0.299
448.8	0.206
449.0	0.218
449.2	0.387
449.4	0.411
449.6	0.365
449.8	0.389
450.0	0.390
450.2	0.341
450.4	0.353
450.6	0.310
450.8	0.270
451.0	0.302
451.2	0.324
451.4	0.258
451.6	0.185
451.8	0.280
452.0	0.331
452.2	0.409
452.4	0.476
452.6	0.429
452.8	0.399
453.0	0.397
453.2	0.392
453.4	0.353
453.6	0.345
453.8	0.294
454.0	0.372
454.2	0.417
454.4	0.450
454.6	0.488
454.8	0.491
455.0	0.399
455.2	0.465
455.4	0.504
455.6	0.439
455.8	0.454
456.0	0.439
456.2	0.370
456.4	0.423
456.6	0.502
456.8	0.466
457.0	0.494
457.2	0.519
457.4	0.501
457.6	0.440
457.8	0.403
458.0	0.291
458.2	0.294
458.4	0.394
458.6	0.503
458.8	0.565
459.0	0.488
459.2	0.314
459.4	0.217
459.6	0.394
459.8	0.557
460.0	0.604
460.2	0.521
460.4	0.335
460.6	0.216
460.8	0.306
461.0	0.364
461.2	0.323
461.4	0.262
461.6	0.217
461.8	0.257
462.0	0.378
462.2	0.441
462.4	0.429
462.6	0.415
462.8	0.488
463.0	0.577
463.2	0.592
463.4	0.518
463.6	0.460
463.8	0.556
464.0	0.574
464.2	0.574
464.4	0.472
464.6	0.404
464.8	0.336
465.0	0.468
465.2	0.417
465.4	0.437
465.6	0.443
465.8	0.496
466.0	0.445
466.2	0.456
466.4	0.342
466.6	0.311
466.8	0.284
467.0	0.340
467.2	0.403
467.4	0.434
467.6	0.482
467.8	0.491
468.0	0.383
468.2	0.397
468.4	0.446
468.6	0.415
468.8	0.470
469.0	0.499
469.2	0.483
469.4	0.588
469.6	0.621
469.8	0.467
470.0	0.401
470.2	0.493
470.4	0.592
470.6	0.639
470.8	0.572
471.0	0.514
471.2	0.446
471.4	0.478
471.6	0.630
471.8	0.700
472.0	0.663
472.2	0.702
472.4	0.674
472.6	0.622
472.8	0.667
473.0	0.665
473.2	0.589
473.4	0.582
473.6	0.686
473.8	0.678
474.0	0.803
474.2	0.817
474.4	0.780
474.6	0.686
474.8	0.702
475.0	0.769
475.2	0.932
475.4	1.021
475.6	0.900
475.8	0.747
476.0	0.857
476.2	0.966
476.4	1.122
476.6	1.240
476.8	1.190
477.0	1.159
477.2	1.151
477.4	1.129
477.6	1.326
477.8	1.353
478.0	1.472
478.2	1.315
478.4	1.242
478.6	1.224
478.8	1.291
479.0	1.256
479.2	1.349
479.4	1.325
479.6	1.570
479.8	1.566
480.0	1.737
480.2	1.795
480.4	1.868
480.6	1.796
480.8	1.925
481.0	1.835
481.2	1.913
481.4	2.020
481.6	2.265
481.8	2.354
482.0	2.480
482.2	2.513
482.4	2.382
482.6	2.279
482.8	2.399
483.0	2.392
483.2	2.522
483.4	2.655
483.6	2.792
483.8	3.097
484.0	3.133
484.2	3.347
484.4	3.674
484.6	3.767
484.8	3.874
485.0	4.044
485.2	3.569
485.4	3.572
485.6	3.823
485.8	4.027
486.0	4.164
486.2	4.342
486.4	4.332
486.6	4.380
486.8	4.716
487.0	4.925
487.2	5.245
487.4	5.467
487.6	5.812
487.8	5.646
488.0	5.777
488.2	5.876
488.4	6.352
488.6	6.823
488.8	7.312
489.0	7.236
489.2	7.470
489.4	7.702
489.6	7.953
489.8	8.052
490.0	8.507
490.2	8.265
490.4	8.402
490.6	8.635
490.8	8.822
491.0	9.559
491.2	10.35
491.4	10.35
491.6	10.60
491.8	10.86
492.0	11.07
492.2	11.72
492.4	11.88
492.6	11.94
492.8	12.13
493.0	12.46
493.2	13.02
493.4	13.50
493.6	14.39
493.8	14.79
494.0	14.71
494.2	14.90
494.4	15.47
494.6	16.00
494.8	16.90
495.0	17.34
495.2	17.44
495.4	17.77
495.6	18.40
495.8	18.99
496.0	19.58
496.2	20.50
496.4	21.11
496.6	21.73
496.8	22.07
497.0	21.84
497.2	22.47
497.4	22.78
497.6	23.55
497.8	24.75
498.0	25.35
498.2	25.36
498.4	26.57
498.6	26.91
498.8	27.41
499.0	27.75
499.2	27.96
499.4	28.32
499.6	29.33
499.8	30.74
500.0	31.93
500.2	32.66
500.4	33.91
500.6	35.14
500.8	35.32
501.0	35.85
501.2	36.48
501.4	36.68
501.6	37.88
501.8	39.66
502.0	40.28
502.2	41.43
502.4	42.25
502.6	42.21
502.8	42.27
503.0	43.14
503.2	43.50
503.4	44.13
503.6	44.87
503.8	45.64
504.0	46.19
504.2	48.36
504.4	49.94
504.6	50.64
504.8	51.66
505.0	52.16
505.2	52.86
505.4	54.16
505.6	55.61
505.8	56.28
506.0	57.68
506.2	58.40
506.4	59.23
506.6	59.69
506.8	61.14
507.0	61.63
507.2	63.16
507.4	64.51
507.6	65.32
507.8	65.84
508.0	66.73
508.2	67.51
508.4	68.86
508.6	70.27
508.8	70.52
509.0	70.57
509.2	70.86
509.4	72.64
509.6	74.45
509.8	75.99
510.0	77.55
510.2	78.83
510.4	79.24
510.6	80.20
510.8	81.67
511.0	82.71
511.2	84.05
511.4	84.85
511.6	85.41
511.8	85.57
512.0	86.35
512.2	87.07
512.4	87.94
512.6	89.66
512.8	91.06
513.0	92.69
513.2	93.21
513.4	94.08
513.6	94.36
513.8	95.80
514.0	96.14
514.2	97.05
514.4	98.04
514.6	99.24
514.8	99.82
515.0	101.8
515.2	103.4
515.4	104.3
515.6	105.6
515.8	106.7
516.0	107.4
516.2	108.1
516.4	109.6
516.6	110.0
516.8	110.9
517.0	112.4
517.2	112.8
517.4	113.1
517.6	114.5
517.8	115.5
518.0	117.0
518.2	118.2
518.4	118.2
518.6	119.2
518.8	120.1
519.0	121.2
519.2	123.3
519.4	123.5
519.6	123.6
519.8	125.5
520.0	127.4
520.2	128.0
520.4	129.6
520.6	129.1
520.8	128.7
521.0	130.4
521.2	131.9
521.4	132.2
521.6	132.4
521.8	132.9
522.0	133.1
522.2	133.7
522.4	134.3
522.6	135.3
522.8	136.5
523.0	138.7
523.2	139.9
523.4	140.1
523.6	139.9
523.8	139.3
524.0	138.4
524.2	139.7
524.4	140.0
524.6	140.9
524.8	142.1
525.0	142.9
525.2	142.6
525.4	143.8
525.6	144.5
525.8	145.0
526.0	145.5
526.2	145.5
526.4	145.1
526.6	146.7
526.8	149.2
527.0	150.5
527.2	151.3
527.4	151.0
527.6	150.7
527.8	152.1
528.0	152.0
528.2	152.5
528.4	152.4
528.6	152.0
528.8	152.5
529.0	152.9
529.2	153.1
529.4	153.7
529.6	154.6
529.8	154.7
530.0	155.4
530.2	157.0
530.4	157.4
530.6	157.0
530.8	156.5
531.0	156.8
531.2	157.8
531.4	159.3
531.6	159.9
531.8	160.4
532.0	158.5
532.2	160.0
532.4	160.5
532.6	160.7
532.8	161.2
533.0	161.6
533.2	160.3
533.4	161.5
533.6	162.1
533.8	161.8
534.0	162.1
534.2	161.0
534.4	161.6
534.6	162.3
534.8	162.7
535.0	161.2
535.2	161.1
535.4	161.2
535.6	162.4
535.8	164.8
536.0	166.3
536.2	165.6
536.4	165.2
536.6	165.9
536.8	165.1
537.0	165.0
537.2	164.4
537.4	163.3
537.6	163.8
537.8	165.4
538.0	165.3
538.2	165.1
538.4	164.9
538.6	165.8
538.8	165.7
539.0	165.9
539.2	165.2
539.4	165.0
539.6	164.5
539.8	164.5
540.0	163.9
540.2	165.3
540.4	166.1
540.6	165.7
540.8	166.0
541.0	164.1
541.2	163.7
541.4	164.7
541.6	164.9
541.8	163.8
542.0	165.1
542.2	166.1
542.4	166.5
542.6	166.9
542.8	166.1
543.0	164.6
543.2	164.8
543.4	166.4
543.6	165.4
543.8	165.4
544.0	164.8
544.2	164.1
544.4	163.8
544.6	162.9
544.8	163.0
545.0	163.6
545.2	165.2
545.4	165.4
545.6	165.3
545.8	163.4
546.0	164.2
546.2	163.6
546.4	164.1
546.6	163.2
546.8	163.6
547.0	161.3
547.2	161.2
547.4	161.7
547.6	162.6
547.8	162.8
548.0	164.3
548.2	162.0
548.4	161.6
548.6	162.7
548.8	162.0
549.0	160.8
549.2	159.5
549.4	157.8
549.6	158.8
549.8	160.8
550.0	162.3
550.2	162.3
550.4	160.2
550.6	159.6
550.8	159.3
551.0	159.1
551.2	160.7
551.4	160.7
551.6	160.3
551.8	159.4
552.0	158.1
552.2	157.8
552.4	157.4
552.6	157.7
552.8	158.1
553.0	157.0
553.2	156.6
553.4	156.2
553.6	154.8
553.8	155.0
554.0	155.2
554.2	155.0
554.4	155.0
554.6	153.1
554.8	151.4
555.0	151.6
555.2	152.6
555.4	152.8
555.6	152.3
555.8	152.3
556.0	152.6
556.2	153.6
556.4	154.3
556.6	154.1
556.8	151.9
557.0	150.7
557.2	149.9
557.4	149.6
557.6	149.1
557.8	150.8
558.0	148.8
558.2	148.3
558.4	147.9
558.6	148.3
558.8	147.0
559.0	147.7
559.2	145.9
559.4	147.0
559.6	146.8
559.8	146.7
560.0	146.5
560.2	147.0
560.4	146.5
560.6	146.3
560.8	145.4
561.0	144.2
561.2	143.9
561.4	143.9
561.6	142.7
561.8	142.1
562.0	143.4
562.2	143.9
562.4	143.5
562.6	142.8
562.8	141.6
563.0	141.0
563.2	141.7
563.4	141.4
563.6	140.5
563.8	139.1
564.0	138.7
564.2	138.4
564.4	138.2
564.6	137.8
564.8	138.3
565.0	138.0
565.2	138.6
565.4	137.7
565.6	136.8
565.8	136.4
566.0	136.6
566.2	135.7
566.4	136.7
566.6	136.1
566.8	135.0
567.0	135.0
567.2	133.2
567.4	132.4
567.6	133.4
567.8	134.8
568.0	134.1
568.2	133.1
568.4	130.3
568.6	128.5
568.8	127.8
569.0	129.0
569.2	129.5
569.4	131.3
569.6	131.9
569.8	131.0
570.0	129.3
570.2	127.4
570.4	126.0
570.6	127.0
570.8	126.7
571.0	125.5
571.2	124.7
571.4	124.1
571.6	124.5
571.8	125.7
572.0	125.2
572.2	124.2
572.4	124.7
572.6	123.3
572.8	122.9
573.0	122.5
573.2	121.6
573.4	121.6
573.6	122.6
573.8	121.3
574.0	121.4
574.2	119.5
574.4	118.1
574.6	118.1
574.8	118.6
575.0	119.7
575.2	119.5
575.4	118.0
575.6	117.6
575.8	117.4
576.0	117.3
576.2	118.0
576.4	116.9
576.6	116.4
576.8	115.9
577.0	115.4
577.2	114.3
577.4	113.2
577.6	112.4
577.8	111.2
578.0	111.2
578.2	110.6
578.4	111.7
578.6	112.1
578.8	112.5
579.0	112.5
579.2	112.3
579.4	110.3
579.6	109.6
579.8	108.6
580.0	107.9
580.2	108.5
580.4	107.3
580.6	108.1
580.8	108.5
581.0	108.8
581.2	107.7
581.4	107.1
581.6	105.6
581.8	104.7
582.0	103.8
582.2	103.0
582.4	102.3
582.6	102.5
582.8	103.5
583.0	103.4
583.2	102.6
583.4	102.0
583.6	102.1
583.8	101.9
584.0	101.5
584.2	102.0
584.4	101.6
584.6	100.4
584.8	100.7
585.0	101.0
585.2	99.53
585.4	99.92
585.6	99.33
585.8	97.82
586.0	97.68
586.2	97.87
586.4	96.34
586.6	96.11
586.8	95.95
587.0	95.58
587.2	95.09
587.4	94.16
587.6	94.06
587.8	94.31
588.0	94.97
588.2	95.31
588.4	93.80
588.6	92.58
588.8	92.52
589.0	92.02
589.2	92.13
589.4	93.28
589.6	91.98
589.8	93.42
590.0	92.44
590.2	90.67
590.4	88.99
590.6	88.42
590.8	87.69
591.0	89.76
591.2	89.54
591.4	88.99
591.6	87.97
591.8	86.86
592.0	86.05
592.2	85.60
592.4	84.79
592.6	83.80
592.8	83.01
593.0	83.85
593.2	84.69
593.4	85.57
593.6	85.51
593.8	84.25
594.0	82.71
594.2	83.24
594.4	83.53
594.6	84.78
594.8	84.59
595.0	82.94
595.2	81.54
595.4	81.09
595.6	80.29
595.8	80.78
596.0	80.59
596.2	79.56
596.4	79.09
596.6	78.74
596.8	78.11
597.0	76.82
597.2	77.43
597.4	77.92
597.6	78.59
597.8	78.69
598.0	78.92
598.2	76.64
598.4	75.87
598.6	74.75
598.8	74.60
599.0	73.89
599.2	74.57
599.4	74.87
599.6	73.97
599.8	73.05
600.0	73.43
600.2	72.64
600.4	72.94
600.6	73.29
600.8	72.64
601.0	71.33
601.2	71.26
601.4	70.87
601.6	71.17
601.8	70.60
602.0	70.25
602.2	70.20
602.4	69.51
602.6	69.25
602.8	68.59
603.0	68.01
603.2	67.31
603.4	67.66
603.6	67.43
603.8	67.46
604.0	66.26
604.2	65.74
604.4	64.55
604.6	64.02
604.8	64.53
605.0	64.56
605.2	63.95
605.4	64.26
605.6	63.78
605.8	64.29
606.0	64.51
606.2	64.78
606.4	63.65
606.6	63.39
606.8	62.85
607.0	62.56
607.2	61.91
607.4	62.24
607.6	60.75
607.8	60.26
608.0	60.67
608.2	60.51
608.4	60.90
608.6	60.92
608.8	60.58
609.0	60.09
609.2	60.26
609.4	59.86
609.6	59.86
609.8	59.22
610.0	59.03
610.2	58.22
610.4	57.66
610.6	56.75
610.8	57.17
611.0	56.84
611.2	57.37
611.4	57.57
611.6	56.71
611.8	55.75
612.0	56.10
612.2	55.69
612.4	55.76
612.6	55.76
612.8	54.54
613.0	53.44
613.2	53.50
613.4	53.59
613.6	53.54
613.8	53.48
614.0	53.09
614.2	52.17
614.4	52.22
614.6	52.33
614.8	52.48
615.0	52.24
615.2	52.44
615.4	51.56
615.6	51.17
615.8	50.57
616.0	50.09
616.2	49.89
616.4	49.39
616.6	48.90
616.8	48.58
617.0	48.15
617.2	49.09
617.4	49.70
617.6	48.82
617.8	48.29
618.0	48.00
618.2	47.64
618.4	47.68
618.6	46.89
618.8	45.67
619.0	45.31
619.2	45.76
619.4	46.37
619.6	46.65
619.8	46.20
620.0	45.74
620.2	45.55
620.4	45.49
620.6	45.89
620.8	46.11
621.0	45.93
621.2	45.74
621.4	44.98
621.6	45.00
621.8	44.51
622.0	43.67
622.2	42.82
622.4	42.30
622.6	41.99
622.8	42.71
623.0	42.63
623.2	42.57
623.4	41.84
623.6	41.23
623.8	40.51
624.0	40.50
624.2	40.34
624.4	40.48
624.6	41.18
624.8	40.76
625.0	40.03
625.2	40.07
625.4	39.23
625.6	39.00
625.8	39.17
626.0	39.41
626.2	39.20
626.4	39.46
626.6	39.32
626.8	39.34
627.0	38.63
627.2	39.24
627.4	38.38
627.6	37.23
627.8	36.55
628.0	36.33
628.2	37.24
628.4	38.37
628.6	37.90
628.8	37.37
629.0	36.15
629.2	35.77
629.4	36.03
629.6	35.75
629.8	34.58
630.0	34.78
630.2	34.76
630.4	35.06
630.6	35.21
630.8	35.04
631.0	34.33
631.2	34.14
631.4	34.38
631.6	34.33
631.8	34.23
632.0	33.77
632.2	33.42
632.4	32.99
632.6	32.70
632.8	32.34
633.0	32.57
633.2	32.32
633.4	32.31
633.6	31.84
633.8	31.78
634.0	30.93
634.2	31.42
634.4	31.62
634.6	31.45
634.8	30.53
635.0	30.13
635.2	29.59
635.4	30.04
635.6	30.82
635.8	30.61
636.0	29.97
636.2	29.39
636.4	29.09
636.6	29.47
636.8	29.82
637.0	29.17
637.2	28.86
637.4	28.46
637.6	27.91
637.8	28.45
638.0	28.85
638.2	29.06
638.4	29.34
638.6	29.36
638.8	28.73
639.0	27.56
639.2	27.58
639.4	27.43
639.6	27.54
639.8	27.47
640.0	27.37
640.2	26.34
640.4	26.79
640.6	26.43
640.8	26.71
641.0	26.22
641.2	25.48
641.4	25.02
641.6	25.31
641.8	25.17
642.0	25.63
642.2	25.47
642.4	25.17
642.6	25.51
642.8	25.66
643.0	25.75
643.2	25.74
643.4	25.39
643.6	24.53
643.8	23.95
644.0	23.35
644.2	23.58
644.4	23.85
644.6	24.02
644.8	24.21
645.0	24.35
645.2	23.68
645.4	23.34
645.6	22.73
645.8	22.08
646.0	22.84
646.2	22.53
646.4	22.03
646.6	21.56
646.8	21.41
647.0	20.93
647.2	21.46
647.4	20.73
647.6	20.91
647.8	20.80
648.0	21.22
648.2	21.73
648.4	21.97
648.6	21.54
648.8	21.50
649.0	20.55
649.2	19.99
649.4	20.23
649.6	20.30
649.8	20.44
650.0	20.53
650.2	19.64
650.4	19.47
650.6	19.46
650.8	19.56
651.0	19.74
651.2	20.09
651.4	19.56
651.6	19.58
651.8	19.47
652.0	19.15
652.2	18.58
652.4	18.63
652.6	18.35
652.8	18.58
653.0	18.83
653.2	18.92
653.4	18.84
653.6	18.42
653.8	17.87
654.0	17.54
654.2	16.97
654.4	16.78
654.6	17.11
654.8	17.04
655.0	17.51
655.2	18.00
655.4	17.94
655.6	17.52
655.8	16.57
656.0	16.18
656.2	15.97
656.4	16.09
656.6	16.03
656.8	16.09
657.0	15.82
657.2	15.91
657.4	16.18
657.6	16.64
657.8	16.26
658.0	15.97
658.2	15.49
658.4	14.79
658.6	15.00
658.8	15.27
659.0	15.14
659.2	14.86
659.4	14.51
659.6	14.24
659.8	14.56
660.0	14.62
660.2	14.86
660.4	14.79
660.6	14.56
660.8	14.32
661.0	14.58
661.2	14.39
661.4	14.57
661.6	14.55
661.8	14.39
662.0	14.07
662.2	14.13
662.4	13.89
662.6	13.84
662.8	13.78
663.0	13.72
663.2	13.43
663.4	13.37
663.6	13.32
663.8	12.99
664.0	12.75
664.2	12.72
664.4	12.52
664.6	12.74
664.8	12.77
665.0	12.45
665.2	12.31
665.4	12.28
665.6	12.33
665.8	12.58
666.0	12.33
666.2	12.25
666.4	12.42
666.6	12.45
666.8	12.65
667.0	12.67
667.2	12.47
667.4	12.35
667.6	11.94
667.8	11.46
668.0	11.53
668.2	11.36
668.4	11.43
668.6	11.70
668.8	11.59
669.0	11.30
669.2	11.40
669.4	10.91
669.6	10.69
669.8	10.81
670.0	11.35
670.2	11.58
670.4	11.73
670.6	11.07
670.8	10.50
671.0	9.891
671.2	10.00
671.4	10.15
671.6	10.12
671.8	10.21
672.0	10.50
672.2	10.31
672.4	10.66
672.6	10.59
672.8	10.22
673.0	9.965
673.2	10.17
673.4	9.982
673.6	10.01
673.8	9.812
674.0	9.434
674.2	9.143
674.4	9.098
674.6	9.313
674.8	9.340
675.0	9.501
675.2	9.387
675.4	9.203
675.6	8.773
675.8	8.884
676.0	8.761
676.2	8.686
676.4	8.797
676.6	8.596
676.8	8.558
677.0	9.039
677.2	9.304
677.4	9.395
677.6	9.491
677.8	8.926
678.0	8.391
678.2	8.221
678.4	7.988
678.6	8.274
678.8	8.547
679.0	8.530
679.2	8.770
679.4	8.563
679.6	7.968
679.8	7.749
680.0	7.129
680.2	7.085
680.4	7.341
680.6	7.486
680.8	7.668
681.0	7.752
681.2	7.595
681.4	7.771
681.6	7.524
681.8	7.466
682.0	7.537
682.2	7.461
682.4	7.513
682.6	7.651
682.8	7.526
683.0	7.565
683.2	7.665
683.4	7.447
683.6	7.007
683.8	6.643
684.0	6.451
684.2	6.574
684.4	6.982
684.6	7.314
684.8	7.219
685.0	7.065
685.2	6.767
685.4	6.599
685.6	6.422
685.8	6.533
686.0	6.539
686.2	6.614
686.4	6.623
686.6	6.720
686.8	6.642
687.0	6.408
687.2	6.141
687.4	6.016
687.6	6.112
687.8	6.260
688.0	6.295
688.2	6.179
688.4	6.217
688.6	6.206
688.8	6.308
689.0	6.456
689.2	6.362
689.4	6.302
689.6	6.192
689.8	5.856
690.0	5.568
690.2	5.511
690.4	5.420
690.6	5.567
690.8	5.558
691.0	5.650
691.2	5.653
691.4	5.655
691.6	5.809
691.8	5.748
692.0	5.665
692.2	5.711
692.4	5.726
692.6	5.454
692.8	5.337
693.0	4.867
693.2	4.802
693.4	5.155
693.6	5.272
693.8	5.314
694.0	5.126
694.2	5.063
694.4	4.807
694.6	4.873
694.8	4.611
695.0	4.732
695.2	4.884
695.4	5.396
695.6	5.313
695.8	5.367
696.0	5.114
696.2	5.050
696.4	5.119
696.6	5.131
696.8	4.914
697.0	4.755
697.2	4.541
697.4	4.561
697.6	4.466
697.8	4.386
698.0	4.357
698.2	4.593
698.4	4.616
698.6	4.851
698.8	4.647
699.0	4.509
699.2	4.577
699.4	4.655
699.6	4.518
699.8	4.411
700.0	4.133
700.2	4.188
700.4	4.507
700.6	4.817
700.8	4.836
701.0	4.666
701.2	4.504
701.4	4.359
701.6	4.232
701.8	4.480
702.0	4.268
702.2	4.227
702.4	4.320
702.6	4.197
702.8	4.027
703.0	3.917
703.2	3.814
703.4	3.813
703.6	4.078
703.8	3.994
704.0	3.965
704.2	3.920
704.4	4.146
704.6	4.130
704.8	4.221
705.0	4.138
705.2	3.986
705.4	3.790
705.6	3.717
705.8	3.497
706.0	3.556
