Sample:	'20211010A(EM)
File name:	G-Ni 1 100.FDS
Run date:	'15:24:38, 06/19/2023
Operator:	Administrator
Comment:	'

Instrument
Model:	F-4700 FL Spectrophotometer
Serial number:	2019-001
ROM Version:	5J24010 00

Instrument parameters
Measurement type:	Wavelength scan
Scan mode:	Emission
Data mode:	Fluorescence
EX WL:	400.0 nm
EM  Start WL:	420.0 nm
EM  End WL:	800.0 nm
Scan speed:	1200 nm/min
Delay:	0.0 s
EX Slit:	10.0 nm
EM Slit:	10.0 nm
PMT Voltage:	500 V
Response:	0.002 s
Corrected spectra:	Off
Shutter control:	On

Processing performed
Savitsky-Golay smoothed
Smoothing order:	3
Number of points:	7
Number of times:	1

Peak integration
Integration method:	Rectangular
Sensitivity:	1
Threshold:	1.000

Peaks
No.	Start(nm)	Apex(nm)	End(nm)	Height(Data)	Valley(nm)	Valley(Data)
1	420.0	547.2	548.4	3725	548.4	3710
2	548.4	550.2	708.4	3733	708.4	76.76
3	708.4	709.2	729.4	80.03	729.4	37.27
4	729.4	730.0	755.0	38.97	755.0	15.29
5	755.0	755.6	756.6	16.79	756.6	14.40
6	756.6	757.2	776.8	15.70	776.8	7.685
7	776.8	778.4	800.0	8.725	800.0	5.696

Data points
nm	Data
420.0	1.440
420.2	1.922
420.4	2.002
420.6	1.850
420.8	1.632
421.0	1.668
421.2	1.728
421.4	1.713
421.6	1.927
421.8	1.903
422.0	1.872
422.2	1.815
422.4	1.598
422.6	1.546
422.8	1.603
423.0	1.607
423.2	1.726
423.4	1.735
423.6	1.723
423.8	1.830
424.0	1.924
424.2	1.936
424.4	2.030
424.6	2.183
424.8	2.169
425.0	2.113
425.2	1.938
425.4	1.818
425.6	1.803
425.8	1.879
426.0	1.910
426.2	1.994
426.4	1.957
426.6	2.084
426.8	2.093
427.0	2.039
427.2	1.963
427.4	2.019
427.6	1.951
427.8	1.895
428.0	1.813
428.2	1.868
428.4	1.798
428.6	1.870
428.8	2.037
429.0	2.031
429.2	2.043
429.4	2.055
429.6	1.909
429.8	1.812
430.0	1.920
430.2	1.942
430.4	2.003
430.6	1.936
430.8	1.869
431.0	1.845
431.2	1.926
431.4	1.880
431.6	1.878
431.8	1.808
432.0	1.877
432.2	1.932
432.4	1.997
432.6	1.923
432.8	1.941
433.0	1.982
433.2	1.985
433.4	2.007
433.6	2.053
433.8	2.031
434.0	1.998
434.2	2.000
434.4	1.882
434.6	1.951
434.8	2.178
435.0	2.188
435.2	1.952
435.4	1.916
435.6	1.892
435.8	1.938
436.0	2.009
436.2	1.857
436.4	1.678
436.6	1.814
436.8	1.997
437.0	2.163
437.2	2.073
437.4	1.979
437.6	1.944
437.8	1.975
438.0	1.949
438.2	1.991
438.4	1.879
438.6	1.866
438.8	1.948
439.0	2.049
439.2	1.904
439.4	1.888
439.6	1.767
439.8	1.655
440.0	1.770
440.2	2.007
440.4	2.049
440.6	2.084
440.8	1.961
441.0	1.874
441.2	1.979
441.4	2.125
441.6	2.187
441.8	2.165
442.0	2.112
442.2	2.138
442.4	2.145
442.6	2.251
442.8	2.100
443.0	2.080
443.2	2.021
443.4	1.945
443.6	1.857
443.8	2.212
444.0	2.405
444.2	2.697
444.4	2.673
444.6	2.376
444.8	1.937
445.0	1.898
445.2	2.017
445.4	2.354
445.6	2.511
445.8	2.504
446.0	2.381
446.2	2.433
446.4	2.367
446.6	2.431
446.8	2.282
447.0	2.248
447.2	2.292
447.4	2.291
447.6	2.189
447.8	2.128
448.0	2.164
448.2	2.256
448.4	2.325
448.6	2.212
448.8	2.172
449.0	2.185
449.2	2.479
449.4	2.564
449.6	2.629
449.8	2.609
450.0	2.395
450.2	2.566
450.4	2.642
450.6	2.521
450.8	2.580
451.0	2.479
451.2	2.356
451.4	2.633
451.6	2.701
451.8	2.604
452.0	2.694
452.2	2.533
452.4	2.504
452.6	2.403
452.8	2.497
453.0	2.562
453.2	2.695
453.4	2.708
453.6	2.652
453.8	2.629
454.0	2.762
454.2	2.793
454.4	2.734
454.6	2.669
454.8	2.799
455.0	2.897
455.2	2.910
455.4	2.899
455.6	2.968
455.8	3.061
456.0	3.310
456.2	3.267
456.4	3.152
456.6	3.045
456.8	3.110
457.0	3.026
457.2	3.256
457.4	3.468
457.6	3.584
457.8	3.587
458.0	3.541
458.2	3.185
458.4	3.331
458.6	3.512
458.8	3.764
459.0	3.795
459.2	3.942
459.4	3.711
459.6	3.609
459.8	3.740
460.0	3.861
460.2	3.823
460.4	4.109
460.6	4.025
460.8	4.158
461.0	4.441
461.2	4.511
461.4	4.517
461.6	4.566
461.8	4.342
462.0	4.372
462.2	4.460
462.4	4.568
462.6	4.729
462.8	4.988
463.0	5.096
463.2	5.067
463.4	5.184
463.6	5.234
463.8	5.412
464.0	5.683
464.2	5.850
464.4	5.675
464.6	6.024
464.8	6.282
465.0	6.500
465.2	6.593
465.4	6.495
465.6	6.173
465.8	6.324
466.0	6.826
466.2	7.097
466.4	7.377
466.6	7.667
466.8	7.947
467.0	7.941
467.2	8.225
467.4	8.040
467.6	7.971
467.8	8.287
468.0	8.585
468.2	8.851
468.4	9.219
468.6	9.521
468.8	9.629
469.0	9.799
469.2	9.740
469.4	9.993
469.6	10.39
469.8	11.07
470.0	11.35
470.2	11.46
470.4	11.62
470.6	12.15
470.8	12.75
471.0	13.04
471.2	13.15
471.4	13.22
471.6	13.60
471.8	14.22
472.0	14.92
472.2	14.92
472.4	14.90
472.6	15.29
472.8	15.66
473.0	16.51
473.2	17.41
473.4	17.60
473.6	17.85
473.8	18.08
474.0	18.45
474.2	19.48
474.4	20.65
474.6	21.29
474.8	22.11
475.0	22.82
475.2	23.94
475.4	24.52
475.6	24.88
475.8	25.27
476.0	25.86
476.2	27.03
476.4	28.27
476.6	28.59
476.8	29.05
477.0	30.55
477.2	31.18
477.4	32.68
477.6	33.78
477.8	34.26
478.0	35.55
478.2	37.37
478.4	37.88
478.6	39.53
478.8	40.16
479.0	40.90
479.2	41.95
479.4	43.39
479.6	44.27
479.8	45.43
480.0	46.61
480.2	48.82
480.4	51.44
480.6	53.15
480.8	54.25
481.0	54.50
481.2	55.76
481.4	57.49
481.6	59.99
481.8	61.78
482.0	63.90
482.2	65.88
482.4	68.64
482.6	69.62
482.8	70.70
483.0	72.34
483.2	74.97
483.4	78.14
483.6	80.75
483.8	82.53
484.0	84.48
484.2	87.32
484.4	89.75
484.6	93.18
484.8	95.51
485.0	98.21
485.2	101.0
485.4	103.9
485.6	104.9
485.8	108.0
486.0	110.8
486.2	113.9
486.4	117.1
486.6	121.0
486.8	123.7
487.0	127.4
487.2	131.3
487.4	135.2
487.6	139.4
487.8	144.5
488.0	147.9
488.2	151.7
488.4	154.8
488.6	157.7
488.8	162.4
489.0	168.2
489.2	172.5
489.4	177.5
489.6	181.3
489.8	184.1
490.0	189.8
490.2	196.5
490.4	201.1
490.6	207.2
490.8	210.8
491.0	213.6
491.2	219.9
491.4	228.6
491.6	235.8
491.8	245.4
492.0	250.4
492.2	255.0
492.4	258.6
492.6	263.1
492.8	268.4
493.0	276.6
493.2	283.0
493.4	290.5
493.6	297.2
493.8	303.8
494.0	312.0
494.2	321.6
494.4	328.3
494.6	336.5
494.8	344.3
495.0	350.3
495.2	358.1
495.4	366.1
495.6	373.3
495.8	383.4
496.0	391.2
496.2	399.7
496.4	408.3
496.6	416.3
496.8	425.7
497.0	436.3
497.2	445.5
497.4	456.2
497.6	465.5
497.8	475.6
498.0	484.8
498.2	494.5
498.4	501.5
498.6	508.1
498.8	519.1
499.0	530.7
499.2	542.5
499.4	559.1
499.6	570.6
499.8	581.5
500.0	591.3
500.2	599.6
500.4	609.1
500.6	620.2
500.8	633.6
501.0	648.9
501.2	660.9
501.4	673.2
501.6	684.2
501.8	693.3
502.0	704.9
502.2	719.1
502.4	733.1
502.6	749.0
502.8	762.7
503.0	775.0
503.2	786.4
503.4	798.0
503.6	810.9
503.8	824.8
504.0	839.8
504.2	854.8
504.4	869.0
504.6	884.1
504.8	900.4
505.0	916.9
505.2	932.7
505.4	945.8
505.6	958.4
505.8	974.2
506.0	985.9
506.2	1000
506.4	1011
506.6	1026
506.8	1045
507.0	1064
507.2	1081
507.4	1098
507.6	1111
507.8	1128
508.0	1144
508.2	1162
508.4	1179
508.6	1198
508.8	1216
509.0	1235
509.2	1251
509.4	1267
509.6	1279
509.8	1295
510.0	1312
510.2	1331
510.4	1349
510.6	1368
510.8	1384
511.0	1398
511.2	1417
511.4	1437
511.6	1453
511.8	1475
512.0	1491
512.2	1506
512.4	1524
512.6	1545
512.8	1559
513.0	1575
513.2	1588
513.4	1609
513.6	1626
513.8	1648
514.0	1670
514.2	1690
514.4	1711
514.6	1732
514.8	1747
515.0	1765
515.2	1787
515.4	1804
515.6	1824
515.8	1842
516.0	1863
516.2	1882
516.4	1901
516.6	1915
516.8	1929
517.0	1944
517.2	1966
517.4	1986
517.6	2005
517.8	2025
518.0	2039
518.2	2056
518.4	2073
518.6	2092
518.8	2107
519.0	2131
519.2	2153
519.4	2178
519.6	2200
519.8	2217
520.0	2229
520.2	2245
520.4	2260
520.6	2278
520.8	2302
521.0	2324
521.2	2343
521.4	2362
521.6	2380
521.8	2393
522.0	2409
522.2	2425
522.4	2436
522.6	2455
522.8	2469
523.0	2484
523.2	2504
523.4	2520
523.6	2538
523.8	2560
524.0	2581
524.2	2599
524.4	2620
524.6	2635
524.8	2650
525.0	2665
525.2	2688
525.4	2701
525.6	2719
525.8	2737
526.0	2753
526.2	2766
526.4	2788
526.6	2799
526.8	2808
527.0	2816
527.2	2828
527.4	2842
527.6	2866
527.8	2890
528.0	2913
528.2	2933
528.4	2949
528.6	2956
528.8	2967
529.0	2977
529.2	2988
529.4	3006
529.6	3015
529.8	3027
530.0	3045
530.2	3060
530.4	3074
530.6	3092
530.8	3105
531.0	3121
531.2	3136
531.4	3147
531.6	3151
531.8	3156
532.0	3169
532.2	3185
532.4	3201
532.6	3216
532.8	3232
533.0	3243
533.2	3254
533.4	3268
533.6	3275
533.8	3292
534.0	3312
534.2	3317
534.4	3323
534.6	3330
534.8	3336
535.0	3351
535.2	3360
535.4	3363
535.6	3372
535.8	3386
536.0	3404
536.2	3420
536.4	3426
536.6	3423
536.8	3431
537.0	3436
537.2	3448
537.4	3465
537.6	3474
537.8	3481
538.0	3495
538.2	3498
538.4	3509
538.6	3523
538.8	3522
539.0	3525
539.2	3529
539.4	3534
539.6	3542
539.8	3552
540.0	3557
540.2	3567
540.4	3574
540.6	3583
540.8	3596
541.0	3603
541.2	3617
541.4	3627
541.6	3624
541.8	3621
542.0	3620
542.2	3617
542.4	3622
542.6	3628
542.8	3637
543.0	3650
543.2	3659
543.4	3666
543.6	3668
543.8	3671
544.0	3679
544.2	3680
544.4	3685
544.6	3687
544.8	3692
545.0	3697
545.2	3702
545.4	3697
545.6	3700
545.8	3701
546.0	3706
546.2	3704
546.4	3704
546.6	3708
546.8	3712
547.0	3718
547.2	3725
547.4	3723
547.6	3721
547.8	3724
548.0	3716
548.2	3713
548.4	3710
548.6	3712
548.8	3719
549.0	3727
549.2	3726
549.4	3730
549.6	3726
549.8	3725
550.0	3727
550.2	3733
550.4	3727
550.6	3726
550.8	3716
551.0	3713
551.2	3719
551.4	3728
551.6	3723
551.8	3727
552.0	3719
552.2	3710
552.4	3708
552.6	3707
552.8	3703
553.0	3713
553.2	3710
553.4	3707
553.6	3704
553.8	3698
554.0	3689
554.2	3694
554.4	3689
554.6	3689
554.8	3687
555.0	3687
555.2	3681
555.4	3682
555.6	3677
555.8	3673
556.0	3675
556.2	3673
556.4	3663
556.6	3648
556.8	3643
557.0	3641
557.2	3650
557.4	3648
557.6	3648
557.8	3637
558.0	3632
558.2	3621
558.4	3617
558.6	3604
558.8	3594
559.0	3580
559.2	3576
559.4	3579
559.6	3585
559.8	3584
560.0	3578
560.2	3570
560.4	3560
560.6	3554
560.8	3547
561.0	3547
561.2	3545
561.4	3543
561.6	3535
561.8	3529
562.0	3520
562.2	3511
562.4	3508
562.6	3508
562.8	3502
563.0	3504
563.2	3495
563.4	3484
563.6	3475
563.8	3470
564.0	3452
564.2	3443
564.4	3432
564.6	3424
564.8	3418
565.0	3419
565.2	3413
565.4	3409
565.6	3402
565.8	3387
566.0	3381
566.2	3381
566.4	3380
566.6	3377
566.8	3366
567.0	3350
567.2	3342
567.4	3341
567.6	3340
567.8	3331
568.0	3315
568.2	3304
568.4	3300
568.6	3298
568.8	3297
569.0	3289
569.2	3277
569.4	3259
569.6	3247
569.8	3236
570.0	3230
570.2	3226
570.4	3223
570.6	3214
570.8	3207
571.0	3202
571.2	3197
571.4	3191
571.6	3182
571.8	3170
572.0	3157
572.2	3142
572.4	3135
572.6	3129
572.8	3118
573.0	3112
573.2	3103
573.4	3089
573.6	3082
573.8	3078
574.0	3071
574.2	3062
574.4	3051
574.6	3042
574.8	3028
575.0	3019
575.2	3013
575.4	3003
575.6	3000
575.8	3002
576.0	2997
576.2	2989
576.4	2983
576.6	2971
576.8	2955
577.0	2939
577.2	2926
577.4	2915
577.6	2914
577.8	2913
578.0	2904
578.2	2895
578.4	2886
578.6	2869
578.8	2857
579.0	2846
579.2	2836
579.4	2833
579.6	2827
579.8	2817
580.0	2808
580.2	2800
580.4	2789
580.6	2782
580.8	2780
581.0	2767
581.2	2754
581.4	2747
581.6	2733
581.8	2727
582.0	2725
582.2	2710
582.4	2697
582.6	2688
582.8	2676
583.0	2669
583.2	2662
583.4	2656
583.6	2648
583.8	2640
584.0	2630
584.2	2617
584.4	2610
584.6	2600
584.8	2589
585.0	2585
585.2	2580
585.4	2573
585.6	2565
585.8	2552
586.0	2541
586.2	2527
586.4	2515
586.6	2506
586.8	2500
587.0	2497
587.2	2493
587.4	2483
587.6	2471
587.8	2459
588.0	2455
588.2	2448
588.4	2436
588.6	2424
588.8	2417
589.0	2409
589.2	2406
589.4	2393
589.6	2377
589.8	2363
590.0	2358
590.2	2353
590.4	2349
590.6	2342
590.8	2330
591.0	2320
591.2	2309
591.4	2300
591.6	2295
591.8	2287
592.0	2279
592.2	2269
592.4	2256
592.6	2245
592.8	2238
593.0	2229
593.2	2225
593.4	2217
593.6	2209
593.8	2193
594.0	2180
594.2	2169
594.4	2161
594.6	2156
594.8	2157
595.0	2149
595.2	2142
595.4	2133
595.6	2118
595.8	2108
596.0	2103
596.2	2096
596.4	2091
596.6	2079
596.8	2062
597.0	2053
597.2	2047
597.4	2043
597.6	2042
597.8	2035
598.0	2028
598.2	2020
598.4	2014
598.6	2006
598.8	1999
599.0	1989
599.2	1977
599.4	1965
599.6	1956
599.8	1945
600.0	1939
600.2	1932
600.4	1923
600.6	1917
600.8	1911
601.0	1905
601.2	1902
601.4	1893
601.6	1879
601.8	1870
602.0	1861
602.2	1856
602.4	1852
602.6	1846
602.8	1839
603.0	1828
603.2	1820
603.4	1812
603.6	1801
603.8	1789
604.0	1781
604.2	1769
604.4	1764
604.6	1758
604.8	1744
605.0	1734
605.2	1727
605.4	1726
605.6	1721
605.8	1715
606.0	1704
606.2	1694
606.4	1683
606.6	1678
606.8	1670
607.0	1663
607.2	1657
607.4	1651
607.6	1643
607.8	1635
608.0	1628
608.2	1619
608.4	1612
608.6	1602
608.8	1594
609.0	1583
609.2	1574
609.4	1570
609.6	1570
609.8	1563
610.0	1556
610.2	1548
610.4	1537
610.6	1529
610.8	1524
611.0	1512
611.2	1504
611.4	1495
611.6	1485
611.8	1475
612.0	1474
612.2	1472
612.4	1470
612.6	1463
612.8	1453
613.0	1444
613.2	1439
613.4	1432
613.6	1426
613.8	1417
614.0	1408
614.2	1401
614.4	1394
614.6	1385
614.8	1384
615.0	1374
615.2	1370
615.4	1362
615.6	1352
615.8	1341
616.0	1335
616.2	1330
616.4	1329
616.6	1322
616.8	1315
617.0	1304
617.2	1293
617.4	1287
617.6	1282
617.8	1272
618.0	1267
618.2	1266
618.4	1259
618.6	1253
618.8	1250
619.0	1244
619.2	1238
619.4	1234
619.6	1224
619.8	1213
620.0	1205
620.2	1198
620.4	1191
620.6	1188
620.8	1188
621.0	1179
621.2	1170
621.4	1159
621.6	1150
621.8	1143
622.0	1145
622.2	1139
622.4	1136
622.6	1129
622.8	1123
623.0	1118
623.2	1112
623.4	1107
623.6	1102
623.8	1092
624.0	1086
624.2	1081
624.4	1074
624.6	1069
624.8	1067
625.0	1062
625.2	1055
625.4	1051
625.6	1042
625.8	1033
626.0	1031
626.2	1025
626.4	1020
626.6	1012
626.8	1006
627.0	998.1
627.2	994.9
627.4	990.3
627.6	986.4
627.8	978.0
628.0	975.5
628.2	971.3
628.4	967.2
628.6	960.6
628.8	953.3
629.0	946.4
629.2	937.6
629.4	932.5
629.6	925.6
629.8	921.3
630.0	915.2
630.2	912.0
630.4	910.0
630.6	905.7
630.8	900.2
631.0	897.6
631.2	889.4
631.4	881.5
631.6	878.5
631.8	871.8
632.0	865.6
632.2	866.2
632.4	861.0
632.6	854.4
632.8	851.3
633.0	844.9
633.2	841.2
633.4	839.9
633.6	834.8
633.8	829.7
634.0	824.4
634.2	818.1
634.4	810.5
634.6	803.7
634.8	796.7
635.0	795.7
635.2	792.6
635.4	794.3
635.6	788.2
635.8	783.2
636.0	777.1
636.2	769.7
636.4	761.3
636.6	759.4
636.8	755.2
637.0	753.3
637.2	752.0
637.4	745.6
637.6	740.0
637.8	736.2
638.0	732.7
638.2	729.1
638.4	722.0
638.6	717.0
638.8	709.6
639.0	704.7
639.2	699.2
639.4	695.7
639.6	691.5
639.8	690.2
640.0	689.4
640.2	686.7
640.4	680.7
640.6	678.3
640.8	679.0
641.0	676.7
641.2	672.4
641.4	667.6
641.6	660.7
641.8	654.8
642.0	651.1
642.2	644.4
642.4	635.2
642.6	632.5
642.8	629.4
643.0	626.8
643.2	627.9
643.4	625.1
643.6	619.7
643.8	615.4
644.0	611.1
644.2	606.8
644.4	605.5
644.6	600.5
644.8	596.5
645.0	593.3
645.2	590.1
645.4	585.0
645.6	579.1
645.8	574.0
646.0	571.8
646.2	570.4
646.4	569.9
646.6	567.0
646.8	563.8
647.0	560.2
647.2	558.0
647.4	554.0
647.6	550.9
647.8	546.4
648.0	541.7
648.2	538.1
648.4	534.5
648.6	528.1
648.8	525.0
649.0	524.4
649.2	523.0
649.4	522.3
649.6	519.2
649.8	511.2
650.0	505.8
650.2	500.4
650.4	498.0
650.6	497.2
650.8	497.4
651.0	495.9
651.2	494.5
651.4	489.2
651.6	487.9
651.8	482.5
652.0	478.0
652.2	475.2
652.4	471.7
652.6	469.6
652.8	468.8
653.0	465.6
653.2	462.4
653.4	459.6
653.6	457.0
653.8	455.5
654.0	449.9
654.2	446.2
654.4	442.0
654.6	437.3
654.8	435.4
655.0	438.1
655.2	437.0
655.4	433.4
655.6	427.8
655.8	423.0
656.0	418.9
656.2	419.6
656.4	418.7
656.6	413.9
656.8	410.1
657.0	408.6
657.2	406.0
657.4	404.4
657.6	401.4
657.8	396.0
658.0	393.3
658.2	391.5
658.4	391.2
658.6	390.9
658.8	387.7
659.0	383.8
659.2	381.7
659.4	379.1
659.6	379.2
659.8	377.8
660.0	375.6
660.2	373.9
660.4	370.3
660.6	367.9
660.8	366.9
661.0	362.7
661.2	359.9
661.4	355.3
661.6	350.4
661.8	349.2
662.0	349.3
662.2	348.1
662.4	347.5
662.6	343.4
662.8	339.1
663.0	335.3
663.2	332.5
663.4	332.6
663.6	333.5
663.8	331.7
664.0	328.5
664.2	324.8
664.4	320.3
664.6	318.9
664.8	318.7
665.0	318.3
665.2	316.9
665.4	314.8
665.6	312.4
665.8	310.3
666.0	307.4
666.2	306.0
666.4	303.6
666.6	300.4
666.8	298.4
667.0	297.2
667.2	297.0
667.4	297.3
667.6	297.0
667.8	294.8
668.0	290.4
668.2	286.1
668.4	282.6
668.6	281.2
668.8	280.4
669.0	279.0
669.2	278.4
669.4	273.6
669.6	270.3
669.8	269.5
670.0	269.7
670.2	268.4
670.4	269.0
670.6	265.9
670.8	263.9
671.0	261.3
671.2	259.2
671.4	255.5
671.6	254.7
671.8	255.4
672.0	255.3
672.2	254.1
672.4	252.2
672.6	249.5
672.8	247.9
673.0	246.1
673.2	244.5
673.4	242.1
673.6	241.3
673.8	239.6
674.0	237.8
674.2	235.0
674.4	233.5
674.6	232.1
674.8	231.8
675.0	230.9
675.2	228.6
675.4	226.1
675.6	224.5
675.8	222.5
676.0	221.9
676.2	219.5
676.4	215.3
676.6	213.4
676.8	212.2
677.0	210.3
677.2	211.3
677.4	209.6
677.6	208.0
677.8	207.7
678.0	207.0
678.2	205.9
678.4	206.3
678.6	203.8
678.8	201.9
679.0	199.7
679.2	196.5
679.4	195.1
679.6	194.1
679.8	193.7
680.0	194.0
680.2	192.3
680.4	189.6
680.6	189.0
680.8	187.5
681.0	186.1
681.2	185.5
681.4	183.5
681.6	181.9
681.8	182.5
682.0	181.8
682.2	179.2
682.4	178.2
682.6	176.3
682.8	174.3
683.0	174.9
683.2	175.1
683.4	173.5
683.6	170.6
683.8	168.6
684.0	166.2
684.2	166.5
684.4	167.3
684.6	167.1
684.8	165.1
685.0	163.7
685.2	162.3
685.4	161.5
685.6	159.7
685.8	157.4
686.0	155.5
686.2	154.6
686.4	155.3
686.6	155.6
686.8	153.9
687.0	150.6
687.2	148.5
687.4	147.6
687.6	148.4
687.8	150.3
688.0	151.4
688.2	149.6
688.4	147.3
688.6	145.6
688.8	144.0
689.0	142.9
689.2	142.9
689.4	140.1
689.6	138.0
689.8	136.9
690.0	135.8
690.2	134.2
690.4	134.0
690.6	134.1
690.8	135.0
691.0	135.1
691.2	133.9
691.4	133.1
691.6	131.5
691.8	131.2
692.0	130.1
692.2	129.4
692.4	127.9
692.6	127.9
692.8	127.2
693.0	125.7
693.2	125.3
693.4	124.5
693.6	123.9
693.8	122.7
694.0	119.9
694.2	118.0
694.4	118.1
694.6	118.7
694.8	119.8
695.0	120.1
695.2	118.3
695.4	117.3
695.6	115.4
695.8	114.0
696.0	113.8
696.2	114.1
696.4	113.6
696.6	112.6
696.8	111.9
697.0	111.0
697.2	110.3
697.4	110.6
697.6	110.4
697.8	109.1
698.0	109.1
698.2	108.7
698.4	107.3
698.6	106.7
698.8	106.2
699.0	105.0
699.2	104.7
699.4	104.0
699.6	103.2
699.8	102.7
700.0	102.2
700.2	101.7
700.4	101.4
700.6	100.8
700.8	100.9
701.0	99.87
701.2	98.37
701.4	97.52
701.6	96.96
701.8	95.87
702.0	95.68
702.2	95.26
702.4	94.42
702.6	94.57
702.8	93.99
703.0	93.55
703.2	93.56
703.4	93.55
703.6	93.31
703.8	92.88
704.0	90.94
704.2	90.82
704.4	90.63
704.6	89.44
704.8	88.88
705.0	87.58
705.2	86.08
705.4	86.44
705.6	87.62
705.8	87.50
706.0	88.32
706.2	86.06
706.4	85.11
706.6	84.37
706.8	83.36
707.0	82.53
707.2	81.68
707.4	80.38
707.6	80.52
707.8	80.41
708.0	79.53
708.2	78.54
708.4	76.76
708.6	76.85
708.8	77.26
709.0	78.91
709.2	80.03
709.4	79.90
709.6	78.29
709.8	76.84
710.0	74.83
710.2	73.99
710.4	73.99
710.6	74.21
710.8	73.55
711.0	73.92
711.2	73.13
711.4	72.70
711.6	72.60
711.8	71.57
712.0	71.06
712.2	70.95
712.4	70.66
712.6	71.04
712.8	69.86
713.0	68.50
713.2	67.64
713.4	67.22
713.6	66.96
713.8	67.58
714.0	66.98
714.2	66.93
714.4	65.37
714.6	64.44
714.8	63.12
715.0	62.82
715.2	63.05
715.4	63.20
715.6	62.68
715.8	62.65
716.0	62.53
716.2	62.11
716.4	62.31
716.6	61.97
716.8	61.54
717.0	60.51
717.2	59.87
717.4	58.69
717.6	58.78
717.8	58.77
718.0	59.03
718.2	58.89
718.4	58.68
718.6	57.94
718.8	57.75
719.0	56.72
719.2	55.73
719.4	55.52
