Sample:	'20211010A(EM)
File name:	G-Ni 4 400.FDS
Run date:	'16:01:07, 06/19/2023
Operator:	Administrator
Comment:	'

Instrument
Model:	F-4700 FL Spectrophotometer
Serial number:	2019-001
ROM Version:	5J24010 00

Instrument parameters
Measurement type:	Wavelength scan
Scan mode:	Emission
Data mode:	Fluorescence
EX WL:	400.0 nm
EM  Start WL:	420.0 nm
EM  End WL:	800.0 nm
Scan speed:	1200 nm/min
Delay:	0.0 s
EX Slit:	10.0 nm
EM Slit:	10.0 nm
PMT Voltage:	500 V
Response:	0.002 s
Corrected spectra:	Off
Shutter control:	On

Processing performed
Savitsky-Golay smoothed
Smoothing order:	3
Number of points:	7
Number of times:	1

Peak integration
Integration method:	Rectangular
Sensitivity:	1
Threshold:	1.000

Peaks
No.	Start(nm)	Apex(nm)	End(nm)	Height(Data)	Valley(nm)	Valley(Data)
1	420.0	547.4	551.2	6897	551.2	6850
2	551.2	552.2	766.8	6862	766.8	15.26
3	766.8	767.8	783.4	16.96	783.4	9.546
4	783.4	793.6	794.4	10.76	794.4	9.656
5	794.4	797.4	800.0	11.77	800.0	10.32

Data points
nm	Data
420.0	2.568
420.2	2.563
420.4	2.634
420.6	2.747
420.8	2.875
421.0	2.905
421.2	2.902
421.4	2.983
421.6	3.090
421.8	3.130
422.0	3.037
422.2	2.901
422.4	2.762
422.6	2.798
422.8	2.659
423.0	2.619
423.2	2.767
423.4	2.815
423.6	2.893
423.8	3.045
424.0	2.802
424.2	2.943
424.4	2.974
424.6	2.764
424.8	2.664
425.0	2.665
425.2	2.628
425.4	2.767
425.6	2.694
425.8	2.640
426.0	2.781
426.2	2.803
426.4	2.733
426.6	2.661
426.8	2.716
427.0	2.695
427.2	2.914
427.4	2.980
427.6	2.753
427.8	2.627
428.0	2.671
428.2	2.691
428.4	2.795
428.6	2.827
428.8	2.804
429.0	2.763
429.2	2.871
429.4	3.077
429.6	3.210
429.8	3.212
430.0	3.234
430.2	3.038
430.4	2.762
430.6	2.661
430.8	2.640
431.0	2.814
431.2	3.002
431.4	3.073
431.6	2.978
431.8	2.923
432.0	2.896
432.2	2.890
432.4	2.915
432.6	3.068
432.8	3.047
433.0	3.030
433.2	3.117
433.4	3.142
433.6	3.075
433.8	3.216
434.0	3.215
434.2	3.050
434.4	2.925
434.6	2.919
434.8	2.863
435.0	2.918
435.2	3.165
435.4	3.097
435.6	2.988
435.8	2.814
436.0	2.959
436.2	2.745
436.4	2.942
436.6	3.322
436.8	3.422
437.0	3.411
437.2	3.696
437.4	3.367
437.6	3.447
437.8	3.642
438.0	3.593
438.2	3.448
438.4	3.389
438.6	3.260
438.8	3.277
439.0	3.033
439.2	2.991
439.4	2.850
439.6	3.116
439.8	3.642
440.0	3.828
440.2	3.711
440.4	3.459
440.6	3.280
440.8	3.361
441.0	3.468
441.2	3.390
441.4	3.424
441.6	3.495
441.8	3.555
442.0	3.554
442.2	3.626
442.4	3.705
442.6	3.728
442.8	3.601
443.0	3.648
443.2	3.729
443.4	3.996
443.6	4.206
443.8	4.155
444.0	3.930
444.2	3.802
444.4	4.013
444.6	4.165
444.8	4.172
445.0	3.985
445.2	3.913
445.4	3.788
445.6	4.013
445.8	4.250
446.0	4.286
446.2	4.166
446.4	4.039
446.6	4.010
446.8	4.084
447.0	4.226
447.2	4.378
447.4	4.482
447.6	4.330
447.8	4.213
448.0	4.218
448.2	4.102
448.4	4.233
448.6	4.318
448.8	4.358
449.0	4.466
449.2	4.607
449.4	4.594
449.6	4.692
449.8	4.645
450.0	4.615
450.2	4.575
450.4	4.712
450.6	4.737
450.8	4.881
451.0	4.931
451.2	4.940
451.4	5.220
451.6	5.390
451.8	5.291
452.0	5.533
452.2	5.361
452.4	5.132
452.6	5.378
452.8	5.493
453.0	5.371
453.2	5.605
453.4	5.290
453.6	5.372
453.8	5.513
454.0	5.709
454.2	5.712
454.4	5.753
454.6	5.679
454.8	6.032
455.0	6.212
455.2	6.302
455.4	6.526
455.6	6.675
455.8	6.677
456.0	6.620
456.2	6.812
456.4	6.778
456.6	7.127
456.8	7.217
457.0	7.139
457.2	7.150
457.4	7.328
457.6	7.229
457.8	7.500
458.0	7.760
458.2	8.032
458.4	8.131
458.6	7.933
458.8	7.856
459.0	8.086
459.2	8.323
459.4	8.885
459.6	8.932
459.8	8.724
460.0	8.488
460.2	8.435
460.4	8.707
460.6	9.404
460.8	9.875
461.0	10.24
461.2	10.07
461.4	9.947
461.6	10.20
461.8	10.47
462.0	10.75
462.2	10.90
462.4	10.99
462.6	10.94
462.8	11.13
463.0	11.41
463.2	11.75
463.4	11.94
463.6	12.17
463.8	12.30
464.0	12.48
464.2	12.95
464.4	13.23
464.6	13.51
464.8	13.54
465.0	14.01
465.2	14.17
465.4	14.59
465.6	14.75
465.8	15.56
466.0	15.84
466.2	16.87
466.4	17.10
466.6	17.11
466.8	17.28
467.0	17.99
467.2	18.02
467.4	18.64
467.6	18.63
467.8	18.95
468.0	19.14
468.2	19.82
468.4	20.46
468.6	20.89
468.8	21.11
469.0	21.97
469.2	22.37
469.4	23.37
469.6	24.73
469.8	25.37
470.0	25.81
470.2	26.86
470.4	27.13
470.6	27.91
470.8	28.57
471.0	28.82
471.2	29.38
471.4	30.48
471.6	31.32
471.8	32.50
472.0	33.30
472.2	35.02
472.4	36.58
472.6	37.71
472.8	38.35
473.0	38.37
473.2	38.86
473.4	40.55
473.6	41.88
473.8	43.03
474.0	44.68
474.2	46.65
474.4	47.43
474.6	47.94
474.8	48.81
475.0	49.81
475.2	51.51
475.4	54.94
475.6	56.50
475.8	58.97
476.0	60.42
476.2	60.71
476.4	60.42
476.6	61.94
476.8	64.28
477.0	68.06
477.2	70.51
477.4	71.94
477.6	72.92
477.8	75.32
478.0	78.52
478.2	81.35
478.4	84.34
478.6	85.32
478.8	86.14
479.0	88.08
479.2	90.31
479.4	93.88
479.6	96.78
479.8	99.35
480.0	102.3
480.2	105.0
480.4	108.4
480.6	112.6
480.8	114.3
481.0	117.9
481.2	121.2
481.4	124.2
481.6	128.0
481.8	132.1
482.0	135.6
482.2	139.5
482.4	142.4
482.6	144.8
482.8	148.3
483.0	154.3
483.2	158.5
483.4	161.8
483.6	165.2
483.8	168.6
484.0	174.4
484.2	182.7
484.4	188.6
484.6	194.5
484.8	199.3
485.0	203.9
485.2	209.9
485.4	215.5
485.6	221.4
485.8	227.5
486.0	233.5
486.2	239.4
486.4	246.3
486.6	252.6
486.8	258.9
487.0	265.6
487.2	272.6
487.4	278.0
487.6	283.9
487.8	293.0
488.0	303.2
488.2	315.1
488.4	324.0
488.6	328.0
488.8	331.4
489.0	338.9
489.2	349.3
489.4	360.1
489.6	370.2
489.8	380.0
490.0	388.6
490.2	398.5
490.4	409.4
490.6	416.7
490.8	424.9
491.0	432.5
491.2	441.5
491.4	455.5
491.6	471.5
491.8	483.8
492.0	497.3
492.2	505.1
492.4	515.4
492.6	526.6
492.8	539.5
493.0	550.1
493.2	564.4
493.4	578.3
493.6	592.5
493.8	604.5
494.0	616.7
494.2	628.5
494.4	641.3
494.6	657.3
494.8	671.2
495.0	688.0
495.2	703.7
495.4	717.1
495.6	731.0
495.8	747.5
496.0	763.4
496.2	782.2
496.4	798.4
496.6	814.1
496.8	830.9
497.0	849.0
497.2	867.0
497.4	884.5
497.6	899.9
497.8	920.6
498.0	938.4
498.2	955.9
498.4	971.1
498.6	988.7
498.8	1004
499.0	1027
499.2	1048
499.4	1074
499.6	1099
499.8	1123
500.0	1142
500.2	1160
500.4	1177
500.6	1199
500.8	1223
501.0	1245
501.2	1267
501.4	1290
501.6	1318
501.8	1342
502.0	1359
502.2	1377
502.4	1399
502.6	1425
502.8	1457
503.0	1483
503.2	1503
503.4	1523
503.6	1548
503.8	1573
504.0	1602
504.2	1630
504.4	1658
504.6	1687
504.8	1716
505.0	1739
505.2	1765
505.4	1794
505.6	1825
505.8	1853
506.0	1879
506.2	1903
506.4	1931
506.6	1969
506.8	2003
507.0	2033
507.2	2058
507.4	2077
507.6	2105
507.8	2136
508.0	2164
508.2	2199
508.4	2226
508.6	2254
508.8	2285
509.0	2317
509.2	2352
509.4	2388
509.6	2417
509.8	2453
510.0	2484
510.2	2517
510.4	2551
510.6	2585
510.8	2617
511.0	2652
511.2	2678
511.4	2708
511.6	2738
511.8	2764
512.0	2798
512.2	2840
512.4	2870
512.6	2908
512.8	2942
513.0	2971
513.2	2996
513.4	3029
513.6	3053
513.8	3094
514.0	3134
514.2	3175
514.4	3202
514.6	3238
514.8	3269
515.0	3307
515.2	3340
515.4	3374
515.6	3411
515.8	3448
516.0	3479
516.2	3513
516.4	3548
516.6	3584
516.8	3616
517.0	3649
517.2	3678
517.4	3710
517.6	3744
517.8	3776
518.0	3816
518.2	3863
518.4	3896
518.6	3920
518.8	3948
519.0	3976
519.2	4020
519.4	4065
519.6	4098
519.8	4127
520.0	4168
520.2	4207
520.4	4249
520.6	4278
520.8	4307
521.0	4328
521.2	4360
521.4	4396
521.6	4435
521.8	4477
522.0	4513
522.2	4543
522.4	4567
522.6	4594
522.8	4626
523.0	4663
523.2	4692
523.4	4718
523.6	4745
523.8	4780
524.0	4813
524.2	4847
524.4	4885
524.6	4917
524.8	4949
525.0	4975
525.2	5002
525.4	5035
525.6	5070
525.8	5101
526.0	5132
526.2	5149
526.4	5174
526.6	5205
526.8	5233
527.0	5258
527.2	5299
527.4	5320
527.6	5348
527.8	5376
528.0	5410
528.2	5440
528.4	5477
528.6	5502
528.8	5531
529.0	5553
529.2	5585
529.4	5611
529.6	5643
529.8	5670
530.0	5691
530.2	5713
530.4	5737
530.6	5748
530.8	5767
531.0	5791
531.2	5817
531.4	5849
531.6	5879
531.8	5904
532.0	5914
532.2	5937
532.4	5956
532.6	5976
532.8	5995
533.0	6031
533.2	6057
533.4	6087
533.6	6110
533.8	6126
534.0	6141
534.2	6157
534.4	6179
534.6	6202
534.8	6233
535.0	6251
535.2	6266
535.4	6271
535.6	6278
535.8	6295
536.0	6323
536.2	6347
536.4	6375
536.6	6391
536.8	6399
537.0	6405
537.2	6420
537.4	6437
537.6	6460
537.8	6478
538.0	6493
538.2	6494
538.4	6513
538.6	6519
538.8	6532
539.0	6554
539.2	6573
539.4	6575
539.6	6587
539.8	6594
540.0	6608
540.2	6625
540.4	6643
540.6	6661
540.8	6665
541.0	6668
541.2	6680
541.4	6695
541.6	6707
541.8	6730
542.0	6726
542.2	6729
542.4	6740
542.6	6758
542.8	6764
543.0	6769
543.2	6762
543.4	6777
543.6	6785
543.8	6789
544.0	6797
544.2	6797
544.4	6799
544.6	6809
544.8	6819
545.0	6821
545.2	6829
545.4	6831
545.6	6844
545.8	6851
546.0	6865
546.2	6860
546.4	6853
546.6	6852
546.8	6864
547.0	6877
547.2	6890
547.4	6897
547.6	6894
547.8	6893
548.0	6893
548.2	6896
548.4	6892
548.6	6893
548.8	6879
549.0	6871
549.2	6869
549.4	6870
549.6	6866
549.8	6866
550.0	6870
550.2	6870
550.4	6869
550.6	6863
550.8	6853
551.0	6852
551.2	6850
551.4	6853
551.6	6854
551.8	6855
552.0	6858
552.2	6862
552.4	6853
552.6	6846
552.8	6830
553.0	6822
553.2	6822
553.4	6825
553.6	6822
553.8	6815
554.0	6811
554.2	6809
554.4	6808
554.6	6797
554.8	6779
555.0	6767
555.2	6761
555.4	6763
555.6	6761
555.8	6755
556.0	6747
556.2	6745
556.4	6738
556.6	6727
556.8	6717
557.0	6712
557.2	6693
557.4	6682
557.6	6672
557.8	6661
558.0	6666
558.2	6661
558.4	6652
558.6	6649
558.8	6638
559.0	6633
559.2	6616
559.4	6596
559.6	6586
559.8	6568
560.0	6553
560.2	6552
560.4	6543
560.6	6541
560.8	6537
561.0	6522
561.2	6512
561.4	6496
561.6	6482
561.8	6460
562.0	6442
562.2	6429
562.4	6425
562.6	6409
562.8	6405
563.0	6395
563.2	6374
563.4	6357
563.6	6357
563.8	6349
564.0	6339
564.2	6326
564.4	6309
564.6	6293
564.8	6286
565.0	6276
565.2	6265
565.4	6246
565.6	6231
565.8	6211
566.0	6190
566.2	6174
566.4	6167
566.6	6151
566.8	6152
567.0	6151
567.2	6140
567.4	6124
567.6	6098
567.8	6073
568.0	6055
568.2	6039
568.4	6015
568.6	6002
568.8	5994
569.0	5981
569.2	5967
569.4	5956
569.6	5935
569.8	5915
570.0	5905
570.2	5886
570.4	5877
570.6	5871
570.8	5851
571.0	5827
571.2	5804
571.4	5779
571.6	5763
571.8	5743
572.0	5722
572.2	5714
572.4	5711
572.6	5702
572.8	5694
573.0	5671
573.2	5654
573.4	5635
573.6	5628
573.8	5603
574.0	5588
574.2	5567
574.4	5556
574.6	5540
574.8	5525
575.0	5500
575.2	5478
575.4	5454
575.6	5441
575.8	5432
576.0	5424
576.2	5409
576.4	5388
576.6	5361
576.8	5345
577.0	5326
577.2	5319
577.4	5309
577.6	5296
577.8	5275
578.0	5249
578.2	5218
578.4	5192
578.6	5183
578.8	5177
579.0	5174
579.2	5161
579.4	5144
579.6	5112
579.8	5085
580.0	5060
580.2	5046
580.4	5028
580.6	5026
580.8	5006
581.0	4988
581.2	4968
581.4	4955
581.6	4933
581.8	4926
582.0	4900
582.2	4884
582.4	4867
582.6	4852
582.8	4844
583.0	4831
583.2	4811
583.4	4790
583.6	4769
583.8	4743
584.0	4731
584.2	4710
584.4	4697
584.6	4681
584.8	4673
585.0	4651
585.2	4638
585.4	4616
585.6	4600
585.8	4578
586.0	4566
586.2	4544
586.4	4524
586.6	4507
586.8	4492
587.0	4470
587.2	4453
587.4	4444
587.6	4431
587.8	4415
588.0	4396
588.2	4379
588.4	4365
588.6	4357
588.8	4352
589.0	4329
589.2	4311
589.4	4300
589.6	4279
589.8	4257
590.0	4241
590.2	4224
590.4	4208
590.6	4188
590.8	4164
591.0	4141
591.2	4123
591.4	4112
591.6	4099
591.8	4087
592.0	4073
592.2	4057
592.4	4037
592.6	4012
592.8	3996
593.0	3977
593.2	3960
593.4	3947
593.6	3934
593.8	3932
594.0	3924
594.2	3908
594.4	3895
594.6	3871
594.8	3850
595.0	3835
595.2	3809
595.4	3787
595.6	3776
595.8	3766
596.0	3750
596.2	3736
596.4	3718
596.6	3701
596.8	3687
597.0	3680
597.2	3664
597.4	3649
597.6	3631
597.8	3620
598.0	3606
598.2	3591
598.4	3574
598.6	3552
598.8	3531
599.0	3518
599.2	3502
599.4	3486
599.6	3468
599.8	3456
600.0	3441
600.2	3431
600.4	3419
600.6	3403
600.8	3382
601.0	3370
601.2	3358
601.4	3347
601.6	3331
601.8	3319
602.0	3304
602.2	3289
602.4	3278
602.6	3257
602.8	3242
603.0	3227
603.2	3213
603.4	3194
603.6	3181
603.8	3163
604.0	3151
604.2	3132
604.4	3119
604.6	3103
604.8	3090
605.0	3074
605.2	3058
605.4	3042
605.6	3030
605.8	3014
606.0	2999
606.2	2985
606.4	2973
606.6	2966
606.8	2953
607.0	2937
607.2	2916
607.4	2904
607.6	2893
607.8	2883
608.0	2868
608.2	2857
608.4	2842
608.6	2826
608.8	2815
609.0	2800
609.2	2789
609.4	2774
609.6	2760
609.8	2743
610.0	2732
610.2	2716
610.4	2706
610.6	2689
610.8	2674
611.0	2656
611.2	2643
611.4	2633
611.6	2625
611.8	2619
612.0	2605
612.2	2586
612.4	2575
612.6	2565
612.8	2546
613.0	2532
613.2	2521
613.4	2508
613.6	2501
613.8	2489
614.0	2471
614.2	2455
614.4	2442
614.6	2428
614.8	2418
615.0	2409
615.2	2403
615.4	2393
615.6	2379
615.8	2361
616.0	2345
616.2	2332
616.4	2322
616.6	2309
616.8	2299
617.0	2286
617.2	2274
617.4	2258
617.6	2244
617.8	2229
618.0	2219
618.2	2209
618.4	2200
618.6	2189
618.8	2177
619.0	2163
619.2	2149
619.4	2136
619.6	2124
619.8	2114
620.0	2103
620.2	2089
620.4	2078
620.6	2069
620.8	2059
621.0	2049
621.2	2038
621.4	2023
621.6	2013
621.8	2002
622.0	1992
622.2	1982
622.4	1976
622.6	1970
622.8	1957
623.0	1943
623.2	1934
623.4	1921
623.6	1910
623.8	1902
624.0	1890
624.2	1875
624.4	1867
624.6	1857
624.8	1844
625.0	1835
625.2	1826
625.4	1812
625.6	1801
625.8	1794
626.0	1782
626.2	1772
626.4	1767
626.6	1756
626.8	1746
627.0	1733
627.2	1715
627.4	1699
627.6	1690
627.8	1681
628.0	1678
628.2	1668
628.4	1656
628.6	1645
628.8	1637
629.0	1631
629.2	1627
629.4	1617
629.6	1608
629.8	1595
630.0	1586
630.2	1576
630.4	1568
630.6	1560
630.8	1552
631.0	1539
631.2	1522
631.4	1509
631.6	1503
631.8	1500
632.0	1495
632.2	1490
632.4	1479
632.6	1473
632.8	1464
633.0	1454
633.2	1444
633.4	1431
633.6	1422
633.8	1413
634.0	1403
634.2	1396
634.4	1391
634.6	1383
634.8	1377
635.0	1370
635.2	1358
635.4	1349
635.6	1341
635.8	1331
636.0	1324
636.2	1317
636.4	1308
636.6	1300
636.8	1294
637.0	1286
637.2	1277
637.4	1267
637.6	1256
637.8	1250
638.0	1249
638.2	1243
638.4	1239
638.6	1236
638.8	1226
639.0	1220
639.2	1210
639.4	1196
639.6	1189
639.8	1182
640.0	1176
640.2	1170
640.4	1162
640.6	1155
640.8	1148
641.0	1137
641.2	1128
641.4	1116
641.6	1110
641.8	1103
642.0	1098
642.2	1093
642.4	1086
642.6	1080
642.8	1074
643.0	1067
643.2	1063
643.4	1057
643.6	1049
643.8	1042
644.0	1033
644.2	1023
644.4	1016
644.6	1013
644.8	1010
645.0	1003
645.2	998.7
645.4	992.1
645.6	983.0
645.8	977.1
646.0	973.2
646.2	966.7
646.4	962.5
646.6	960.1
646.8	954.1
647.0	946.6
647.2	941.1
647.4	933.0
647.6	921.7
647.8	914.2
648.0	909.9
648.2	905.3
648.4	904.0
648.6	898.4
648.8	892.9
649.0	883.8
649.2	879.6
649.4	876.0
649.6	870.7
649.8	864.3
650.0	859.7
650.2	849.2
650.4	842.2
650.6	833.9
650.8	826.2
651.0	824.4
651.2	820.0
651.4	816.6
651.6	811.0
651.8	805.5
652.0	803.8
652.2	802.2
652.4	796.6
652.6	791.7
652.8	784.3
653.0	776.4
653.2	772.8
653.4	768.1
653.6	764.2
653.8	758.6
654.0	755.1
654.2	749.0
654.4	745.0
654.6	739.4
654.8	737.0
655.0	730.0
655.2	723.4
655.4	714.3
655.6	709.5
655.8	705.8
656.0	705.4
656.2	699.0
656.4	694.3
656.6	685.7
656.8	680.9
657.0	681.2
657.2	680.3
657.4	674.5
657.6	670.6
657.8	665.8
658.0	662.1
658.2	659.5
658.4	655.2
658.6	646.7
658.8	641.6
659.0	636.8
659.2	632.9
659.4	627.7
659.6	627.7
659.8	626.8
660.0	627.4
660.2	621.3
660.4	613.3
660.6	606.5
660.8	605.2
661.0	601.4
661.2	595.8
661.4	587.7
661.6	582.2
661.8	580.4
662.0	580.8
662.2	576.3
662.4	571.9
662.6	566.6
662.8	562.6
663.0	559.1
663.2	555.8
663.4	550.7
663.6	548.6
663.8	546.6
664.0	543.4
664.2	538.9
664.4	534.8
664.6	528.2
664.8	525.3
665.0	524.2
665.2	522.9
665.4	521.3
665.6	516.4
665.8	510.4
666.0	506.9
666.2	506.2
666.4	504.6
666.6	503.6
666.8	499.2
667.0	496.5
667.2	491.7
667.4	487.5
667.6	482.6
667.8	478.5
668.0	474.3
668.2	471.3
668.4	468.1
668.6	465.5
668.8	462.7
669.0	459.4
669.2	455.9
669.4	450.5
669.6	447.1
669.8	444.8
670.0	442.0
670.2	439.8
670.4	436.9
670.6	431.0
670.8	425.9
671.0	422.9
671.2	421.8
671.4	420.0
671.6	418.6
671.8	416.9
672.0	413.7
672.2	411.8
672.4	410.7
672.6	407.5
672.8	405.9
673.0	401.8
673.2	398.3
673.4	395.3
673.6	392.3
673.8	388.3
674.0	387.0
674.2	382.7
674.4	382.0
674.6	379.4
674.8	375.8
675.0	373.6
675.2	373.1
675.4	371.8
675.6	369.1
675.8	365.0
676.0	359.3
676.2	356.1
676.4	352.5
676.6	351.2
676.8	346.9
677.0	345.5
677.2	345.5
677.4	345.0
677.6	343.4
677.8	341.9
678.0	337.7
678.2	332.6
678.4	330.7
678.6	327.3
678.8	325.9
679.0	325.3
679.2	324.9
679.4	321.2
679.6	318.5
679.8	313.5
680.0	311.3
680.2	309.1
680.4	307.0
680.6	304.8
680.8	303.1
681.0	301.1
681.2	299.2
681.4	297.1
681.6	296.6
681.8	294.8
682.0	291.3
682.2	289.6
682.4	286.6
682.6	284.6
682.8	283.7
683.0	281.3
683.2	278.5
683.4	275.1
683.6	273.5
683.8	272.4
684.0	271.7
684.2	271.0
684.4	270.5
684.6	268.3
684.8	265.8
685.0	264.1
685.2	260.4
685.4	258.6
685.6	258.4
685.8	257.3
686.0	255.7
686.2	253.6
686.4	250.7
686.6	249.0
686.8	247.5
687.0	245.3
687.2	244.8
687.4	243.9
687.6	243.1
687.8	241.3
688.0	238.9
688.2	235.8
688.4	232.7
688.6	231.1
688.8	229.3
689.0	229.6
689.2	228.7
689.4	227.2
689.6	224.8
689.8	222.7
690.0	221.4
690.2	219.6
690.4	218.1
690.6	217.5
690.8	215.4
691.0	213.9
691.2	212.5
691.4	211.1
691.6	210.4
691.8	209.7
692.0	208.2
692.2	206.6
692.4	204.8
692.6	203.4
692.8	203.4
693.0	202.0
693.2	199.3
693.4	197.0
693.6	196.0
693.8	194.8
694.0	194.4
694.2	191.8
694.4	189.7
694.6	187.7
694.8	187.5
695.0	186.9
695.2	185.1
695.4	183.8
695.6	182.1
695.8	181.1
696.0	182.1
696.2	181.9
696.4	181.3
696.6	180.1
696.8	176.5
697.0	174.7
697.2	174.8
697.4	173.1
697.6	173.0
697.8	173.6
698.0	173.2
698.2	170.9
698.4	169.5
698.6	166.6
698.8	165.8
699.0	166.3
699.2	165.3
699.4	164.0
699.6	163.5
699.8	163.2
700.0	163.8
700.2	163.8
700.4	160.7
700.6	159.9
700.8	157.7
701.0	155.5
701.2	155.1
701.4	154.2
701.6	151.4
701.8	150.4
702.0	149.0
702.2	148.4
702.4	148.5
702.6	148.6
702.8	147.3
703.0	145.8
703.2	144.1
703.4	141.8
703.6	141.5
703.8	142.1
704.0	142.6
704.2	141.8
704.4	142.0
704.6	140.6
704.8	139.9
705.0	139.1
705.2	136.9
705.4	135.3
705.6	133.8
705.8	132.3
706.0	131.7
706.2	131.7
706.4	130.6
706.6	130.2
706.8	128.6
707.0	128.1
707.2	128.9
707.4	129.2
707.6	128.1
707.8	126.1
708.0	124.6
708.2	123.5
708.4	123.6
708.6	124.2
708.8	124.7
709.0	123.8
709.2	122.7
709.4	121.0
709.6	120.0
709.8	119.7
710.0	119.0
710.2	118.0
710.4	117.3
710.6	115.2
710.8	114.5
711.0	112.8
711.2	111.2
711.4	110.4
711.6	110.2
711.8	109.1
712.0	109.1
712.2	108.2
712.4	108.1
712.6	108.5
712.8	108.7
713.0	108.8
713.2	107.5
713.4	105.5
713.6	104.0
713.8	103.6
714.0	102.4
714.2	102.2
714.4	101.2
714.6	100.4
714.8	100.1
715.0	99.12
715.2	97.18
715.4	96.50
715.6	95.28
715.8	95.79
716.0	96.51
716.2	96.51
716.4	96.36
716.6	95.48
716.8	93.94
717.0	93.79
717.2	93.31
717.4	92.04
717.6	92.09
717.8	91.17
718.0	90.18
718.2	90.11
718.4	87.73
718.6	85.13
718.8	85.18
719.0	85.50
719.2	86.34
719.4	87.73
719.6	86.95
719.8	85.31
720.0	84.46
720.2	83.16
720.4	83.31
720.6	82.90
720.8	82.69
721.0	81.26
721.2	80.39
721.4	79.44
721.6	79.50
721.8	79.04
722.0	78.84
722.2	77.82
722.4	77.47
722.6	77.12
