Sample:	'20211010A(EM)
File name:	G-Ni 5.FDS
Run date:	'16:02:43, 06/19/2023
Operator:	Administrator
Comment:	'

Instrument
Model:	F-4700 FL Spectrophotometer
Serial number:	2019-001
ROM Version:	5J24010 00

Instrument parameters
Measurement type:	Wavelength scan
Scan mode:	Emission
Data mode:	Fluorescence
EX WL:	400.0 nm
EM  Start WL:	420.0 nm
EM  End WL:	800.0 nm
Scan speed:	1200 nm/min
Delay:	0.0 s
EX Slit:	10.0 nm
EM Slit:	10.0 nm
PMT Voltage:	500 V
Response:	0.002 s
Corrected spectra:	Off
Shutter control:	On

Processing performed
Savitsky-Golay smoothed
Smoothing order:	3
Number of points:	7
Number of times:	1

Peak integration
Integration method:	Rectangular
Sensitivity:	1
Threshold:	1.000

Peaks
No.	Start(nm)	Apex(nm)	End(nm)	Height(Data)	Valley(nm)	Valley(Data)
1	420.0	536.8	537.6	489.8	537.6	476.3
2	537.6	538.2	539.2	488.1	539.2	478.8
3	539.2	540.2	542.6	487.8	542.6	476.0
4	542.6	543.6	554.2	482.4	554.2	441.8
5	554.2	554.8	667.2	445.9	667.2	29.20
6	667.2	667.6	677.0	30.23	677.0	21.04
7	677.0	678.0	687.4	22.29	687.4	14.43
8	687.4	688.0	694.2	15.88	694.2	11.34
9	694.2	695.0	778.6	12.67	778.6	0.820

Data points
nm	Data
420.0	0.360
420.2	0.281
420.4	0.293
420.6	0.351
420.8	0.392
421.0	0.386
421.2	0.304
421.4	0.414
421.6	0.490
421.8	0.633
422.0	0.777
422.2	0.717
422.4	0.616
422.6	0.543
422.8	0.505
423.0	0.521
423.2	0.528
423.4	0.603
423.6	0.626
423.8	0.600
424.0	0.560
424.2	0.520
424.4	0.468
424.6	0.572
424.8	0.539
425.0	0.458
425.2	0.338
425.4	0.360
425.6	0.396
425.8	0.436
426.0	0.566
426.2	0.571
426.4	0.543
426.6	0.613
426.8	0.545
427.0	0.497
427.2	0.485
427.4	0.416
427.6	0.440
427.8	0.544
428.0	0.513
428.2	0.585
428.4	0.533
428.6	0.539
428.8	0.608
429.0	0.695
429.2	0.627
429.4	0.629
429.6	0.492
429.8	0.445
430.0	0.565
430.2	0.688
430.4	0.752
430.6	0.764
430.8	0.633
431.0	0.574
431.2	0.571
431.4	0.557
431.6	0.560
431.8	0.577
432.0	0.537
432.2	0.644
432.4	0.664
432.6	0.790
432.8	0.793
433.0	0.796
433.2	0.622
433.4	0.637
433.6	0.544
433.8	0.591
434.0	0.556
434.2	0.642
434.4	0.574
434.6	0.577
434.8	0.489
435.0	0.458
435.2	0.432
435.4	0.551
435.6	0.676
435.8	0.669
436.0	0.568
436.2	0.557
436.4	0.521
436.6	0.573
436.8	0.714
437.0	0.634
437.2	0.647
437.4	0.682
437.6	0.600
437.8	0.586
438.0	0.581
438.2	0.444
438.4	0.544
438.6	0.560
438.8	0.564
439.0	0.668
439.2	0.672
439.4	0.602
439.6	0.611
439.8	0.543
440.0	0.571
440.2	0.626
440.4	0.553
440.6	0.575
440.8	0.567
441.0	0.582
441.2	0.578
441.4	0.514
441.6	0.485
441.8	0.509
442.0	0.478
442.2	0.523
442.4	0.532
442.6	0.541
442.8	0.624
443.0	0.627
443.2	0.570
443.4	0.555
443.6	0.486
443.8	0.391
444.0	0.388
444.2	0.394
444.4	0.445
444.6	0.537
444.8	0.475
445.0	0.508
445.2	0.548
445.4	0.579
445.6	0.587
445.8	0.597
446.0	0.584
446.2	0.672
446.4	0.694
446.6	0.646
446.8	0.601
447.0	0.620
447.2	0.658
447.4	0.677
447.6	0.629
447.8	0.551
448.0	0.581
448.2	0.671
448.4	0.691
448.6	0.685
448.8	0.610
449.0	0.641
449.2	0.669
449.4	0.664
449.6	0.583
449.8	0.514
450.0	0.515
450.2	0.586
450.4	0.647
450.6	0.603
450.8	0.646
451.0	0.637
451.2	0.772
451.4	0.826
451.6	0.770
451.8	0.685
452.0	0.627
452.2	0.523
452.4	0.525
452.6	0.616
452.8	0.606
453.0	0.672
453.2	0.668
453.4	0.671
453.6	0.595
453.8	0.632
454.0	0.547
454.2	0.613
454.4	0.639
454.6	0.667
454.8	0.617
455.0	0.722
455.2	0.716
455.4	0.781
455.6	0.785
455.8	0.778
456.0	0.626
456.2	0.647
456.4	0.626
456.6	0.619
456.8	0.651
457.0	0.646
457.2	0.533
457.4	0.389
457.6	0.396
457.8	0.457
458.0	0.508
458.2	0.624
458.4	0.599
458.6	0.638
458.8	0.708
459.0	0.723
459.2	0.719
459.4	0.738
459.6	0.632
459.8	0.735
460.0	0.811
460.2	0.849
460.4	0.792
460.6	0.698
460.8	0.538
461.0	0.449
461.2	0.575
461.4	0.735
461.6	0.832
461.8	0.849
462.0	0.768
462.2	0.624
462.4	0.604
462.6	0.715
462.8	0.825
463.0	0.864
463.2	0.881
463.4	0.790
463.6	0.740
463.8	0.720
464.0	0.695
464.2	0.745
464.4	0.745
464.6	0.705
464.8	0.770
465.0	0.844
465.2	0.986
465.4	1.038
465.6	0.901
465.8	0.652
466.0	0.513
466.2	0.527
466.4	0.829
466.6	1.028
466.8	1.023
467.0	1.044
467.2	0.881
467.4	0.938
467.6	1.091
467.8	1.141
468.0	1.050
468.2	1.105
468.4	1.005
468.6	0.973
468.8	1.161
469.0	1.241
469.2	1.210
469.4	1.255
469.6	1.307
469.8	1.199
470.0	1.344
470.2	1.380
470.4	1.212
470.6	1.231
470.8	1.295
471.0	1.352
471.2	1.339
471.4	1.398
471.6	1.326
471.8	1.458
472.0	1.640
472.2	1.792
472.4	1.818
472.6	1.803
472.8	1.643
473.0	1.713
473.2	1.933
473.4	2.033
473.6	2.065
473.8	2.057
474.0	1.993
474.2	2.211
474.4	2.384
474.6	2.424
474.8	2.353
475.0	2.504
475.2	2.747
475.4	2.944
475.6	3.075
475.8	2.955
476.0	2.897
476.2	2.973
476.4	3.022
476.6	3.149
476.8	3.382
477.0	3.449
477.2	3.494
477.4	3.586
477.6	3.536
477.8	3.787
478.0	3.923
478.2	4.073
478.4	4.308
478.6	4.615
478.8	4.802
479.0	4.942
479.2	4.926
479.4	4.897
479.6	5.019
479.8	5.243
480.0	5.666
480.2	6.105
480.4	6.331
480.6	6.328
480.8	6.364
481.0	6.666
481.2	6.941
481.4	7.653
481.6	7.680
481.8	7.653
482.0	7.744
482.2	8.020
482.4	8.251
482.6	8.779
482.8	9.019
483.0	9.602
483.2	10.01
483.4	10.54
483.6	11.11
483.8	11.44
484.0	11.53
484.2	11.95
484.4	12.29
484.6	12.48
484.8	13.02
485.0	13.22
485.2	13.33
485.4	13.70
485.6	14.25
485.8	14.55
486.0	15.41
486.2	16.13
486.4	16.80
486.6	17.26
486.8	18.09
487.0	18.77
487.2	19.55
487.4	19.79
487.6	20.12
487.8	20.36
488.0	21.34
488.2	22.57
488.4	23.44
488.6	23.97
488.8	24.77
489.0	24.89
489.2	25.81
489.4	26.69
489.6	27.20
489.8	27.51
490.0	28.43
490.2	29.73
490.4	31.60
490.6	33.36
490.8	33.88
491.0	33.70
491.2	34.26
491.4	35.63
491.6	36.46
491.8	38.36
492.0	39.68
492.2	39.97
492.4	40.38
492.6	41.13
492.8	41.34
493.0	43.66
493.2	46.45
493.4	48.14
493.6	48.96
493.8	50.22
494.0	50.29
494.2	52.00
494.4	53.51
494.6	54.54
494.8	55.97
495.0	57.29
495.2	58.91
495.4	61.37
495.6	63.19
495.8	64.79
496.0	67.04
496.2	67.93
496.4	69.39
496.6	70.53
496.8	71.45
497.0	73.31
497.2	75.81
497.4	77.78
497.6	79.33
497.8	80.79
498.0	81.86
498.2	83.69
498.4	86.33
498.6	88.75
498.8	90.45
499.0	92.93
499.2	95.05
499.4	97.70
499.6	99.83
499.8	102.2
500.0	103.3
500.2	104.9
500.4	108.0
500.6	110.5
500.8	111.8
501.0	115.5
501.2	117.9
501.4	120.3
501.6	123.3
501.8	124.8
502.0	126.0
502.2	128.3
502.4	131.2
502.6	132.4
502.8	133.3
503.0	135.9
503.2	138.4
503.4	140.6
503.6	144.8
503.8	147.4
504.0	149.5
504.2	154.3
504.4	158.4
504.6	159.2
504.8	161.6
505.0	164.6
505.2	167.7
505.4	173.2
505.6	178.1
505.8	179.9
506.0	181.6
506.2	183.5
506.4	186.0
506.6	188.5
506.8	190.0
507.0	192.9
507.2	194.5
507.4	196.6
507.6	198.4
507.8	201.3
508.0	204.0
508.2	208.7
508.4	214.3
508.6	218.2
508.8	220.5
509.0	223.3
509.2	226.4
509.4	228.6
509.6	231.5
509.8	234.0
510.0	237.7
510.2	241.8
510.4	246.0
510.6	248.1
510.8	249.2
511.0	250.9
511.2	254.1
511.4	259.1
511.6	262.5
511.8	265.9
512.0	269.2
512.2	271.4
512.4	273.6
512.6	278.1
512.8	279.4
513.0	282.6
513.2	285.0
513.4	286.5
513.6	290.1
513.8	294.2
514.0	297.3
514.2	300.4
514.4	302.3
514.6	304.3
514.8	309.1
515.0	311.6
515.2	313.4
515.4	315.2
515.6	318.0
515.8	320.0
516.0	324.3
516.2	327.0
516.4	327.8
516.6	332.6
516.8	337.8
517.0	338.8
517.2	340.1
517.4	340.9
517.6	338.8
517.8	342.9
518.0	347.5
518.2	351.6
518.4	355.7
518.6	360.3
518.8	361.4
519.0	364.1
519.2	365.1
519.4	365.4
519.6	368.0
519.8	371.7
520.0	376.5
520.2	380.7
520.4	383.5
520.6	382.7
520.8	383.0
521.0	383.1
521.2	385.8
521.4	389.2
521.6	392.6
521.8	394.7
522.0	397.7
522.2	399.9
522.4	403.4
522.6	404.2
522.8	405.2
523.0	405.0
523.2	407.4
523.4	410.7
523.6	414.8
523.8	417.1
524.0	420.0
524.2	420.4
524.4	420.1
524.6	422.6
524.8	423.2
525.0	425.7
525.2	427.9
525.4	430.7
525.6	430.1
525.8	432.0
526.0	433.9
526.2	435.9
526.4	436.5
526.6	440.0
526.8	438.0
527.0	438.1
527.2	439.9
527.4	439.8
527.6	441.0
527.8	447.3
528.0	447.1
528.2	450.1
528.4	453.1
528.6	452.6
528.8	452.6
529.0	454.2
529.2	453.2
529.4	455.7
529.6	456.3
529.8	456.1
530.0	457.8
530.2	459.1
530.4	461.5
530.6	461.7
530.8	459.5
531.0	459.0
531.2	463.3
531.4	466.4
531.6	470.0
531.8	469.9
532.0	471.2
532.2	470.7
532.4	471.5
532.6	469.6
532.8	468.7
533.0	470.6
533.2	473.1
533.4	473.6
533.6	473.7
533.8	474.1
534.0	473.5
534.2	475.2
534.4	475.9
534.6	476.6
534.8	477.5
535.0	479.8
535.2	477.4
535.4	477.3
535.6	478.5
535.8	478.7
536.0	479.6
536.2	481.4
536.4	481.0
536.6	486.5
536.8	489.8
537.0	486.8
537.2	482.4
537.4	478.4
537.6	476.3
537.8	480.4
538.0	484.9
538.2	488.1
538.4	487.2
538.6	486.1
538.8	483.2
539.0	479.7
539.2	478.8
539.4	480.3
539.6	481.0
539.8	484.2
540.0	486.2
540.2	487.8
540.4	486.1
540.6	485.9
540.8	484.5
541.0	482.8
541.2	483.1
541.4	482.8
541.6	481.4
541.8	483.5
542.0	483.3
542.2	481.6
542.4	479.9
542.6	476.0
542.8	476.3
543.0	476.6
543.2	477.6
543.4	480.0
543.6	482.4
543.8	482.1
544.0	481.0
544.2	479.9
544.4	475.6
544.6	476.7
544.8	479.7
545.0	481.8
545.2	480.0
545.4	479.2
545.6	476.9
545.8	476.6
546.0	477.7
546.2	478.0
546.4	474.7
546.6	474.9
546.8	475.8
547.0	473.6
547.2	470.6
547.4	469.5
547.6	467.7
547.8	471.1
548.0	470.3
548.2	468.8
548.4	467.1
548.6	466.3
548.8	465.6
549.0	464.9
549.2	464.7
549.4	466.0
549.6	466.0
549.8	464.7
550.0	465.4
550.2	463.8
550.4	461.8
550.6	459.6
550.8	456.6
551.0	456.1
551.2	458.9
551.4	460.5
551.6	459.6
551.8	457.4
552.0	457.0
552.2	455.1
552.4	453.4
552.6	452.5
552.8	453.1
553.0	451.3
553.2	453.2
553.4	451.9
553.6	449.1
553.8	446.0
554.0	443.4
554.2	441.8
554.4	442.9
554.6	445.0
554.8	445.9
555.0	445.0
555.2	444.2
555.4	445.6
555.6	444.4
555.8	443.5
556.0	440.6
556.2	437.1
556.4	434.1
556.6	432.9
556.8	430.2
557.0	430.4
557.2	429.9
557.4	430.9
557.6	430.6
557.8	429.2
558.0	427.3
558.2	427.7
558.4	426.7
558.6	427.3
558.8	424.5
559.0	421.6
559.2	421.4
559.4	421.2
559.6	421.7
559.8	421.4
560.0	420.6
560.2	418.1
560.4	415.2
560.6	414.6
560.8	416.5
561.0	416.2
561.2	415.8
561.4	413.0
561.6	408.3
561.8	408.4
562.0	408.9
562.2	408.4
562.4	405.9
562.6	404.1
562.8	403.5
563.0	403.0
563.2	402.0
563.4	400.1
563.6	398.2
563.8	396.7
564.0	396.9
564.2	394.7
564.4	393.3
564.6	390.9
564.8	390.4
565.0	389.6
565.2	389.3
565.4	389.0
565.6	388.1
565.8	386.8
566.0	387.7
566.2	387.5
566.4	386.4
566.6	384.6
566.8	384.2
567.0	381.2
567.2	379.4
567.4	378.7
567.6	376.5
567.8	374.3
568.0	375.6
568.2	373.0
568.4	370.8
568.6	372.9
568.8	372.2
569.0	370.2
569.2	369.4
569.4	366.9
569.6	366.0
569.8	367.3
570.0	365.5
570.2	362.6
570.4	359.6
570.6	356.8
570.8	356.3
571.0	357.1
571.2	357.5
571.4	357.1
571.6	354.9
571.8	351.2
572.0	348.8
572.2	347.2
572.4	347.3
572.6	348.4
572.8	348.1
573.0	345.9
573.2	343.5
573.4	342.6
573.6	341.9
573.8	341.9
574.0	338.8
574.2	337.1
574.4	335.9
574.6	336.1
574.8	335.4
575.0	335.3
575.2	333.2
575.4	332.8
575.6	331.8
575.8	329.7
576.0	327.7
576.2	324.9
576.4	323.2
576.6	323.4
576.8	324.2
577.0	325.1
577.2	324.6
577.4	321.3
577.6	317.8
577.8	317.4
578.0	318.9
578.2	320.2
578.4	320.4
578.6	316.9
578.8	312.1
579.0	310.9
579.2	310.9
579.4	308.9
579.6	307.8
579.8	304.6
580.0	302.3
580.2	301.2
580.4	301.9
580.6	300.9
580.8	300.8
581.0	300.4
581.2	299.1
581.4	295.4
581.6	293.8
581.8	292.0
582.0	291.2
582.2	291.6
582.4	291.9
582.6	290.2
582.8	289.6
583.0	288.6
583.2	288.3
583.4	287.6
583.6	286.8
583.8	283.6
584.0	281.9
584.2	280.0
584.4	278.6
584.6	277.0
584.8	275.8
585.0	273.5
585.2	273.3
585.4	272.4
585.6	272.3
585.8	270.9
586.0	270.1
586.2	269.6
586.4	269.0
586.6	268.0
586.8	265.8
587.0	263.7
587.2	262.1
587.4	262.1
587.6	261.5
587.8	260.6
588.0	259.8
588.2	259.4
588.4	257.6
588.6	258.1
588.8	257.5
589.0	254.9
589.2	254.7
589.4	251.1
589.6	248.6
589.8	248.1
590.0	248.6
590.2	247.6
590.4	249.1
590.6	247.8
590.8	247.4
591.0	246.8
591.2	245.7
591.4	243.4
591.6	242.4
591.8	241.5
592.0	240.9
592.2	240.4
592.4	238.4
592.6	236.8
592.8	236.4
593.0	235.7
593.2	234.7
593.4	232.6
593.6	230.2
593.8	229.9
594.0	229.1
594.2	227.2
594.4	227.2
594.6	224.2
594.8	223.3
595.0	224.0
595.2	221.8
595.4	220.4
595.6	220.3
595.8	217.8
596.0	218.0
596.2	217.8
596.4	216.8
596.6	216.9
596.8	216.5
597.0	214.0
597.2	212.7
597.4	210.8
597.6	211.7
597.8	211.1
598.0	209.4
598.2	208.8
598.4	207.7
598.6	206.4
598.8	207.0
599.0	206.0
599.2	203.6
599.4	203.9
599.6	201.4
599.8	199.7
600.0	199.3
600.2	199.3
600.4	198.0
600.6	198.4
600.8	197.2
601.0	196.3
601.2	195.8
601.4	194.6
601.6	193.0
601.8	192.3
602.0	190.6
602.2	190.9
602.4	191.8
602.6	192.2
602.8	191.3
603.0	189.9
603.2	186.7
603.4	185.5
603.6	183.8
603.8	183.1
604.0	181.5
604.2	180.1
604.4	180.5
604.6	180.3
604.8	180.0
605.0	179.4
605.2	177.3
605.4	175.3
605.6	175.3
605.8	174.6
606.0	174.0
606.2	173.4
606.4	173.3
606.6	173.8
606.8	173.5
607.0	172.7
607.2	168.7
607.4	166.2
607.6	164.4
607.8	163.9
608.0	165.4
608.2	167.1
608.4	166.3
608.6	166.0
608.8	164.0
609.0	162.0
609.2	161.3
609.4	160.4
609.6	159.4
609.8	160.0
610.0	159.3
610.2	158.9
610.4	157.4
610.6	155.7
610.8	153.5
611.0	152.4
611.2	152.3
611.4	152.5
611.6	153.1
611.8	152.9
612.0	151.1
612.2	149.4
612.4	149.9
612.6	149.2
612.8	149.0
613.0	147.5
613.2	144.3
613.4	143.9
613.6	145.5
613.8	145.8
614.0	145.4
614.2	143.5
614.4	140.5
614.6	139.3
614.8	139.5
615.0	139.8
615.2	139.8
615.4	139.5
615.6	139.6
615.8	139.7
616.0	139.4
616.2	137.0
616.4	134.8
616.6	132.9
616.8	131.6
617.0	130.5
617.2	129.0
617.4	127.9
617.6	128.8
617.8	129.8
618.0	131.2
618.2	129.9
618.4	126.7
618.6	124.7
618.8	123.7
619.0	124.0
619.2	125.0
619.4	125.1
619.6	123.5
619.8	122.5
620.0	121.4
620.2	121.1
620.4	120.7
620.6	121.1
620.8	121.5
621.0	120.7
621.2	119.0
621.4	117.1
621.6	115.9
621.8	115.9
622.0	115.7
622.2	114.7
622.4	114.3
622.6	112.9
622.8	113.4
623.0	113.1
623.2	112.2
623.4	110.7
623.6	110.8
623.8	109.7
624.0	109.5
624.2	109.4
624.4	110.2
624.6	109.2
624.8	107.9
625.0	105.5
625.2	103.1
625.4	103.5
625.6	105.6
625.8	105.8
626.0	104.9
626.2	104.0
626.4	101.6
626.6	102.3
626.8	102.1
627.0	101.1
627.2	100.3
627.4	100.1
627.6	98.92
627.8	99.41
628.0	97.93
628.2	97.78
628.4	96.92
628.6	96.44
628.8	96.08
629.0	94.88
629.2	94.36
629.4	94.55
629.6	93.32
629.8	93.00
630.0	92.38
630.2	91.90
630.4	92.33
630.6	92.19
630.8	90.42
631.0	89.95
631.2	88.88
631.4	89.15
631.6	88.40
631.8	87.38
632.0	86.22
632.2	87.33
632.4	87.99
632.6	88.40
632.8	87.03
633.0	85.06
633.2	83.98
633.4	84.52
633.6	84.21
633.8	83.27
634.0	82.65
634.2	81.65
634.4	81.45
634.6	81.56
634.8	81.30
635.0	81.17
635.2	80.75
635.4	80.44
635.6	79.34
635.8	78.30
636.0	76.91
636.2	76.15
636.4	75.05
636.6	75.52
636.8	75.30
637.0	75.35
637.2	74.51
637.4	74.79
637.6	74.45
637.8	74.65
638.0	74.19
638.2	73.59
638.4	72.90
638.6	72.73
638.8	72.18
639.0	71.70
639.2	71.29
639.4	70.90
639.6	70.77
639.8	69.79
640.0	69.00
640.2	68.63
640.4	69.06
640.6	68.64
640.8	68.03
641.0	67.05
641.2	66.34
641.4	65.89
641.6	66.08
641.8	66.35
642.0	65.43
642.2	65.31
642.4	65.45
642.6	64.40
642.8	63.67
643.0	63.32
643.2	62.10
643.4	61.52
643.6	61.25
643.8	60.35
644.0	61.19
644.2	61.05
644.4	60.68
644.6	60.70
644.8	59.57
645.0	58.84
645.2	59.11
645.4	58.71
645.6	58.79
645.8	58.84
646.0	58.17
646.2	57.28
646.4	56.44
646.6	56.07
646.8	56.11
647.0	56.06
647.2	55.97
647.4	55.71
647.6	55.74
647.8	55.28
648.0	54.60
648.2	53.63
648.4	52.69
648.6	52.46
648.8	52.67
649.0	53.39
649.2	53.15
649.4	52.26
649.6	52.55
649.8	51.66
650.0	51.10
650.2	51.03
650.4	50.25
650.6	50.22
650.8	50.38
651.0	49.77
651.2	49.70
651.4	48.86
651.6	47.45
651.8	47.22
652.0	46.83
652.2	47.73
652.4	48.85
652.6	48.83
652.8	47.60
653.0	46.70
653.2	45.89
653.4	45.47
653.6	44.94
653.8	44.86
654.0	44.41
654.2	44.38
654.4	44.71
654.6	44.59
654.8	44.49
655.0	44.45
655.2	43.38
655.4	42.33
655.6	41.59
655.8	41.62
656.0	41.91
656.2	42.95
656.4	42.78
656.6	41.98
656.8	41.14
657.0	41.00
657.2	41.61
657.4	42.42
657.6	41.41
657.8	40.49
658.0	39.78
658.2	39.32
658.4	39.50
658.6	38.91
658.8	37.87
659.0	37.90
659.2	37.62
659.4	37.41
659.6	37.25
659.8	37.24
660.0	36.85
660.2	36.70
660.4	36.72
660.6	36.59
660.8	36.52
661.0	36.72
661.2	36.04
661.4	35.76
661.6	36.41
661.8	35.98
662.0	35.51
662.2	34.90
662.4	34.40
662.6	34.49
662.8	34.10
663.0	32.95
663.2	32.57
663.4	32.35
663.6	33.35
663.8	34.28
664.0	33.87
664.2	33.53
664.4	32.36
664.6	31.56
664.8	31.47
665.0	31.99
665.2	31.76
665.4	31.95
665.6	30.85
665.8	30.51
666.0	30.09
666.2	30.32
666.4	30.23
666.6	29.86
666.8	29.44
667.0	29.59
667.2	29.20
667.4	29.50
667.6	30.23
667.8	29.99
668.0	29.79
668.2	29.54
668.4	28.77
668.6	28.90
668.8	28.45
669.0	28.20
669.2	28.07
669.4	28.20
669.6	27.98
669.8	27.99
670.0	27.47
670.2	27.38
670.4	27.09
670.6	27.11
670.8	26.92
671.0	26.76
671.2	26.39
671.4	25.50
671.6	25.03
671.8	25.12
672.0	25.31
672.2	25.55
672.4	25.35
672.6	25.12
672.8	25.54
673.0	25.85
673.2	26.03
673.4	25.66
673.6	24.87
673.8	24.14
674.0	23.39
674.2	23.09
674.4	23.09
674.6	23.32
674.8	23.45
675.0	23.12
675.2	22.79
675.4	22.55
675.6	22.45
675.8	22.58
676.0	22.54
676.2	22.13
676.4	21.90
676.6	21.54
676.8	21.24
677.0	21.04
677.2	21.14
677.4	21.12
677.6	21.22
677.8	21.64
678.0	22.29
678.2	22.11
678.4	21.79
678.6	21.34
678.8	20.70
679.0	20.13
679.2	20.00
679.4	19.62
679.6	19.18
679.8	19.33
680.0	19.55
680.2	19.58
680.4	19.24
680.6	19.15
680.8	18.83
681.0	18.80
681.2	19.17
681.4	19.02
681.6	18.32
681.8	17.70
682.0	18.04
682.2	18.10
682.4	18.60
682.6	18.60
682.8	18.25
683.0	17.49
683.2	17.59
683.4	17.09
683.6	17.07
683.8	16.84
684.0	16.71
684.2	16.61
684.4	16.96
684.6	16.99
684.8	17.10
685.0	16.57
685.2	15.98
685.4	16.07
685.6	16.01
685.8	15.80
686.0	15.63
686.2	15.70
686.4	15.77
686.6	16.27
686.8	16.13
687.0	15.42
687.2	14.67
687.4	14.43
687.6	14.64
687.8	15.35
688.0	15.88
688.2	15.73
688.4	15.39
688.6	14.63
688.8	14.36
689.0	14.33
689.2	14.71
689.4	14.39
689.6	14.25
689.8	14.00
690.0	13.69
690.2	13.53
690.4	13.49
690.6	13.24
690.8	13.38
691.0	14.01
691.2	14.05
691.4	14.08
691.6	13.66
691.8	13.22
692.0	13.18
692.2	13.36
692.4	12.89
692.6	12.82
692.8	12.99
693.0	12.77
693.2	13.38
693.4	13.00
693.6	12.37
693.8	12.15
694.0	11.80
694.2	11.34
694.4	12.10
694.6	11.96
694.8	12.56
695.0	12.67
695.2	12.40
695.4	12.17
695.6	12.47
695.8	11.93
696.0	12.04
696.2	11.71
696.4	11.54
696.6	11.52
696.8	11.41
697.0	11.25
697.2	11.37
697.4	11.57
697.6	11.28
697.8	11.05
698.0	10.82
698.2	10.69
698.4	10.61
698.6	10.72
698.8	10.34
699.0	10.26
699.2	10.26
699.4	10.24
699.6	10.23
699.8	10.28
700.0	10.41
700.2	10.49
700.4	10.23
700.6	10.56
700.8	10.34
701.0	10.03
701.2	9.803
701.4	9.724
701.6	9.478
701.8	9.960
702.0	9.959
702.2	10.06
702.4	9.828
702.6	9.820
702.8	9.471
703.0	9.553
703.2	9.566
703.4	9.668
703.6	9.461
703.8	9.516
704.0	9.380
704.2	9.427
704.4	9.231
704.6	8.969
704.8	8.716
705.0	8.908
705.2	9.067
705.4	9.361
705.6	9.167
705.8	8.934
706.0	8.725
706.2	8.770
706.4	8.997
706.6	8.998
706.8	8.493
707.0	8.262
707.2	8.279
707.4	8.423
707.6	8.858
707.8	8.726
708.0	8.407
708.2	8.161
708.4	8.154
708.6	8.063
708.8	8.164
709.0	8.141
