Sample:	'20211010A(EM)
File name:	G-Ni 6.FDS
Run date:	'16:06:25, 06/19/2023
Operator:	Administrator
Comment:	'

Instrument
Model:	F-4700 FL Spectrophotometer
Serial number:	2019-001
ROM Version:	5J24010 00

Instrument parameters
Measurement type:	Wavelength scan
Scan mode:	Emission
Data mode:	Fluorescence
EX WL:	400.0 nm
EM  Start WL:	420.0 nm
EM  End WL:	800.0 nm
Scan speed:	1200 nm/min
Delay:	0.0 s
EX Slit:	10.0 nm
EM Slit:	10.0 nm
PMT Voltage:	500 V
Response:	0.002 s
Corrected spectra:	Off
Shutter control:	On

Processing performed
Savitsky-Golay smoothed
Smoothing order:	3
Number of points:	7
Number of times:	1

Peak integration
Integration method:	Rectangular
Sensitivity:	1
Threshold:	1.000

Peaks
No.	Start(nm)	Apex(nm)	End(nm)	Height(Data)	Valley(nm)	Valley(Data)
1	420.0	533.0	533.6	414.9	533.6	410.9
2	533.6	535.0	535.8	424.5	535.8	418.6
3	535.8	536.4	537.4	424.8	537.4	420.5
4	537.4	538.2	539.0	424.2	539.0	419.0
5	539.0	540.2	541.0	424.6	541.0	422.1
6	541.0	542.4	545.4	427.7	545.4	414.8
7	545.4	546.0	556.0	420.1	556.0	382.4
8	556.0	556.8	650.4	388.5	650.4	43.29
9	650.4	651.2	656.2	45.62	656.2	36.22
10	656.2	657.0	679.2	37.72	679.2	17.08
11	679.2	680.0	697.2	18.11	697.2	9.501
12	697.2	697.6	723.4	10.54	723.4	3.854
13	723.4	725.4	783.6	4.866	783.6	0.850

Data points
nm	Data
420.0	0.487
420.2	0.452
420.4	0.476
420.6	0.521
420.8	0.546
421.0	0.472
421.2	0.468
421.4	0.410
421.6	0.360
421.8	0.423
422.0	0.451
422.2	0.500
422.4	0.574
422.6	0.666
422.8	0.651
423.0	0.624
423.2	0.515
423.4	0.343
423.6	0.331
423.8	0.490
424.0	0.584
424.2	0.610
424.4	0.576
424.6	0.429
424.8	0.491
425.0	0.640
425.2	0.702
425.4	0.683
425.6	0.574
425.8	0.379
426.0	0.371
426.2	0.354
426.4	0.368
426.6	0.439
426.8	0.574
427.0	0.507
427.2	0.564
427.4	0.529
427.6	0.478
427.8	0.470
428.0	0.566
428.2	0.518
428.4	0.569
428.6	0.610
428.8	0.579
429.0	0.590
429.2	0.488
429.4	0.540
429.6	0.592
429.8	0.684
430.0	0.636
430.2	0.574
430.4	0.368
430.6	0.397
430.8	0.406
431.0	0.450
431.2	0.490
431.4	0.486
431.6	0.565
431.8	0.607
432.0	0.574
432.2	0.435
432.4	0.508
432.6	0.506
432.8	0.591
433.0	0.593
433.2	0.510
433.4	0.345
433.6	0.420
433.8	0.338
434.0	0.339
434.2	0.480
434.4	0.499
434.6	0.582
434.8	0.630
435.0	0.495
435.2	0.519
435.4	0.588
435.6	0.571
435.8	0.628
436.0	0.548
436.2	0.480
436.4	0.462
436.6	0.427
436.8	0.426
437.0	0.528
437.2	0.510
437.4	0.568
437.6	0.548
437.8	0.564
438.0	0.568
438.2	0.560
438.4	0.476
438.6	0.513
438.8	0.564
439.0	0.590
439.2	0.598
439.4	0.701
439.6	0.753
439.8	0.716
440.0	0.727
440.2	0.631
440.4	0.590
440.6	0.740
440.8	0.783
441.0	0.718
441.2	0.750
441.4	0.727
441.6	0.656
441.8	0.576
442.0	0.440
442.2	0.386
442.4	0.449
442.6	0.528
442.8	0.536
443.0	0.550
443.2	0.537
443.4	0.604
443.6	0.676
443.8	0.628
444.0	0.463
444.2	0.432
444.4	0.328
444.6	0.392
444.8	0.537
445.0	0.558
445.2	0.505
445.4	0.479
445.6	0.344
445.8	0.333
446.0	0.451
446.2	0.566
446.4	0.592
446.6	0.559
446.8	0.604
447.0	0.608
447.2	0.545
447.4	0.468
447.6	0.412
447.8	0.394
448.0	0.520
448.2	0.646
448.4	0.652
448.6	0.676
448.8	0.658
449.0	0.585
449.2	0.615
449.4	0.604
449.6	0.514
449.8	0.535
450.0	0.511
450.2	0.474
450.4	0.468
450.6	0.478
450.8	0.551
451.0	0.602
451.2	0.619
451.4	0.511
451.6	0.370
451.8	0.343
452.0	0.386
452.2	0.572
452.4	0.598
452.6	0.547
452.8	0.504
453.0	0.416
453.2	0.333
453.4	0.483
453.6	0.485
453.8	0.556
454.0	0.625
454.2	0.705
454.4	0.810
454.6	0.735
454.8	0.547
455.0	0.487
455.2	0.324
455.4	0.405
455.6	0.615
455.8	0.650
456.0	0.566
456.2	0.551
456.4	0.445
456.6	0.454
456.8	0.536
457.0	0.668
457.2	0.656
457.4	0.663
457.6	0.634
457.8	0.562
458.0	0.567
458.2	0.621
458.4	0.584
458.6	0.631
458.8	0.560
459.0	0.609
459.2	0.631
459.4	0.679
459.6	0.687
459.8	0.718
460.0	0.819
460.2	0.845
460.4	0.811
460.6	0.799
460.8	0.752
461.0	0.613
461.2	0.604
461.4	0.550
461.6	0.665
461.8	0.789
462.0	0.914
462.2	0.834
462.4	0.733
462.6	0.726
462.8	0.765
463.0	0.737
463.2	0.726
463.4	0.713
463.6	0.805
463.8	0.906
464.0	0.888
464.2	0.842
464.4	0.747
464.6	0.707
464.8	0.703
465.0	0.774
465.2	0.739
465.4	0.770
465.6	0.666
465.8	0.661
466.0	0.637
466.2	0.838
466.4	0.832
466.6	0.767
466.8	0.758
467.0	0.778
467.2	0.814
467.4	0.883
467.6	0.850
467.8	0.919
468.0	0.976
468.2	1.083
468.4	1.174
468.6	1.159
468.8	1.167
469.0	1.198
469.2	1.147
469.4	1.141
469.6	1.188
469.8	1.138
470.0	1.162
470.2	1.234
470.4	1.292
470.6	1.222
470.8	1.211
471.0	1.309
471.2	1.431
471.4	1.584
471.6	1.655
471.8	1.625
472.0	1.498
472.2	1.544
472.4	1.639
472.6	1.641
472.8	1.594
473.0	1.567
473.2	1.462
473.4	1.492
473.6	1.669
473.8	1.771
474.0	1.796
474.2	1.818
474.4	1.746
474.6	1.933
474.8	2.069
475.0	2.258
475.2	2.329
475.4	2.209
475.6	2.118
475.8	2.302
476.0	2.473
476.2	2.752
476.4	2.852
476.6	2.934
476.8	3.086
477.0	3.233
477.2	3.275
477.4	3.436
477.6	3.545
477.8	3.696
478.0	3.647
478.2	3.705
478.4	3.687
478.6	3.855
478.8	3.992
479.0	4.050
479.2	4.068
479.4	4.298
479.6	4.483
479.8	4.635
480.0	4.752
480.2	4.811
480.4	5.273
480.6	5.676
480.8	5.999
481.0	6.129
481.2	6.312
481.4	6.367
481.6	6.764
481.8	7.074
482.0	7.037
482.2	7.083
482.4	7.354
482.6	7.447
482.8	7.718
483.0	8.066
483.2	8.150
483.4	8.488
483.6	9.185
483.8	9.475
484.0	9.628
484.2	10.16
484.4	10.26
484.6	10.31
484.8	10.52
485.0	10.85
485.2	11.09
485.4	11.82
485.6	12.64
485.8	13.24
486.0	13.79
486.2	14.63
486.4	14.88
486.6	15.47
486.8	16.01
487.0	16.34
487.2	16.30
487.4	16.72
487.6	16.68
487.8	17.66
488.0	18.11
488.2	19.22
488.4	20.07
488.6	20.81
488.8	21.00
489.0	21.49
489.2	21.70
489.4	22.33
489.6	23.22
489.8	23.67
490.0	24.24
490.2	24.52
490.4	25.66
490.6	26.66
490.8	27.56
491.0	28.64
491.2	29.24
491.4	29.48
491.6	30.68
491.8	31.86
492.0	33.16
492.2	34.61
492.4	34.74
492.6	36.02
492.8	37.88
493.0	39.45
493.2	40.47
493.4	41.41
493.6	40.79
493.8	41.98
494.0	43.35
494.2	45.12
494.4	46.29
494.6	48.36
494.8	49.15
495.0	50.34
495.2	50.85
495.4	52.05
495.6	52.95
495.8	55.05
496.0	56.81
496.2	58.29
496.4	59.92
496.6	61.64
496.8	63.02
497.0	64.35
497.2	65.57
497.4	67.26
497.6	69.16
497.8	71.50
498.0	73.14
498.2	74.49
498.4	75.81
498.6	77.81
498.8	78.18
499.0	80.24
499.2	81.33
499.4	82.70
499.6	85.72
499.8	89.78
500.0	91.27
500.2	94.20
500.4	96.80
500.6	97.21
500.8	99.63
501.0	102.1
501.2	103.3
501.4	105.7
501.6	108.5
501.8	109.0
502.0	110.1
502.2	112.4
502.4	114.8
502.6	117.7
502.8	119.9
503.0	122.0
503.2	123.9
503.4	126.3
503.6	128.5
503.8	130.8
504.0	132.4
504.2	134.9
504.4	138.2
504.6	140.3
504.8	142.8
505.0	144.5
505.2	146.4
505.4	148.1
505.6	152.9
505.8	156.3
506.0	159.3
506.2	161.4
506.4	162.5
506.6	162.1
506.8	166.4
507.0	169.4
507.2	173.6
507.4	176.7
507.6	178.4
507.8	180.3
508.0	183.4
508.2	184.9
508.4	187.4
508.6	188.6
508.8	191.6
509.0	196.2
509.2	200.7
509.4	204.2
509.6	205.7
509.8	206.6
510.0	208.2
510.2	210.4
510.4	214.8
510.6	218.6
510.8	221.7
511.0	223.1
511.2	225.1
511.4	227.4
511.6	229.3
511.8	232.3
512.0	236.3
512.2	238.7
512.4	241.1
512.6	242.6
512.8	244.5
513.0	247.7
513.2	252.5
513.4	256.0
513.6	257.8
513.8	259.4
514.0	262.1
514.2	263.5
514.4	265.4
514.6	266.9
514.8	269.6
515.0	271.6
515.2	275.8
515.4	279.5
515.6	282.9
515.8	285.6
516.0	286.2
516.2	285.2
516.4	287.5
516.6	292.1
516.8	296.4
517.0	301.1
517.2	301.9
517.4	301.2
517.6	301.0
517.8	303.9
518.0	306.8
518.2	310.8
518.4	315.4
518.6	316.5
518.8	316.5
519.0	317.2
519.2	319.7
519.4	322.0
519.6	326.2
519.8	328.3
520.0	330.3
520.2	330.3
520.4	333.2
520.6	336.0
520.8	336.5
521.0	338.1
521.2	338.4
521.4	337.6
521.6	341.3
521.8	347.1
522.0	352.2
522.2	356.5
522.4	357.5
522.6	356.6
522.8	357.2
523.0	357.4
523.2	358.3
523.4	360.9
523.6	361.2
523.8	363.2
524.0	365.1
524.2	366.4
524.4	367.2
524.6	371.5
524.8	372.3
525.0	375.2
525.2	377.4
525.4	379.0
525.6	379.3
525.8	381.7
526.0	382.1
526.2	385.4
526.4	386.0
526.6	384.4
526.8	383.8
527.0	384.4
527.2	385.3
527.4	390.1
527.6	391.4
527.8	392.1
528.0	393.5
528.2	395.7
528.4	396.6
528.6	397.4
528.8	395.8
529.0	395.2
529.2	394.1
529.4	396.8
529.6	399.8
529.8	403.7
530.0	406.1
530.2	407.3
530.4	407.1
530.6	408.8
530.8	409.6
531.0	410.5
531.2	411.0
531.4	411.2
531.6	412.5
531.8	413.9
532.0	414.9
532.2	413.8
532.4	413.4
532.6	413.0
532.8	414.8
533.0	414.9
533.2	413.9
533.4	411.4
533.6	410.9
533.8	411.4
534.0	414.1
534.2	417.8
534.4	420.0
534.6	421.3
534.8	423.9
535.0	424.5
535.2	422.3
535.4	421.4
535.6	420.3
535.8	418.6
536.0	420.8
536.2	421.9
536.4	424.8
536.6	424.1
536.8	423.8
537.0	422.5
537.2	421.7
537.4	420.5
537.6	422.5
537.8	421.0
538.0	422.6
538.2	424.2
538.4	423.8
538.6	422.1
538.8	421.1
539.0	419.0
539.2	419.5
539.4	419.9
539.6	420.9
539.8	421.4
540.0	424.4
540.2	424.6
540.4	423.5
540.6	424.0
540.8	423.4
541.0	422.1
541.2	424.2
541.4	423.8
541.6	423.2
541.8	424.3
542.0	425.9
542.2	427.4
542.4	427.7
542.6	425.3
542.8	425.5
543.0	422.8
543.2	423.7
543.4	423.9
543.6	422.8
543.8	420.6
544.0	419.5
544.2	416.2
544.4	416.3
544.6	417.0
544.8	420.6
545.0	420.1
545.2	416.9
545.4	414.8
545.6	415.1
545.8	416.2
546.0	420.1
546.2	419.3
546.4	417.3
546.6	416.6
546.8	416.0
547.0	414.7
547.2	414.6
547.4	412.3
547.6	411.3
547.8	412.3
548.0	413.5
548.2	414.2
548.4	413.5
548.6	410.0
548.8	408.3
549.0	407.2
549.2	407.2
549.4	409.1
549.6	408.4
549.8	406.4
550.0	406.8
550.2	405.9
550.4	403.1
550.6	403.8
550.8	403.2
551.0	403.4
551.2	404.2
551.4	405.5
551.6	401.6
551.8	399.1
552.0	397.5
552.2	398.2
552.4	399.8
552.6	400.1
552.8	398.9
553.0	397.0
553.2	393.8
553.4	393.2
553.6	393.1
553.8	390.6
554.0	392.0
554.2	392.7
554.4	392.0
554.6	389.5
554.8	387.4
555.0	385.4
555.2	386.0
555.4	386.1
555.6	386.1
555.8	383.1
556.0	382.4
556.2	383.4
556.4	385.4
556.6	387.5
556.8	388.5
557.0	387.4
557.2	386.8
557.4	384.3
557.6	381.2
557.8	379.9
558.0	377.1
558.2	374.4
558.4	374.9
558.6	373.0
558.8	373.4
559.0	375.0
559.2	374.2
559.4	373.6
559.6	372.8
559.8	370.6
560.0	370.2
560.2	368.1
560.4	365.9
560.6	367.4
560.8	366.9
561.0	365.3
561.2	363.3
561.4	360.2
561.6	359.6
561.8	361.3
562.0	362.2
562.2	361.3
562.4	358.7
562.6	357.0
562.8	356.1
563.0	353.5
563.2	353.6
563.4	353.9
563.6	353.6
563.8	352.9
564.0	351.6
564.2	348.7
564.4	347.1
564.6	345.0
564.8	344.2
565.0	344.3
565.2	344.6
565.4	345.1
565.6	345.2
565.8	343.2
566.0	343.0
566.2	343.6
566.4	342.2
566.6	342.0
566.8	338.4
567.0	334.6
567.2	333.4
567.4	333.4
567.6	333.4
567.8	335.1
568.0	333.0
568.2	332.0
568.4	329.5
568.6	326.7
568.8	324.9
569.0	323.1
569.2	322.6
569.4	323.4
569.6	322.7
569.8	321.8
570.0	322.1
570.2	320.1
570.4	319.1
570.6	316.5
570.8	313.8
571.0	312.1
571.2	312.2
571.4	312.3
571.6	312.5
571.8	311.6
572.0	307.7
572.2	305.2
572.4	304.0
572.6	302.8
572.8	300.7
573.0	301.0
573.2	300.3
573.4	301.7
573.6	303.0
573.8	302.4
574.0	300.4
574.2	298.9
574.4	297.8
574.6	296.5
574.8	293.7
575.0	292.8
575.2	291.2
575.4	291.8
575.6	292.3
575.8	292.5
576.0	290.7
576.2	289.9
576.4	285.9
576.6	284.4
576.8	283.1
577.0	281.9
577.2	282.5
577.4	281.9
577.6	281.0
577.8	279.2
578.0	279.5
578.2	278.3
578.4	279.5
578.6	277.7
578.8	275.5
579.0	271.1
579.2	270.6
579.4	269.3
579.6	269.5
579.8	271.0
580.0	271.5
580.2	269.5
580.4	269.7
580.6	267.9
580.8	265.7
581.0	265.8
581.2	264.3
581.4	261.7
581.6	261.7
581.8	259.0
582.0	256.2
582.2	255.6
582.4	256.3
582.6	256.1
582.8	257.0
583.0	256.5
583.2	254.4
583.4	253.0
583.6	251.9
583.8	249.9
584.0	248.8
584.2	248.7
584.4	247.2
584.6	247.6
584.8	245.2
585.0	244.2
585.2	244.1
585.4	242.6
585.6	241.5
585.8	241.2
586.0	238.4
586.2	237.4
586.4	238.7
586.6	237.7
586.8	237.8
587.0	236.5
587.2	233.5
587.4	232.5
587.6	233.1
587.8	232.3
588.0	232.2
588.2	231.7
588.4	229.8
588.6	228.0
588.8	225.6
589.0	223.4
589.2	220.8
589.4	222.0
589.6	222.9
589.8	222.0
590.0	219.9
590.2	218.4
590.4	216.2
590.6	216.0
590.8	214.6
591.0	215.7
591.2	215.1
591.4	215.1
591.6	214.5
591.8	212.2
592.0	208.3
592.2	208.3
592.4	206.4
592.6	208.1
592.8	210.0
593.0	209.3
593.2	208.7
593.4	207.0
593.6	205.0
593.8	203.2
594.0	201.5
594.2	197.7
594.4	197.8
594.6	197.0
594.8	197.6
595.0	196.6
595.2	196.4
595.4	194.6
595.6	194.2
595.8	192.2
596.0	190.8
596.2	190.7
596.4	191.0
596.6	191.3
596.8	190.8
597.0	188.4
597.2	186.5
597.4	184.3
597.6	183.6
597.8	182.9
598.0	181.6
598.2	180.0
598.4	179.9
598.6	179.6
598.8	179.1
599.0	177.9
599.2	178.5
599.4	176.8
599.6	178.4
599.8	178.5
600.0	176.8
600.2	177.2
600.4	178.2
600.6	176.1
600.8	175.1
601.0	171.5
601.2	169.3
601.4	168.3
601.6	170.0
601.8	172.0
602.0	171.9
602.2	170.3
602.4	168.2
602.6	165.2
602.8	166.4
603.0	167.0
603.2	165.6
603.4	163.2
603.6	160.5
603.8	159.4
604.0	159.4
604.2	158.7
604.4	157.2
604.6	155.8
604.8	155.0
605.0	155.7
605.2	155.1
605.4	155.4
605.6	154.6
605.8	154.9
606.0	153.9
606.2	154.0
606.4	151.9
606.6	151.1
606.8	149.0
607.0	148.6
607.2	147.5
607.4	147.6
607.6	146.5
607.8	147.5
608.0	146.4
608.2	146.8
608.4	146.7
608.6	145.3
608.8	144.4
609.0	142.8
609.2	140.4
609.4	141.0
609.6	141.0
609.8	140.8
610.0	140.5
610.2	139.0
610.4	137.4
610.6	136.1
610.8	135.6
611.0	134.6
611.2	134.3
611.4	134.2
611.6	133.2
611.8	131.4
612.0	131.6
612.2	131.3
612.4	130.9
612.6	131.2
612.8	129.2
613.0	127.3
613.2	126.2
613.4	126.3
613.6	125.7
613.8	127.4
614.0	126.8
614.2	125.4
614.4	123.3
614.6	122.4
614.8	121.7
615.0	122.6
615.2	122.5
615.4	120.7
615.6	120.3
615.8	120.6
616.0	120.9
616.2	119.5
616.4	117.9
616.6	116.2
616.8	116.0
617.0	116.6
617.2	116.5
617.4	114.8
617.6	113.7
617.8	113.9
618.0	113.4
618.2	112.9
618.4	111.4
618.6	110.6
618.8	109.9
619.0	109.5
619.2	109.5
619.4	109.7
619.6	109.2
619.8	108.1
620.0	108.2
620.2	107.1
620.4	106.4
620.6	106.1
620.8	104.9
621.0	103.8
621.2	104.7
621.4	105.1
621.6	104.0
621.8	102.4
622.0	100.7
622.2	100.5
622.4	100.7
622.6	100.6
622.8	99.42
623.0	98.53
623.2	97.84
623.4	98.89
623.6	98.10
623.8	98.27
624.0	97.18
624.2	96.90
624.4	96.56
624.6	96.44
624.8	94.35
625.0	94.10
625.2	93.15
625.4	93.52
625.6	93.46
625.8	92.95
626.0	92.53
626.2	91.68
626.4	91.28
626.6	89.91
626.8	89.01
627.0	88.68
627.2	88.59
627.4	88.12
627.6	87.74
627.8	85.77
628.0	84.97
628.2	84.28
628.4	85.13
628.6	85.45
628.8	85.70
629.0	85.10
629.2	83.97
629.4	82.74
629.6	82.60
629.8	81.66
630.0	80.58
630.2	80.26
630.4	80.57
630.6	80.75
630.8	80.02
631.0	79.22
631.2	77.89
631.4	77.53
631.6	78.22
631.8	78.60
632.0	78.69
632.2	78.04
632.4	77.95
632.6	76.71
632.8	75.78
633.0	74.85
633.2	74.89
633.4	73.40
633.6	73.66
633.8	74.10
634.0	74.00
634.2	73.07
634.4	72.33
634.6	71.30
634.8	71.64
635.0	71.75
635.2	71.67
635.4	71.65
635.6	71.18
635.8	71.08
636.0	70.71
636.2	68.67
636.4	66.83
636.6	65.42
636.8	64.45
637.0	65.13
637.2	66.03
637.4	66.66
637.6	66.71
637.8	65.79
638.0	65.09
638.2	64.79
638.4	63.43
638.6	62.37
638.8	62.05
639.0	61.86
639.2	62.14
639.4	62.67
639.6	62.05
639.8	61.84
640.0	61.60
640.2	60.65
640.4	60.77
640.6	59.71
640.8	58.97
641.0	58.79
641.2	58.16
641.4	56.88
641.6	57.14
641.8	57.40
642.0	57.93
642.2	57.37
642.4	57.02
642.6	55.53
642.8	54.38
643.0	54.99
643.2	55.35
643.4	55.64
643.6	55.40
643.8	54.78
644.0	54.37
644.2	53.86
644.4	53.42
644.6	53.51
644.8	52.90
645.0	52.22
645.2	52.54
645.4	51.49
645.6	49.92
645.8	49.50
646.0	50.04
646.2	50.40
646.4	51.09
646.6	50.56
646.8	49.44
647.0	48.52
647.2	48.66
647.4	49.32
647.6	49.09
647.8	49.00
648.0	48.50
648.2	47.34
648.4	46.31
648.6	46.08
648.8	46.29
649.0	46.62
649.2	46.97
649.4	46.78
649.6	45.55
649.8	44.54
650.0	44.41
650.2	43.71
650.4	43.29
650.6	43.90
650.8	43.84
651.0	44.92
651.2	45.62
651.4	45.56
651.6	44.50
651.8	43.71
652.0	42.53
652.2	42.34
652.4	42.04
652.6	42.03
652.8	40.97
653.0	40.17
653.2	39.47
653.4	38.34
653.6	38.60
653.8	39.11
654.0	38.70
654.2	39.04
654.4	38.94
654.6	38.98
654.8	39.13
655.0	39.07
655.2	38.01
655.4	37.83
655.6	36.76
655.8	36.70
656.0	36.28
656.2	36.22
656.4	36.92
656.6	37.25
656.8	37.29
657.0	37.72
657.2	36.95
657.4	36.37
657.6	36.14
657.8	35.09
658.0	35.00
658.2	35.18
658.4	34.85
658.6	35.06
658.8	35.39
659.0	34.68
659.2	34.31
659.4	33.99
659.6	33.49
659.8	32.81
660.0	33.29
660.2	32.39
660.4	32.41
660.6	32.72
660.8	32.33
661.0	31.55
661.2	31.77
661.4	30.94
661.6	31.03
661.8	31.04
662.0	29.93
662.2	29.43
662.4	29.38
662.6	29.20
662.8	29.56
663.0	29.61
663.2	29.20
663.4	29.62
663.6	29.64
663.8	29.70
664.0	29.75
664.2	30.01
664.4	29.67
664.6	29.37
664.8	28.36
665.0	27.53
665.2	27.41
665.4	27.38
665.6	27.63
665.8	28.08
666.0	27.78
666.2	27.22
666.4	26.75
666.6	25.95
666.8	26.17
667.0	27.10
667.2	27.09
667.4	27.07
667.6	26.98
667.8	26.51
668.0	25.71
668.2	25.35
668.4	24.73
668.6	24.47
668.8	24.79
669.0	25.11
669.2	25.00
669.4	24.92
669.6	24.82
669.8	24.40
670.0	24.54
670.2	24.30
670.4	24.02
670.6	23.90
670.8	23.61
671.0	23.54
671.2	23.77
671.4	23.26
671.6	22.91
671.8	22.96
672.0	22.70
672.2	22.62
672.4	22.33
672.6	21.43
672.8	21.12
673.0	21.45
673.2	21.26
673.4	21.56
673.6	21.17
673.8	20.21
674.0	20.06
674.2	19.95
674.4	19.90
674.6	19.92
674.8	20.02
675.0	19.84
675.2	20.02
675.4	20.03
675.6	20.15
675.8	19.62
676.0	19.59
676.2	19.22
676.4	19.10
676.6	18.82
676.8	18.61
677.0	18.79
677.2	18.87
677.4	19.26
677.6	19.41
677.8	18.77
678.0	18.12
678.2	17.89
678.4	17.69
678.6	17.95
678.8	17.97
679.0	17.55
679.2	17.08
679.4	17.48
679.6	18.11
679.8	17.98
680.0	18.11
680.2	17.42
680.4	16.71
680.6	16.19
680.8	16.32
681.0	16.17
681.2	16.51
681.4	16.58
681.6	16.65
681.8	16.13
682.0	16.57
682.2	16.32
682.4	16.23
682.6	16.18
682.8	15.79
683.0	15.43
683.2	15.65
683.4	15.48
683.6	15.47
683.8	15.81
684.0	15.27
684.2	15.02
684.4	15.05
684.6	15.16
684.8	14.43
685.0	14.59
685.2	14.09
685.4	14.10
685.6	14.07
685.8	14.28
686.0	13.81
686.2	13.94
686.4	13.88
686.6	13.74
686.8	13.51
687.0	13.66
687.2	13.50
687.4	13.50
687.6	13.61
687.8	13.61
688.0	13.42
688.2	13.56
688.4	13.13
688.6	12.82
688.8	12.75
689.0	12.68
689.2	12.63
689.4	12.81
689.6	12.11
689.8	12.03
690.0	11.80
690.2	11.36
690.4	11.49
690.6	11.68
690.8	11.44
691.0	11.88
691.2	11.74
691.4	11.40
691.6	11.81
691.8	11.97
692.0	11.89
692.2	12.10
692.4	11.60
692.6	10.97
692.8	11.07
693.0	10.90
693.2	11.05
693.4	11.51
693.6	11.32
693.8	10.95
694.0	10.81
694.2	10.50
694.4	10.52
694.6	10.65
694.8	10.18
695.0	10.19
695.2	10.19
695.4	10.50
695.6	10.83
695.8	10.99
696.0	10.69
696.2	10.55
696.4	10.25
696.6	10.10
696.8	9.781
697.0	9.513
697.2	9.501
697.4	9.892
697.6	10.54
697.8	10.46
698.0	9.995
698.2	9.703
698.4	9.449
698.6	9.563
698.8	9.822
699.0	9.703
699.2	9.296
699.4	9.357
699.6	9.383
699.8	9.122
700.0	9.139
700.2	9.439
700.4	9.144
700.6	9.508
700.8	9.465
701.0	9.256
701.2	9.103
701.4	8.881
701.6	8.471
701.8	8.576
702.0	8.477
702.2	8.892
702.4	8.846
702.6	8.625
702.8	8.316
703.0	8.215
703.2	8.020
703.4	8.169
703.6	8.284
703.8	8.439
704.0	8.275
704.2	7.889
704.4	7.771
704.6	7.439
704.8	7.762
705.0	8.087
705.2	8.120
705.4	7.869
705.6	7.961
705.8	7.847
706.0	7.942
706.2	7.933
706.4	7.803
706.6	7.691
