Sample:	'20211010A(EM)
File name:	G-Ni 2.FDS
Run date:	'15:36:21, 06/19/2023
Operator:	Administrator
Comment:	'

Instrument
Model:	F-4700 FL Spectrophotometer
Serial number:	2019-001
ROM Version:	5J24010 00

Instrument parameters
Measurement type:	Wavelength scan
Scan mode:	Emission
Data mode:	Fluorescence
EX WL:	400.0 nm
EM  Start WL:	420.0 nm
EM  End WL:	800.0 nm
Scan speed:	1200 nm/min
Delay:	0.0 s
EX Slit:	10.0 nm
EM Slit:	10.0 nm
PMT Voltage:	500 V
Response:	0.002 s
Corrected spectra:	Off
Shutter control:	On

Processing performed
Savitsky-Golay smoothed
Smoothing order:	3
Number of points:	7
Number of times:	1

Peak integration
Integration method:	Rectangular
Sensitivity:	1
Threshold:	1.000

Peaks
No.	Start(nm)	Apex(nm)	End(nm)	Height(Data)	Valley(nm)	Valley(Data)
1	420.0	532.0	534.0	182.2	534.0	179.0
2	534.0	535.6	536.2	184.4	536.2	181.7
3	536.2	540.0	542.6	186.8	542.6	181.5
4	542.6	543.6	544.4	185.7	544.4	182.4
5	544.4	545.8	548.0	184.6	548.0	179.7
6	548.0	548.8	552.6	182.1	552.6	175.1
7	552.6	554.2	557.2	177.4	557.2	167.9
8	557.2	558.0	581.2	170.8	581.2	117.9
9	581.2	582.2	599.4	120.1	599.4	81.48
10	599.4	600.0	613.4	83.31	613.4	58.40
11	613.4	614.0	624.2	59.48	624.2	43.86
12	624.2	624.8	655.6	45.87	655.6	16.94
13	655.6	657.2	675.4	18.49	675.4	8.786
14	675.4	676.2	777.0	9.843	777.0	0.409

Data points
nm	Data
420.0	0.480
420.2	0.397
420.4	0.380
420.6	0.397
420.8	0.412
421.0	0.373
421.2	0.320
421.4	0.296
421.6	0.353
421.8	0.368
422.0	0.422
422.2	0.388
422.4	0.379
422.6	0.351
422.8	0.376
423.0	0.435
423.2	0.446
423.4	0.407
423.6	0.461
423.8	0.429
424.0	0.497
424.2	0.549
424.4	0.573
424.6	0.467
424.8	0.491
425.0	0.349
425.2	0.426
425.4	0.552
425.6	0.629
425.8	0.462
426.0	0.460
426.2	0.341
426.4	0.319
426.6	0.405
426.8	0.481
427.0	0.557
427.2	0.622
427.4	0.539
427.6	0.468
427.8	0.439
428.0	0.460
428.2	0.482
428.4	0.319
428.6	0.118
428.8	0.190
429.0	0.285
429.2	0.388
429.4	0.463
429.6	0.410
429.8	0.315
430.0	0.322
430.2	0.356
430.4	0.348
430.6	0.352
430.8	0.388
431.0	0.331
431.2	0.308
431.4	0.291
431.6	0.301
431.8	0.327
432.0	0.427
432.2	0.394
432.4	0.294
432.6	0.254
432.8	0.277
433.0	0.341
433.2	0.447
433.4	0.430
433.6	0.283
433.8	0.346
434.0	0.339
434.2	0.306
434.4	0.446
434.6	0.473
434.8	0.379
435.0	0.498
435.2	0.525
435.4	0.421
435.6	0.421
435.8	0.333
436.0	0.224
436.2	0.306
436.4	0.413
436.6	0.415
436.8	0.379
437.0	0.313
437.2	0.358
437.4	0.414
437.6	0.535
437.8	0.471
438.0	0.443
438.2	0.370
438.4	0.348
438.6	0.368
438.8	0.463
439.0	0.425
439.2	0.467
439.4	0.378
439.6	0.275
439.8	0.326
440.0	0.341
440.2	0.317
440.4	0.483
440.6	0.512
440.8	0.460
441.0	0.423
441.2	0.359
441.4	0.335
441.6	0.474
441.8	0.553
442.0	0.498
442.2	0.422
442.4	0.366
442.6	0.333
442.8	0.310
443.0	0.330
443.2	0.351
443.4	0.419
443.6	0.441
443.8	0.485
444.0	0.558
444.2	0.548
444.4	0.470
444.6	0.403
444.8	0.291
445.0	0.280
445.2	0.396
445.4	0.427
445.6	0.359
445.8	0.294
446.0	0.256
446.2	0.325
446.4	0.444
446.6	0.485
446.8	0.466
447.0	0.494
447.2	0.485
447.4	0.517
447.6	0.463
447.8	0.356
448.0	0.325
448.2	0.382
448.4	0.372
448.6	0.459
448.8	0.447
449.0	0.510
449.2	0.571
449.4	0.532
449.6	0.429
449.8	0.316
450.0	0.203
450.2	0.249
450.4	0.324
450.6	0.343
450.8	0.368
451.0	0.277
451.2	0.259
451.4	0.336
451.6	0.361
451.8	0.427
452.0	0.529
452.2	0.451
452.4	0.349
452.6	0.313
452.8	0.274
453.0	0.375
453.2	0.506
453.4	0.596
453.6	0.564
453.8	0.434
454.0	0.349
454.2	0.324
454.4	0.304
454.6	0.359
454.8	0.422
455.0	0.388
455.2	0.367
455.4	0.372
455.6	0.359
455.8	0.353
456.0	0.344
456.2	0.328
456.4	0.375
456.6	0.363
456.8	0.337
457.0	0.388
457.2	0.364
457.4	0.329
457.6	0.416
457.8	0.432
458.0	0.448
458.2	0.446
458.4	0.355
458.6	0.218
458.8	0.283
459.0	0.353
459.2	0.411
459.4	0.426
459.6	0.421
459.8	0.351
460.0	0.315
460.2	0.342
460.4	0.298
460.6	0.333
460.8	0.415
461.0	0.446
461.2	0.370
461.4	0.343
461.6	0.263
461.8	0.303
462.0	0.395
462.2	0.514
462.4	0.522
462.6	0.481
462.8	0.381
463.0	0.377
463.2	0.355
463.4	0.376
463.6	0.361
463.8	0.367
464.0	0.318
464.2	0.406
464.4	0.347
464.6	0.357
464.8	0.367
465.0	0.404
465.2	0.400
465.4	0.531
465.6	0.426
465.8	0.419
466.0	0.413
466.2	0.339
466.4	0.254
466.6	0.349
466.8	0.321
467.0	0.387
467.2	0.543
467.4	0.520
467.6	0.477
467.8	0.518
468.0	0.540
468.2	0.530
468.4	0.538
468.6	0.441
468.8	0.391
469.0	0.388
469.2	0.448
469.4	0.487
469.6	0.568
469.8	0.526
470.0	0.599
470.2	0.650
470.4	0.614
470.6	0.588
470.8	0.668
471.0	0.486
471.2	0.508
471.4	0.537
471.6	0.606
471.8	0.616
472.0	0.703
472.2	0.633
472.4	0.642
472.6	0.597
472.8	0.696
473.0	0.745
473.2	0.723
473.4	0.728
473.6	0.793
473.8	0.774
474.0	0.831
474.2	0.961
474.4	0.951
474.6	0.955
474.8	0.979
475.0	0.843
475.2	0.835
475.4	0.889
475.6	1.038
475.8	1.167
476.0	1.229
476.2	1.218
476.4	1.299
476.6	1.219
476.8	1.219
477.0	1.176
477.2	1.391
477.4	1.548
477.6	1.667
477.8	1.560
478.0	1.510
478.2	1.372
478.4	1.623
478.6	1.570
478.8	1.580
479.0	1.546
479.2	1.643
479.4	1.652
479.6	1.680
479.8	1.709
480.0	1.804
480.2	1.894
480.4	2.044
480.6	2.156
480.8	2.028
481.0	2.185
481.2	2.272
481.4	2.311
481.6	2.396
481.8	2.457
482.0	2.296
482.2	2.462
482.4	2.606
482.6	2.732
482.8	2.877
483.0	3.039
483.2	2.970
483.4	3.166
483.6	3.302
483.8	3.639
484.0	3.817
484.2	4.066
484.4	3.952
484.6	3.769
484.8	3.585
485.0	3.868
485.2	4.158
485.4	4.769
485.6	5.144
485.8	5.232
486.0	4.883
486.2	4.857
486.4	4.829
486.6	5.192
486.8	5.696
487.0	6.189
487.2	6.201
487.4	6.140
487.6	6.198
487.8	6.462
488.0	6.464
488.2	6.650
488.4	6.873
488.6	6.985
488.8	7.354
489.0	8.047
489.2	8.140
489.4	8.365
489.6	8.809
489.8	9.436
490.0	9.619
490.2	10.18
490.4	10.27
490.6	10.43
490.8	10.39
491.0	10.72
491.2	10.92
491.4	11.56
491.6	11.66
491.8	11.96
492.0	12.25
492.2	12.36
492.4	12.98
492.6	13.50
492.8	13.74
493.0	14.29
493.2	14.72
493.4	15.11
493.6	15.94
493.8	16.25
494.0	17.07
494.2	17.35
494.4	17.25
494.6	17.84
494.8	17.93
495.0	18.04
495.2	18.55
495.4	19.08
495.6	19.91
495.8	20.79
496.0	21.37
496.2	21.94
496.4	22.77
496.6	23.90
496.8	24.33
497.0	24.16
497.2	24.44
497.4	25.17
497.6	25.94
497.8	26.90
498.0	27.62
498.2	28.54
498.4	30.13
498.6	31.11
498.8	31.41
499.0	31.36
499.2	32.41
499.4	33.77
499.6	34.69
499.8	34.66
500.0	35.68
500.2	36.00
500.4	36.90
500.6	38.22
500.8	38.70
501.0	39.64
501.2	41.10
501.4	42.29
501.6	43.40
501.8	44.57
502.0	45.13
502.2	45.38
502.4	45.33
502.6	44.98
502.8	46.04
503.0	47.43
503.2	49.26
503.4	50.58
503.6	51.78
503.8	51.69
504.0	52.92
504.2	54.03
504.4	55.19
504.6	56.35
504.8	57.68
505.0	58.39
505.2	60.04
505.4	60.86
505.6	61.37
505.8	62.05
506.0	63.54
506.2	65.12
506.4	66.09
506.6	66.54
506.8	66.82
507.0	68.22
507.2	70.28
507.4	71.90
507.6	73.32
507.8	74.18
508.0	75.15
508.2	77.18
508.4	78.13
508.6	78.40
508.8	80.03
509.0	81.02
509.2	81.64
509.4	82.22
509.6	83.04
509.8	83.76
510.0	84.73
510.2	86.96
510.4	88.12
510.6	89.96
510.8	91.49
511.0	93.03
511.2	93.35
511.4	94.91
511.6	95.30
511.8	96.28
512.0	96.99
512.2	98.94
512.4	99.66
512.6	100.9
512.8	102.0
513.0	103.9
513.2	106.4
513.4	108.3
513.6	109.0
513.8	108.8
514.0	108.8
514.2	110.1
514.4	111.7
514.6	111.4
514.8	113.0
515.0	114.2
515.2	114.6
515.4	117.1
515.6	118.7
515.8	118.7
516.0	121.3
516.2	123.4
516.4	123.0
516.6	124.1
516.8	124.1
517.0	123.2
517.2	124.7
517.4	127.0
517.6	128.2
517.8	129.9
518.0	130.3
518.2	131.2
518.4	133.2
518.6	135.9
518.8	136.3
519.0	136.3
519.2	135.4
519.4	135.3
519.6	136.9
519.8	138.9
520.0	139.5
520.2	141.0
520.4	142.8
520.6	142.9
520.8	144.9
521.0	145.1
521.2	145.4
521.4	146.0
521.6	147.0
521.8	148.5
522.0	149.5
522.2	150.8
522.4	152.6
522.6	152.6
522.8	151.3
523.0	151.9
523.2	151.8
523.4	153.3
523.6	155.7
523.8	156.6
524.0	157.2
524.2	159.3
524.4	160.3
524.6	160.2
524.8	160.0
525.0	159.7
525.2	159.9
525.4	161.5
525.6	162.5
525.8	162.4
526.0	162.4
526.2	163.6
526.4	164.0
526.6	165.8
526.8	166.4
527.0	167.4
527.2	168.5
527.4	169.1
527.6	168.9
527.8	168.0
528.0	167.1
528.2	168.8
528.4	169.5
528.6	169.5
528.8	170.5
529.0	170.5
529.2	172.1
529.4	172.5
529.6	172.0
529.8	171.2
530.0	173.2
530.2	176.1
530.4	176.4
530.6	176.6
530.8	176.9
531.0	175.1
531.2	176.4
531.4	178.8
531.6	178.7
531.8	181.5
532.0	182.2
532.2	180.9
532.4	179.8
532.6	179.2
532.8	179.2
533.0	181.2
533.2	181.4
533.4	181.1
533.6	179.8
533.8	179.1
534.0	179.0
534.2	181.2
534.4	183.4
534.6	183.6
534.8	183.2
535.0	182.4
535.2	182.1
535.4	183.0
535.6	184.4
535.8	184.1
536.0	182.9
536.2	181.7
536.4	181.9
536.6	182.9
536.8	184.4
537.0	185.3
537.2	185.4
537.4	185.4
537.6	184.5
537.8	183.6
538.0	183.1
538.2	184.0
538.4	185.5
538.6	186.0
538.8	186.1
539.0	185.0
539.2	184.2
539.4	184.1
539.6	185.1
539.8	185.0
540.0	186.8
540.2	186.3
540.4	185.1
540.6	183.0
540.8	183.0
541.0	183.4
541.2	184.8
541.4	182.8
541.6	182.0
541.8	181.9
542.0	182.8
542.2	183.0
542.4	183.9
542.6	181.5
542.8	182.0
543.0	182.8
543.2	183.8
543.4	184.6
543.6	185.7
543.8	185.5
544.0	185.3
544.2	184.4
544.4	182.4
544.6	183.3
544.8	182.7
545.0	183.4
545.2	183.2
545.4	183.8
545.6	183.1
545.8	184.6
546.0	183.5
546.2	183.1
546.4	182.4
546.6	182.3
546.8	182.6
547.0	183.9
547.2	183.8
547.4	182.5
547.6	181.8
547.8	180.7
548.0	179.7
548.2	180.1
548.4	180.6
548.6	180.3
548.8	182.1
549.0	181.5
549.2	180.3
549.4	178.7
549.6	178.6
549.8	179.0
550.0	180.9
550.2	179.9
550.4	179.4
550.6	177.5
550.8	177.4
551.0	177.4
551.2	176.8
551.4	175.7
551.6	176.3
551.8	176.4
552.0	177.5
552.2	178.1
552.4	176.1
552.6	175.1
552.8	175.3
553.0	176.2
553.2	177.0
553.4	176.4
553.6	176.0
553.8	175.9
554.0	176.3
554.2	177.4
554.4	176.2
554.6	173.7
554.8	173.5
555.0	172.6
555.2	172.9
555.4	173.0
555.6	171.5
555.8	169.8
556.0	169.6
556.2	170.1
556.4	170.1
556.6	168.9
556.8	168.7
557.0	168.3
557.2	167.9
557.4	169.4
557.6	169.9
557.8	170.0
558.0	170.8
558.2	170.7
558.4	168.3
558.6	166.9
558.8	166.4
559.0	165.7
559.2	166.5
559.4	166.4
559.6	164.9
559.8	163.6
560.0	164.0
560.2	163.7
560.4	163.4
560.6	163.5
560.8	163.5
561.0	163.1
561.2	162.7
561.4	161.6
561.6	160.9
561.8	161.8
562.0	162.1
562.2	162.1
562.4	162.1
562.6	161.0
562.8	160.9
563.0	158.8
563.2	157.8
563.4	156.2
563.6	155.5
563.8	155.3
564.0	156.0
564.2	157.1
564.4	158.2
564.6	156.9
564.8	155.0
565.0	154.3
565.2	154.8
565.4	156.1
565.6	155.3
565.8	153.0
566.0	152.0
566.2	151.7
566.4	151.8
566.6	152.1
566.8	151.2
567.0	148.9
567.2	148.5
567.4	148.4
567.6	148.2
567.8	148.2
568.0	148.2
568.2	147.8
568.4	147.2
568.6	147.2
568.8	146.7
569.0	146.2
569.2	145.9
569.4	146.3
569.6	146.1
569.8	146.9
570.0	147.4
570.2	146.2
570.4	145.6
570.6	145.5
570.8	144.5
571.0	143.5
571.2	143.2
571.4	141.3
571.6	141.5
571.8	142.1
572.0	142.1
572.2	141.7
572.4	141.1
572.6	140.1
572.8	138.5
573.0	136.1
573.2	135.0
573.4	135.2
573.6	135.1
573.8	135.4
574.0	135.1
574.2	134.5
574.4	134.1
574.6	134.2
574.8	134.9
575.0	134.8
575.2	134.3
575.4	132.8
575.6	131.2
575.8	130.3
576.0	130.3
576.2	130.2
576.4	130.7
576.6	129.5
576.8	129.2
577.0	129.5
577.2	128.3
577.4	128.1
577.6	129.2
577.8	128.1
578.0	127.3
578.2	128.0
578.4	126.7
578.6	125.5
578.8	125.5
579.0	123.9
579.2	123.7
579.4	124.2
579.6	124.0
579.8	123.0
580.0	121.4
580.2	120.0
580.4	120.3
580.6	120.0
580.8	119.2
581.0	118.9
581.2	117.9
581.4	118.2
581.6	118.1
581.8	118.7
582.0	119.2
582.2	120.1
582.4	118.4
582.6	117.5
582.8	114.6
583.0	112.9
583.2	112.2
583.4	112.1
583.6	112.3
583.8	113.7
584.0	113.0
584.2	112.9
584.4	112.8
584.6	112.6
584.8	111.9
585.0	110.7
585.2	109.0
585.4	108.6
585.6	108.6
585.8	108.6
586.0	107.9
586.2	108.4
586.4	108.3
586.6	108.1
586.8	107.8
587.0	108.2
587.2	107.7
587.4	107.7
587.6	106.4
587.8	104.9
588.0	104.2
588.2	104.1
588.4	103.9
588.6	104.4
588.8	103.6
589.0	102.2
589.2	101.8
589.4	100.6
589.6	100.9
589.8	101.4
590.0	99.86
590.2	99.21
590.4	99.20
590.6	98.95
590.8	99.05
591.0	100.1
591.2	99.53
591.4	99.06
591.6	98.31
591.8	96.87
592.0	96.46
592.2	96.35
592.4	96.41
592.6	94.60
592.8	93.66
593.0	93.00
593.2	93.00
593.4	92.98
593.6	94.27
593.8	92.18
594.0	91.99
594.2	91.20
594.4	89.87
594.6	89.84
594.8	90.96
595.0	90.82
595.2	91.43
595.4	89.62
595.6	89.27
595.8	88.60
596.0	88.80
596.2	88.94
596.4	88.39
596.6	86.58
596.8	85.18
597.0	84.88
597.2	85.94
597.4	87.01
597.6	87.75
597.8	87.75
598.0	86.26
598.2	84.72
598.4	83.73
598.6	82.58
598.8	82.52
599.0	82.51
599.2	82.17
599.4	81.48
599.6	82.10
599.8	82.65
600.0	83.31
600.2	82.59
600.4	80.46
600.6	78.98
600.8	78.11
601.0	78.22
601.2	78.38
601.4	77.71
601.6	77.32
601.8	78.42
602.0	78.33
602.2	78.29
602.4	77.77
602.6	76.36
602.8	75.64
603.0	75.91
603.2	75.81
603.4	76.00
603.6	75.01
603.8	73.97
604.0	73.19
604.2	73.24
604.4	73.42
604.6	73.84
604.8	72.31
605.0	71.77
605.2	71.07
605.4	71.02
605.6	71.18
605.8	71.59
606.0	70.57
606.2	70.75
606.4	69.66
606.6	68.76
606.8	69.23
607.0	70.13
607.2	69.90
607.4	70.66
607.6	70.34
607.8	69.20
608.0	69.20
608.2	67.82
608.4	66.69
608.6	66.21
608.8	65.87
609.0	65.14
609.2	65.24
609.4	64.58
609.6	64.15
609.8	64.11
610.0	64.38
610.2	63.91
610.4	63.48
610.6	63.46
610.8	62.43
611.0	62.63
611.2	62.49
611.4	62.26
611.6	61.97
611.8	62.33
612.0	62.36
612.2	61.69
612.4	60.53
612.6	59.79
612.8	59.02
613.0	58.62
613.2	58.69
613.4	58.40
613.6	58.57
613.8	58.45
614.0	59.48
614.2	58.68
614.4	59.01
614.6	58.58
614.8	58.07
615.0	57.09
615.2	57.60
615.4	56.36
615.6	56.39
615.8	55.71
616.0	55.61
616.2	55.33
616.4	55.17
616.6	55.02
616.8	55.07
617.0	55.05
617.2	54.15
617.4	53.56
617.6	52.53
617.8	52.78
618.0	52.05
618.2	52.13
618.4	51.43
618.6	52.04
618.8	52.45
619.0	52.69
619.2	51.07
619.4	50.17
619.6	49.98
619.8	50.98
620.0	51.38
620.2	50.86
620.4	49.60
620.6	48.06
620.8	48.20
621.0	48.87
621.2	50.32
621.4	50.47
621.6	50.09
621.8	48.71
622.0	47.78
622.2	46.15
622.4	46.21
622.6	45.86
622.8	46.15
623.0	46.37
623.2	47.21
623.4	46.59
623.6	46.14
623.8	45.15
624.0	44.15
624.2	43.86
624.4	44.66
624.6	45.05
624.8	45.87
625.0	45.33
625.2	44.89
625.4	44.01
625.6	43.56
625.8	42.62
626.0	42.61
626.2	42.11
626.4	42.66
626.6	42.58
626.8	43.22
627.0	42.50
627.2	42.11
627.4	41.40
627.6	40.22
627.8	39.73
628.0	40.04
628.2	40.26
628.4	40.72
628.6	40.66
628.8	39.62
629.0	39.22
629.2	38.73
629.4	39.25
629.6	39.09
629.8	38.37
630.0	36.92
630.2	36.72
630.4	36.84
630.6	38.22
630.8	38.61
631.0	38.16
631.2	36.94
631.4	36.59
631.6	36.42
631.8	36.69
632.0	36.40
632.2	36.09
632.4	36.27
632.6	36.12
632.8	36.02
633.0	35.95
633.2	35.75
633.4	35.59
633.6	35.49
633.8	34.59
634.0	33.93
634.2	34.01
634.4	34.18
634.6	34.39
634.8	34.46
635.0	34.09
635.2	33.65
635.4	33.32
635.6	32.70
635.8	32.49
636.0	32.44
636.2	32.67
636.4	32.36
636.6	32.01
636.8	31.43
637.0	30.82
637.2	30.59
637.4	30.53
637.6	30.53
637.8	30.39
638.0	30.67
638.2	30.45
638.4	30.50
638.6	30.29
638.8	30.26
639.0	29.30
639.2	28.99
639.4	29.05
639.6	29.25
639.8	29.48
640.0	29.51
640.2	28.90
640.4	28.45
640.6	27.99
640.8	27.46
641.0	27.43
641.2	27.52
641.4	27.98
641.6	28.27
641.8	27.98
642.0	27.64
642.2	27.72
642.4	28.18
642.6	27.67
642.8	27.48
643.0	27.20
643.2	26.49
643.4	26.35
643.6	26.71
643.8	25.78
644.0	25.79
644.2	25.67
644.4	25.53
644.6	25.30
644.8	25.18
645.0	24.65
645.2	24.72
645.4	24.29
645.6	24.86
645.8	25.00
646.0	25.15
646.2	25.27
646.4	25.15
646.6	24.41
646.8	24.23
647.0	23.93
647.2	23.93
647.4	24.15
647.6	23.83
647.8	23.48
648.0	23.01
648.2	22.66
648.4	22.33
648.6	22.28
648.8	22.33
649.0	21.86
649.2	21.74
649.4	21.82
649.6	21.52
649.8	21.54
650.0	21.80
650.2	21.85
650.4	21.48
650.6	21.70
650.8	21.40
651.0	21.40
651.2	21.35
651.4	21.03
651.6	20.29
651.8	20.32
652.0	20.47
652.2	20.71
652.4	21.16
652.6	20.53
652.8	20.14
653.0	19.74
653.2	19.80
653.4	19.45
653.6	19.22
653.8	18.99
654.0	18.58
654.2	18.58
654.4	18.69
654.6	18.78
654.8	18.50
655.0	18.41
655.2	17.51
655.4	17.05
655.6	16.94
655.8	17.44
656.0	17.83
656.2	17.78
656.4	17.32
656.6	17.66
656.8	18.26
657.0	18.40
657.2	18.49
657.4	17.95
657.6	17.48
657.8	17.86
658.0	17.88
658.2	17.21
658.4	16.89
658.6	16.34
658.8	16.18
659.0	16.36
659.2	16.37
659.4	16.25
659.6	16.24
659.8	15.97
660.0	15.97
660.2	15.68
660.4	15.37
660.6	15.32
660.8	15.38
661.0	15.42
661.2	15.56
661.4	15.74
661.6	15.59
661.8	15.24
662.0	15.05
662.2	14.65
662.4	14.43
662.6	14.66
662.8	15.10
663.0	15.18
663.2	15.20
663.4	15.07
663.6	14.76
663.8	14.43
664.0	14.23
664.2	13.90
664.4	13.54
664.6	13.37
664.8	13.61
665.0	13.38
665.2	13.39
665.4	13.49
665.6	13.16
665.8	13.04
666.0	13.02
666.2	12.79
666.4	12.99
666.6	13.08
666.8	12.70
667.0	12.46
667.2	12.05
667.4	11.91
667.6	12.22
667.8	12.60
668.0	12.53
668.2	12.34
668.4	12.31
668.6	12.34
668.8	12.61
669.0	12.63
669.2	12.18
669.4	11.55
669.6	11.34
669.8	11.36
670.0	11.54
670.2	11.66
670.4	11.90
670.6	11.90
670.8	11.80
671.0	11.61
671.2	11.85
671.4	11.77
671.6	11.53
671.8	11.19
672.0	10.72
672.2	10.58
672.4	11.10
672.6	11.21
672.8	11.21
673.0	11.13
673.2	10.89
673.4	10.78
673.6	11.04
673.8	10.72
674.0	10.80
674.2	10.52
674.4	10.36
674.6	10.23
674.8	10.05
675.0	9.587
675.2	9.352
675.4	8.786
675.6	9.059
675.8	9.459
676.0	9.694
676.2	9.843
676.4	9.662
676.6	9.140
676.8	9.269
677.0	9.167
677.2	9.097
677.4	9.392
677.6	9.220
677.8	9.001
678.0	9.025
678.2	8.811
678.4	8.894
678.6	9.246
678.8	9.207
679.0	8.999
679.2	8.915
679.4	8.783
679.6	8.806
679.8	8.533
680.0	8.478
680.2	8.375
680.4	8.351
680.6	8.414
680.8	8.461
681.0	8.297
681.2	8.642
681.4	8.822
681.6	8.735
681.8	8.455
682.0	8.103
682.2	7.458
682.4	7.690
682.6	7.583
682.8	7.665
683.0	7.408
683.2	7.543
683.4	7.624
683.6	8.150
683.8	8.050
684.0	7.913
684.2	7.493
684.4	7.539
684.6	7.429
684.8	7.665
685.0	7.687
685.2	7.314
685.4	7.142
685.6	7.077
685.8	6.701
686.0	6.896
686.2	7.107
686.4	7.125
686.6	6.978
686.8	6.717
687.0	6.571
687.2	6.487
687.4	6.594
687.6	6.796
687.8	6.574
688.0	6.471
688.2	6.528
688.4	6.411
688.6	6.430
688.8	6.248
689.0	6.124
689.2	6.213
689.4	6.335
689.6	6.496
689.8	6.460
690.0	6.213
690.2	6.130
690.4	6.071
690.6	6.261
690.8	6.338
691.0	5.973
691.2	5.867
691.4	5.766
691.6	5.596
691.8	5.771
692.0	5.923
692.2	5.662
692.4	5.870
692.6	5.971
692.8	5.804
693.0	5.883
693.2	5.938
693.4	5.805
693.6	5.886
693.8	5.535
694.0	5.317
694.2	5.133
694.4	5.090
694.6	5.366
694.8	5.430
695.0	5.226
695.2	5.112
695.4	4.821
695.6	4.857
695.8	5.107
696.0	5.146
696.2	5.327
696.4	5.381
696.6	5.321
696.8	5.184
697.0	5.217
697.2	5.011
697.4	5.094
697.6	5.211
697.8	5.043
698.0	4.969
698.2	4.889
698.4	4.290
698.6	4.390
698.8	4.547
699.0	4.668
699.2	5.064
699.4	5.133
699.6	4.802
699.8	4.817
700.0	4.575
700.2	4.583
700.4	4.468
700.6	4.478
700.8	4.514
701.0	4.655
701.2	4.545
701.4	4.697
701.6	4.562
701.8	4.453
702.0	4.449
702.2	4.665
702.4	4.572
702.6	4.539
702.8	4.503
703.0	4.247
703.2	4.252
703.4	4.490
703.6	4.405
703.8	4.475
704.0	4.623
704.2	4.464
704.4	4.515
704.6	4.568
704.8	4.349
705.0	4.411
705.2	4.335
705.4	4.220
705.6	4.204
705.8	3.930
706.0	3.842
