Sample:	'20211010A(EM)
File name:	B-CDs 1 100.FDS
Run date:	'09:36:39, 06/11/2023
Operator:	Administrator
Comment:	'

Instrument
Model:	F-4700 FL Spectrophotometer
Serial number:	2019-001
ROM Version:	5J24010 00

Instrument parameters
Measurement type:	Wavelength scan
Scan mode:	Emission
Data mode:	Fluorescence
EX WL:	350.0 nm
EM  Start WL:	370.0 nm
EM  End WL:	720.0 nm
Scan speed:	1200 nm/min
Delay:	0.0 s
EX Slit:	10.0 nm
EM Slit:	10.0 nm
PMT Voltage:	330 V
Response:	0.002 s
Corrected spectra:	Off
Shutter control:	On

Processing performed
Savitsky-Golay smoothed
Smoothing order:	3
Number of points:	7
Number of times:	1

Peak integration
Integration method:	Rectangular
Sensitivity:	1
Threshold:	1.000

Peaks
No.	Start(nm)	Apex(nm)	End(nm)	Height(Data)	Valley(nm)	Valley(Data)
1	370.0	437.6	438.2	9265	438.2	9216
2	438.2	439.6	720.0	9267	720.0	4.376

Data points
nm	Data
370.0	59.30
370.2	60.54
370.4	61.92
370.6	63.47
370.8	65.37
371.0	66.97
371.2	68.61
371.4	70.58
371.6	72.44
371.8	74.02
372.0	76.04
372.2	77.87
372.4	79.59
372.6	81.69
372.8	83.66
373.0	85.95
373.2	88.34
373.4	90.47
373.6	92.52
373.8	94.80
374.0	97.27
374.2	99.94
374.4	102.4
374.6	105.0
374.8	107.8
375.0	110.6
375.2	113.8
375.4	116.7
375.6	119.6
375.8	123.1
376.0	126.5
376.2	130.1
376.4	133.7
376.6	136.9
376.8	140.3
377.0	144.5
377.2	148.7
377.4	152.8
377.6	156.8
377.8	160.7
378.0	164.8
378.2	169.4
378.4	173.7
378.6	177.8
378.8	182.2
379.0	187.2
379.2	192.2
379.4	197.9
379.6	203.4
379.8	209.1
380.0	214.8
380.2	220.6
380.4	226.2
380.6	232.2
380.8	238.1
381.0	244.5
381.2	251.3
381.4	258.0
381.6	265.0
381.8	272.2
382.0	279.0
382.2	286.4
382.4	294.2
382.6	302.0
382.8	310.9
383.0	319.8
383.2	328.8
383.4	337.3
383.6	346.3
383.8	355.1
384.0	364.0
384.2	374.0
384.4	384.4
384.6	394.4
384.8	405.7
385.0	417.1
385.2	427.7
385.4	439.5
385.6	451.4
385.8	463.6
386.0	476.3
386.2	489.2
386.4	501.3
386.6	515.2
386.8	528.6
387.0	542.0
387.2	556.6
387.4	570.5
387.6	583.9
387.8	600.1
388.0	615.8
388.2	631.3
388.4	648.1
388.6	663.7
388.8	679.4
389.0	697.2
389.2	715.2
389.4	733.0
389.6	751.7
389.8	771.1
390.0	790.9
390.2	812.1
390.4	831.2
390.6	850.5
390.8	871.9
391.0	893.9
391.2	916.4
391.4	939.8
391.6	960.1
391.8	981.9
392.0	1004
392.2	1027
392.4	1052
392.6	1078
392.8	1103
393.0	1130
393.2	1154
393.4	1181
393.6	1208
393.8	1236
394.0	1264
394.2	1293
394.4	1323
394.6	1353
394.8	1384
395.0	1415
395.2	1445
395.4	1477
395.6	1509
395.8	1544
396.0	1578
396.2	1612
396.4	1644
396.6	1679
396.8	1713
397.0	1748
397.2	1784
397.4	1821
397.6	1856
397.8	1893
398.0	1930
398.2	1970
398.4	2008
398.6	2050
398.8	2090
399.0	2131
399.2	2171
399.4	2215
399.6	2256
399.8	2302
400.0	2347
400.2	2392
400.4	2434
400.6	2479
400.8	2525
401.0	2572
401.2	2619
401.4	2666
401.6	2711
401.8	2759
402.0	2809
402.2	2858
402.4	2904
402.6	2949
402.8	2991
403.0	3040
403.2	3091
403.4	3141
403.6	3186
403.8	3237
404.0	3285
404.2	3339
404.4	3388
404.6	3436
404.8	3484
405.0	3536
405.2	3591
405.4	3644
405.6	3698
405.8	3750
406.0	3804
406.2	3853
406.4	3907
406.6	3961
406.8	4015
407.0	4064
407.2	4111
407.4	4154
407.6	4204
407.8	4260
408.0	4317
408.2	4367
408.4	4417
408.6	4472
408.8	4525
409.0	4576
409.2	4631
409.4	4685
409.6	4741
409.8	4802
410.0	4855
410.2	4907
410.4	4963
410.6	5007
410.8	5058
411.0	5112
411.2	5163
411.4	5220
411.6	5275
411.8	5318
412.0	5377
412.2	5433
412.4	5482
412.6	5523
412.8	5565
413.0	5622
413.2	5680
413.4	5736
413.6	5787
413.8	5830
414.0	5872
414.2	5928
414.4	5981
414.6	6031
414.8	6084
415.0	6134
415.2	6175
415.4	6226
415.6	6275
415.8	6322
416.0	6372
416.2	6423
416.4	6464
416.6	6522
416.8	6557
417.0	6591
417.2	6632
417.4	6689
417.6	6739
417.8	6788
418.0	6818
418.2	6858
418.4	6905
418.6	6947
418.8	6995
419.0	7050
419.2	7090
419.4	7144
419.6	7183
419.8	7221
420.0	7264
420.2	7309
420.4	7335
420.6	7372
420.8	7409
421.0	7453
421.2	7498
421.4	7526
421.6	7552
421.8	7602
422.0	7640
422.2	7682
422.4	7720
422.6	7765
422.8	7803
423.0	7849
423.2	7859
423.4	7883
423.6	7912
423.8	7960
424.0	7988
424.2	8018
424.4	8030
424.6	8062
424.8	8103
425.0	8141
425.2	8147
425.4	8165
425.6	8191
425.8	8226
426.0	8273
426.2	8316
426.4	8331
426.6	8364
426.8	8402
427.0	8441
427.2	8479
427.4	8501
427.6	8506
427.8	8517
428.0	8522
428.2	8556
428.4	8583
428.6	8621
428.8	8655
429.0	8686
429.2	8704
429.4	8724
429.6	8733
429.8	8750
430.0	8771
430.2	8796
430.4	8821
430.6	8833
430.8	8861
431.0	8867
431.2	8888
431.4	8916
431.6	8935
431.8	8952
432.0	8965
432.2	8969
432.4	8983
432.6	9014
432.8	9027
433.0	9043
433.2	9040
433.4	9055
433.6	9060
433.8	9087
434.0	9096
434.2	9110
434.4	9118
434.6	9137
434.8	9151
435.0	9161
435.2	9157
435.4	9168
435.6	9186
435.8	9208
436.0	9218
436.2	9222
436.4	9209
436.6	9197
436.8	9209
437.0	9217
437.2	9236
437.4	9260
437.6	9265
437.8	9252
438.0	9239
438.2	9216
438.4	9230
438.6	9227
438.8	9244
439.0	9259
439.2	9264
439.4	9265
439.6	9267
439.8	9260
440.0	9259
440.2	9247
440.4	9237
440.6	9229
440.8	9236
441.0	9242
441.2	9246
441.4	9242
441.6	9232
441.8	9227
442.0	9229
442.2	9210
442.4	9196
442.6	9192
442.8	9196
443.0	9215
443.2	9214
443.4	9217
443.6	9204
443.8	9188
444.0	9164
444.2	9143
444.4	9129
444.6	9139
444.8	9153
445.0	9141
445.2	9111
445.4	9074
445.6	9058
445.8	9054
446.0	9066
446.2	9038
446.4	9021
446.6	9006
446.8	8998
447.0	9003
447.2	9013
447.4	8990
447.6	8974
447.8	8956
448.0	8934
448.2	8918
448.4	8916
448.6	8891
448.8	8876
449.0	8873
449.2	8851
449.4	8839
449.6	8833
449.8	8798
450.0	8784
450.2	8769
450.4	8728
450.6	8714
450.8	8705
451.0	8687
451.2	8676
451.4	8652
451.6	8618
451.8	8613
452.0	8611
452.2	8594
452.4	8584
452.6	8557
452.8	8531
453.0	8523
453.2	8515
453.4	8493
453.6	8484
453.8	8456
454.0	8424
454.2	8390
454.4	8373
454.6	8350
454.8	8335
455.0	8316
455.2	8285
455.4	8276
455.6	8271
455.8	8253
456.0	8235
456.2	8199
456.4	8166
456.6	8153
456.8	8123
457.0	8106
457.2	8086
457.4	8061
457.6	8055
457.8	8032
458.0	8006
458.2	7996
458.4	7976
458.6	7961
458.8	7945
459.0	7906
459.2	7861
459.4	7823
459.6	7793
459.8	7778
460.0	7772
460.2	7751
460.4	7725
460.6	7711
460.8	7686
461.0	7658
461.2	7628
461.4	7604
461.6	7574
461.8	7568
462.0	7553
462.2	7526
462.4	7494
462.6	7463
462.8	7424
463.0	7404
463.2	7384
463.4	7378
463.6	7373
463.8	7346
464.0	7325
464.2	7292
464.4	7254
464.6	7222
464.8	7186
465.0	7149
465.2	7124
465.4	7098
465.6	7094
465.8	7077
466.0	7051
466.2	7033
466.4	6996
466.6	6968
466.8	6948
467.0	6936
467.2	6912
467.4	6890
467.6	6857
467.8	6831
468.0	6788
468.2	6749
468.4	6720
468.6	6697
468.8	6681
469.0	6673
469.2	6656
469.4	6616
469.6	6602
469.8	6572
470.0	6548
470.2	6517
470.4	6491
470.6	6459
470.8	6430
471.0	6398
471.2	6376
471.4	6344
471.6	6320
471.8	6301
472.0	6271
472.2	6258
472.4	6235
472.6	6211
472.8	6184
473.0	6153
473.2	6126
473.4	6110
473.6	6089
473.8	6070
474.0	6051
474.2	6014
474.4	5987
474.6	5951
474.8	5921
475.0	5905
475.2	5888
475.4	5863
475.6	5838
475.8	5812
476.0	5775
476.2	5752
476.4	5731
476.6	5717
476.8	5698
477.0	5673
477.2	5644
477.4	5618
477.6	5606
477.8	5587
478.0	5565
478.2	5531
478.4	5507
478.6	5484
478.8	5472
479.0	5455
479.2	5430
479.4	5396
479.6	5363
479.8	5343
480.0	5328
480.2	5313
480.4	5289
480.6	5270
480.8	5258
481.0	5249
481.2	5236
481.4	5212
481.6	5176
481.8	5154
482.0	5124
482.2	5094
482.4	5075
482.6	5057
482.8	5040
483.0	5021
483.2	4994
483.4	4966
483.6	4944
483.8	4929
484.0	4910
484.2	4895
484.4	4878
484.6	4855
484.8	4834
485.0	4808
485.2	4778
485.4	4764
485.6	4751
485.8	4736
486.0	4715
486.2	4690
486.4	4665
486.6	4641
486.8	4632
487.0	4621
487.2	4611
487.4	4594
487.6	4567
487.8	4531
488.0	4506
488.2	4484
488.4	4470
488.6	4452
488.8	4432
489.0	4411
489.2	4395
489.4	4377
489.6	4358
489.8	4337
490.0	4307
490.2	4286
490.4	4272
490.6	4254
490.8	4238
491.0	4222
491.2	4206
491.4	4185
491.6	4166
491.8	4147
492.0	4128
492.2	4112
492.4	4095
492.6	4065
492.8	4041
493.0	4015
493.2	3994
493.4	3982
493.6	3970
493.8	3957
494.0	3949
494.2	3929
494.4	3908
494.6	3880
494.8	3857
495.0	3837
495.2	3822
495.4	3804
495.6	3784
495.8	3761
496.0	3742
496.2	3725
496.4	3711
496.6	3693
496.8	3675
497.0	3653
497.2	3627
497.4	3611
497.6	3597
497.8	3578
498.0	3558
498.2	3541
498.4	3523
498.6	3503
498.8	3487
499.0	3465
499.2	3442
499.4	3426
499.6	3410
499.8	3395
500.0	3380
500.2	3365
500.4	3350
500.6	3331
500.8	3312
501.0	3296
501.2	3271
501.4	3251
501.6	3231
501.8	3215
502.0	3200
502.2	3187
502.4	3169
502.6	3152
502.8	3132
503.0	3116
503.2	3096
503.4	3081
503.6	3067
503.8	3052
504.0	3034
504.2	3017
504.4	3000
504.6	2986
504.8	2972
505.0	2959
505.2	2941
505.4	2920
505.6	2903
505.8	2886
506.0	2870
506.2	2856
506.4	2841
506.6	2822
506.8	2803
507.0	2788
507.2	2772
507.4	2757
507.6	2743
507.8	2725
508.0	2708
508.2	2694
508.4	2677
508.6	2663
508.8	2649
509.0	2635
509.2	2620
509.4	2606
509.6	2590
509.8	2573
510.0	2557
510.2	2539
510.4	2523
510.6	2511
510.8	2498
511.0	2483
511.2	2466
511.4	2447
511.6	2434
511.8	2422
512.0	2412
512.2	2398
512.4	2384
512.6	2368
512.8	2354
513.0	2340
513.2	2327
513.4	2313
513.6	2301
513.8	2285
514.0	2271
514.2	2256
514.4	2242
514.6	2231
514.8	2222
515.0	2208
515.2	2195
515.4	2181
515.6	2165
515.8	2149
516.0	2136
516.2	2121
516.4	2109
516.6	2097
516.8	2086
517.0	2074
517.2	2061
517.4	2046
517.6	2034
517.8	2020
518.0	2009
518.2	1998
518.4	1986
518.6	1977
518.8	1967
519.0	1955
519.2	1944
519.4	1933
519.6	1920
519.8	1906
520.0	1893
520.2	1881
520.4	1869
520.6	1858
520.8	1845
521.0	1831
521.2	1823
521.4	1813
521.6	1803
521.8	1793
522.0	1780
522.2	1768
522.4	1756
522.6	1743
522.8	1732
523.0	1722
523.2	1714
523.4	1703
523.6	1691
523.8	1679
524.0	1667
524.2	1656
524.4	1647
524.6	1638
524.8	1626
525.0	1614
525.2	1604
525.4	1594
525.6	1584
525.8	1575
526.0	1565
526.2	1555
526.4	1545
526.6	1535
526.8	1524
527.0	1514
527.2	1506
527.4	1496
527.6	1490
527.8	1482
528.0	1472
528.2	1462
528.4	1452
528.6	1441
528.8	1434
529.0	1426
529.2	1416
529.4	1405
529.6	1395
529.8	1385
530.0	1375
530.2	1366
530.4	1358
530.6	1348
530.8	1341
531.0	1332
531.2	1323
531.4	1313
531.6	1306
531.8	1298
532.0	1291
532.2	1284
532.4	1276
532.6	1266
532.8	1258
533.0	1248
533.2	1239
533.4	1230
533.6	1222
533.8	1214
534.0	1207
534.2	1200
534.4	1192
534.6	1184
534.8	1176
535.0	1167
535.2	1161
535.4	1155
535.6	1147
535.8	1138
536.0	1130
536.2	1122
536.4	1115
536.6	1107
536.8	1099
537.0	1092
537.2	1086
537.4	1079
537.6	1071
537.8	1065
538.0	1056
538.2	1052
538.4	1048
538.6	1041
538.8	1035
539.0	1028
539.2	1020
539.4	1013
539.6	1005
539.8	998.1
540.0	991.7
540.2	985.6
540.4	980.0
540.6	972.6
540.8	964.6
541.0	958.0
541.2	950.8
541.4	945.5
541.6	939.7
541.8	933.5
542.0	926.9
542.2	921.5
542.4	915.1
542.6	909.1
542.8	902.5
543.0	895.6
543.2	888.9
543.4	883.0
543.6	876.8
543.8	871.6
544.0	867.6
544.2	862.8
544.4	857.1
544.6	851.5
544.8	845.5
545.0	839.4
545.2	834.3
545.4	828.1
545.6	821.5
545.8	814.8
546.0	809.9
546.2	805.5
546.4	800.9
546.6	795.9
546.8	790.3
547.0	784.0
547.2	779.6
547.4	775.5
547.6	770.0
547.8	764.3
548.0	758.5
548.2	752.6
548.4	747.3
548.6	741.8
548.8	736.2
549.0	732.1
549.2	728.5
549.4	724.3
549.6	719.8
549.8	715.6
550.0	710.6
550.2	705.4
550.4	699.7
550.6	693.9
550.8	687.9
551.0	683.4
551.2	679.7
551.4	675.7
551.6	671.8
551.8	667.6
552.0	662.5
552.2	657.9
552.4	654.3
552.6	649.6
552.8	645.5
553.0	641.5
553.2	637.0
553.4	633.0
553.6	628.9
553.8	624.0
554.0	619.0
554.2	614.2
554.4	610.3
554.6	606.1
554.8	602.5
555.0	598.9
555.2	594.1
555.4	589.6
555.6	585.3
555.8	580.8
556.0	577.4
556.2	573.6
556.4	570.2
556.6	567.0
556.8	563.0
557.0	559.0
557.2	555.2
557.4	551.1
557.6	547.6
557.8	544.8
558.0	541.1
558.2	537.8
558.4	534.2
558.6	530.0
558.8	526.0
559.0	521.9
559.2	517.4
559.4	514.8
559.6	511.4
559.8	508.3
560.0	505.7
560.2	501.9
560.4	498.0
560.6	495.0
560.8	491.1
561.0	488.2
561.2	484.7
561.4	481.9
561.6	478.7
561.8	475.9
562.0	472.7
562.2	469.3
562.4	465.4
562.6	461.6
562.8	458.2
563.0	455.6
563.2	452.6
563.4	449.5
563.6	446.1
563.8	442.0
564.0	439.7
564.2	436.6
564.4	434.1
564.6	431.4
564.8	428.9
565.0	425.3
565.2	423.3
565.4	420.2
565.6	417.7
565.8	414.7
566.0	412.0
566.2	408.2
566.4	406.4
566.6	404.4
566.8	401.9
567.0	399.6
567.2	396.4
567.4	393.1
567.6	390.4
567.8	387.5
568.0	384.5
568.2	382.4
568.4	379.6
568.6	376.6
568.8	374.0
569.0	371.5
569.2	369.0
569.4	367.0
569.6	365.1
569.8	362.5
570.0	360.0
570.2	357.3
570.4	354.7
570.6	352.7
570.8	350.4
571.0	348.0
571.2	345.5
571.4	342.8
571.6	340.6
571.8	338.5
572.0	336.3
572.2	333.6
572.4	330.9
572.6	328.7
572.8	327.2
573.0	325.3
573.2	323.2
573.4	320.1
573.6	317.6
573.8	315.9
574.0	314.4
574.2	312.1
574.4	309.4
574.6	307.0
574.8	305.0
575.0	303.5
575.2	301.6
575.4	299.2
575.6	297.1
575.8	295.3
576.0	292.9
576.2	291.0
576.4	288.8
576.6	286.8
576.8	285.3
577.0	283.7
577.2	282.3
577.4	280.5
577.6	278.8
577.8	276.6
578.0	274.0
578.2	271.4
578.4	269.9
578.6	268.1
578.8	266.6
579.0	264.9
579.2	262.5
579.4	261.1
579.6	260.1
579.8	258.7
580.0	257.0
580.2	255.4
580.4	253.6
580.6	251.8
580.8	250.1
581.0	247.8
581.2	245.8
581.4	244.0
581.6	242.7
581.8	240.9
582.0	240.0
582.2	238.3
582.4	236.7
582.6	235.0
582.8	233.4
583.0	231.5
583.2	230.0
583.4	228.6
583.6	227.7
583.8	226.8
584.0	225.6
584.2	223.6
584.4	221.2
584.6	219.0
584.8	217.6
585.0	216.2
585.2	214.8
585.4	213.6
585.6	212.2
585.8	210.9
586.0	209.9
586.2	209.0
586.4	207.2
586.6	205.5
586.8	204.1
587.0	202.7
587.2	201.4
587.4	200.5
587.6	198.4
587.8	196.9
588.0	195.4
588.2	194.6
588.4	193.8
588.6	192.8
588.8	191.3
589.0	190.0
589.2	188.7
589.4	188.0
589.6	186.8
589.8	185.3
590.0	183.4
590.2	181.8
590.4	180.4
590.6	178.9
590.8	177.8
591.0	176.8
591.2	176.1
591.4	175.4
591.6	174.7
591.8	173.2
592.0	172.2
592.2	170.8
592.4	169.7
592.6	168.8
592.8	167.9
593.0	166.8
593.2	165.7
593.4	164.6
593.6	163.4
593.8	162.3
594.0	161.1
594.2	159.9
594.4	158.7
594.6	157.8
594.8	157.1
595.0	156.0
595.2	154.8
595.4	153.9
595.6	152.6
595.8	151.6
596.0	150.4
596.2	149.6
596.4	148.5
596.6	147.5
596.8	146.7
597.0	146.0
597.2	144.9
597.4	143.9
597.6	142.6
597.8	141.3
598.0	140.3
598.2	139.6
598.4	138.9
598.6	138.1
598.8	137.5
599.0	136.6
599.2	135.4
599.4	134.5
599.6	133.8
599.8	132.8
600.0	132.2
600.2	131.4
600.4	130.3
600.6	129.5
600.8	129.1
601.0	128.2
601.2	127.3
601.4	126.4
601.6	125.1
601.8	124.2
602.0	123.5
602.2	122.6
602.4	121.9
602.6	121.1
602.8	120.2
603.0	119.4
603.2	118.7
603.4	117.4
603.6	116.9
603.8	116.2
604.0	115.6
604.2	115.2
604.4	114.9
604.6	113.8
604.8	113.0
605.0	112.1
605.2	110.8
605.4	110.1
605.6	109.5
605.8	108.8
606.0	107.8
606.2	107.2
606.4	106.2
606.6	105.4
606.8	105.0
607.0	104.6
607.2	104.0
607.4	103.6
607.6	102.9
607.8	102.0
608.0	101.4
608.2	100.7
608.4	99.77
608.6	98.85
608.8	97.94
609.0	97.05
609.2	96.40
609.4	95.94
609.6	95.54
609.8	95.26
610.0	94.65
610.2	93.88
610.4	93.03
610.6	92.09
610.8	91.26
611.0	90.54
611.2	89.94
611.4	89.29
611.6	88.84
611.8	88.47
612.0	87.95
612.2	87.48
612.4	86.90
612.6	86.30
612.8	85.73
613.0	85.05
613.2	84.34
613.4	83.83
613.6	83.16
613.8	82.72
614.0	82.22
614.2	81.53
614.4	81.23
614.6	80.87
614.8	80.07
615.0	79.34
615.2	78.59
615.4	78.08
615.6	77.83
615.8	77.18
616.0	76.39
616.2	75.84
616.4	75.32
616.6	75.06
616.8	74.44
617.0	73.74
617.2	73.21
617.4	72.80
617.6	72.40
617.8	72.08
618.0	71.62
618.2	70.94
618.4	70.38
618.6	70.07
618.8	69.84
619.0	69.28
619.2	68.83
619.4	68.22
619.6	67.71
619.8	67.37
620.0	67.09
620.2	66.42
620.4	65.69
620.6	65.24
620.8	64.65
621.0	64.21
621.2	63.83
621.4	63.31
621.6	62.66
621.8	62.22
622.0	61.87
622.2	61.57
622.4	61.38
622.6	60.99
622.8	60.42
623.0	59.85
623.2	59.55
623.4	59.08
623.6	58.69
623.8	58.35
624.0	57.87
624.2	57.56
624.4	57.43
624.6	57.07
624.8	56.58
625.0	56.20
625.2	55.62
625.4	55.25
625.6	55.03
625.8	54.67
626.0	54.19
626.2	53.68
626.4	52.99
626.6	52.71
626.8	52.49
627.0	52.42
627.2	52.19
627.4	51.84
627.6	51.25
627.8	50.79
628.0	50.31
628.2	50.15
628.4	49.81
628.6	49.50
628.8	49.26
629.0	48.82
629.2	48.30
629.4	47.89
629.6	47.36
629.8	46.83
630.0	46.65
630.2	46.45
630.4	46.32
630.6	46.08
630.8	45.73
631.0	45.34
631.2	45.01
631.4	44.62
631.6	44.43
631.8	44.13
632.0	43.98
632.2	43.79
632.4	43.45
632.6	43.00
632.8	42.63
633.0	42.18
633.2	41.81
633.4	41.42
633.6	41.16
633.8	40.91
634.0	40.70
634.2	40.53
634.4	40.30
634.6	40.09
634.8	39.91
635.0	39.61
635.2	39.19
635.4	38.82
635.6	38.56
635.8	38.25
636.0	37.87
636.2	37.62
636.4	37.40
636.6	37.13
636.8	37.08
637.0	36.83
637.2	36.50
637.4	36.13
637.6	35.80
637.8	35.55
638.0	35.35
638.2	35.25
638.4	35.12
638.6	34.86
638.8	34.44
639.0	34.12
639.2	33.80
639.4	33.62
639.6	33.51
639.8	33.31
640.0	32.96
640.2	32.58
640.4	32.25
640.6	32.04
640.8	31.85
641.0	31.86
641.2	31.77
641.4	31.51
641.6	31.35
641.8	31.00
642.0	30.50
642.2	30.36
642.4	30.07
642.6	29.97
642.8	30.05
643.0	29.94
643.2	29.96
643.4	29.82
643.6	29.34
643.8	29.08
644.0	28.84
644.2	28.54
644.4	28.51
644.6	28.43
644.8	28.13
645.0	27.98
645.2	27.84
645.4	27.58
645.6	27.32
645.8	27.17
646.0	26.86
646.2	26.63
646.4	26.53
646.6	26.36
646.8	26.04
647.0	25.92
647.2	25.78
647.4	25.60
647.6	25.50
647.8	25.23
648.0	24.86
648.2	24.62
648.4	24.54
648.6	24.58
648.8	24.62
649.0	24.43
649.2	24.23
649.4	23.89
649.6	23.53
649.8	23.42
650.0	23.30
650.2	23.16
650.4	23.18
650.6	23.09
650.8	22.83
651.0	22.67
651.2	22.50
651.4	22.22
651.6	22.08
651.8	21.88
652.0	21.74
652.2	21.58
652.4	21.38
652.6	21.10
652.8	21.00
653.0	20.96
653.2	20.93
653.4	20.77
653.6	20.57
653.8	20.37
654.0	20.27
654.2	20.09
654.4	19.99
654.6	19.90
654.8	19.76
655.0	19.64
655.2	19.61
655.4	19.44
655.6	19.29
655.8	19.08
656.0	18.91
656.2	18.86
656.4	18.85
656.6	18.75
656.8	18.62
657.0	18.31
657.2	18.13
657.4	17.97
657.6	17.84
657.8	17.77
658.0	17.83
658.2	17.66
658.4	17.62
658.6	17.56
658.8	17.39
659.0	17.42
659.2	17.35
659.4	17.10
659.6	16.93
659.8	16.74
660.0	16.52
660.2	16.53
660.4	16.47
660.6	16.36
660.8	16.23
661.0	16.03
661.2	15.90
661.4	15.81
661.6	15.74
661.8	15.77
662.0	15.68
662.2	15.64
662.4	15.46
662.6	15.35
662.8	15.22
663.0	15.16
663.2	14.96
663.4	14.85
663.6	14.67
663.8	14.61
664.0	14.62
664.2	14.62
664.4	14.54
664.6	14.40
664.8	14.23
665.0	14.01
665.2	13.85
665.4	13.83
665.6	13.82
665.8	13.90
666.0	13.79
666.2	13.64
666.4	13.31
666.6	13.20
666.8	13.12
667.0	13.22
667.2	13.23
667.4	13.18
667.6	13.02
667.8	12.89
668.0	12.86
668.2	12.82
668.4	12.74
668.6	12.67
668.8	12.61
669.0	12.38
669.2	12.30
669.4	12.06
669.6	11.91
669.8	11.92
670.0	11.89
670.2	11.85
670.4	11.83
670.6	11.74
670.8	11.73
671.0	11.68
671.2	11.53
671.4	11.38
671.6	11.23
671.8	11.10
672.0	11.06
672.2	11.13
672.4	11.18
672.6	11.18
672.8	11.11
673.0	10.99
673.2	10.84
673.4	10.74
673.6	10.67
673.8	10.59
674.0	10.50
674.2	10.43
674.4	10.35
674.6	10.29
