Sample:	'20211010A(EM)
File name:	r-c-dots 1;5.FDS
Run date:	'20:10:16, 03/21/2023
Operator:	Administrator
Comment:	'

Instrument
Model:	F-4700 FL Spectrophotometer
Serial number:	2019-001
ROM Version:	5J24010 00

Instrument parameters
Measurement type:	Wavelength scan
Scan mode:	Emission
Data mode:	Fluorescence
EX WL:	520.0 nm
EM  Start WL:	540.0 nm
EM  End WL:	900.0 nm
Scan speed:	1200 nm/min
Delay:	0.0 s
EX Slit:	10.0 nm
EM Slit:	10.0 nm
PMT Voltage:	780 V
Response:	0.002 s
Corrected spectra:	Off
Shutter control:	On

Processing performed
Savitsky-Golay smoothed
Smoothing order:	3
Number of points:	7
Number of times:	1

Peak integration
Integration method:	Rectangular
Sensitivity:	1
Threshold:	1.000

Peaks
No.	Start(nm)	Apex(nm)	End(nm)	Height(Data)	Valley(nm)	Valley(Data)
1	540.0	546.0	547.4	809.1	547.4	792.3
2	547.4	548.6	549.0	833.5	549.0	818.1
3	549.0	552.2	553.4	884.7	553.4	865.4
4	553.4	588.8	589.4	2557	589.4	2503
5	589.4	591.4	592.0	2615	592.0	2593
6	592.0	594.6	595.4	2679	595.4	2639
7	595.4	652.2	780.6	9234	780.6	335.0
8	780.6	781.2	795.2	349.9	795.2	239.5
9	795.2	796.0	796.8	259.4	796.8	237.9
10	796.8	797.2	798.8	251.8	798.8	240.0
11	798.8	799.4	806.0	253.2	806.0	199.4
12	806.0	806.6	811.6	211.4	811.6	168.7
13	811.6	813.2	814.4	183.1	814.4	159.8
14	814.4	815.8	819.0	171.6	819.0	125.4
15	819.0	819.8	841.6	144.0	841.6	40.37
16	841.6	842.4	846.8	43.60	846.8	26.56
17	846.8	847.6	859.2	29.71	859.2	8.788
18	859.2	859.8	861.2	10.81	861.2	7.161
19	861.2	862.2	864.6	9.873	864.6	5.426
20	864.6	867.0	868.0	7.557	868.0	5.787
21	868.0	869.0	870.0	7.826	870.0	4.731
22	870.0	871.0	873.4	6.744	873.4	4.022
23	873.4	874.8	875.6	5.874	875.6	4.149
24	875.6	876.4	878.4	5.869	878.4	2.683
25	878.4	879.6	882.2	6.782	882.2	3.772
26	882.2	882.8	883.6	5.546	883.6	3.685
27	883.6	884.4	887.2	5.810	887.2	3.254
28	887.2	889.0	890.6	4.970	890.6	3.642
29	890.6	892.4	896.4	5.466	896.4	3.058
30	896.4	898.0	900.0	6.392	900.0	2.768

Data points
nm	Data
540.0	731.9
540.2	753.2
540.4	759.9
540.6	757.5
540.8	751.6
541.0	752.6
541.2	752.6
541.4	750.8
541.6	754.4
541.8	755.4
542.0	753.6
542.2	757.4
542.4	756.3
542.6	756.5
542.8	757.8
543.0	759.7
543.2	762.5
543.4	763.0
543.6	770.1
543.8	766.2
544.0	759.8
544.2	773.1
544.4	782.8
544.6	788.5
544.8	792.4
545.0	781.1
545.2	776.8
545.4	784.9
545.6	794.8
545.8	802.1
546.0	809.1
546.2	807.4
546.4	801.3
546.6	802.9
546.8	804.5
547.0	795.9
547.2	795.1
547.4	792.3
547.6	793.4
547.8	804.1
548.0	825.7
548.2	829.2
548.4	832.8
548.6	833.5
548.8	823.9
549.0	818.1
549.2	822.9
549.4	822.8
549.6	829.7
549.8	835.3
550.0	834.0
550.2	833.7
550.4	827.8
550.6	827.6
550.8	832.3
551.0	833.2
551.2	834.1
551.4	834.2
551.6	840.4
551.8	862.9
552.0	877.6
552.2	884.7
552.4	881.2
552.6	879.9
552.8	877.1
553.0	882.4
553.2	874.4
553.4	865.4
553.6	869.6
553.8	883.7
554.0	895.1
554.2	905.3
554.4	910.2
554.6	911.1
554.8	926.1
555.0	930.7
555.2	924.5
555.4	927.9
555.6	923.6
555.8	921.2
556.0	932.4
556.2	944.5
556.4	943.2
556.6	963.3
556.8	966.4
557.0	973.3
557.2	981.5
557.4	993.8
557.6	993.2
557.8	1000
558.0	997.6
558.2	1006
558.4	1011
558.6	1018
558.8	1020
559.0	1025
559.2	1033
559.4	1044
559.6	1047
559.8	1060
560.0	1065
560.2	1085
560.4	1107
560.6	1116
560.8	1099
561.0	1101
561.2	1104
561.4	1109
561.6	1130
561.8	1152
562.0	1161
562.2	1169
562.4	1188
562.6	1181
562.8	1182
563.0	1185
563.2	1203
563.4	1216
563.6	1227
563.8	1231
564.0	1242
564.2	1240
564.4	1262
564.6	1283
564.8	1307
565.0	1338
565.2	1351
565.4	1337
565.6	1335
565.8	1326
566.0	1345
566.2	1368
566.4	1384
566.6	1402
566.8	1419
567.0	1414
567.2	1422
567.4	1422
567.6	1439
567.8	1471
568.0	1491
568.2	1491
568.4	1491
568.6	1492
568.8	1497
569.0	1519
569.2	1525
569.4	1528
569.6	1534
569.8	1557
570.0	1565
570.2	1583
570.4	1581
570.6	1593
570.8	1601
571.0	1619
571.2	1642
571.4	1673
571.6	1698
571.8	1716
572.0	1712
572.2	1726
572.4	1744
572.6	1755
572.8	1767
573.0	1770
573.2	1761
573.4	1776
573.6	1792
573.8	1804
574.0	1816
574.2	1829
574.4	1834
574.6	1842
574.8	1871
575.0	1890
575.2	1901
575.4	1909
575.6	1917
575.8	1919
576.0	1942
576.2	1957
576.4	1958
576.6	1963
576.8	1965
577.0	1969
577.2	1995
577.4	2028
577.6	2047
577.8	2050
578.0	2041
578.2	2039
578.4	2046
578.6	2080
578.8	2097
579.0	2113
579.2	2121
579.4	2129
579.6	2126
579.8	2144
580.0	2135
580.2	2149
580.4	2156
580.6	2165
580.8	2172
581.0	2189
581.2	2189
581.4	2200
581.6	2210
581.8	2223
582.0	2229
582.2	2236
582.4	2234
582.6	2253
582.8	2286
583.0	2328
583.2	2349
583.4	2353
583.6	2337
583.8	2347
584.0	2349
584.2	2371
584.4	2378
584.6	2378
584.8	2374
585.0	2375
585.2	2377
585.4	2396
585.6	2398
585.8	2410
586.0	2410
586.2	2416
586.4	2435
586.6	2434
586.8	2431
587.0	2433
587.2	2436
587.4	2460
587.6	2470
587.8	2472
588.0	2470
588.2	2480
588.4	2503
588.6	2540
588.8	2557
589.0	2545
589.2	2518
589.4	2503
589.6	2508
589.8	2530
590.0	2539
590.2	2543
590.4	2532
590.6	2535
590.8	2555
591.0	2577
591.2	2598
591.4	2615
591.6	2600
591.8	2605
592.0	2593
592.2	2599
592.4	2611
592.6	2604
592.8	2599
593.0	2603
593.2	2604
593.4	2621
593.6	2631
593.8	2650
594.0	2663
594.2	2664
594.4	2668
594.6	2679
594.8	2671
595.0	2661
595.2	2650
595.4	2639
595.6	2653
595.8	2683
596.0	2698
596.2	2713
596.4	2729
596.6	2738
596.8	2730
597.0	2720
597.2	2706
597.4	2723
597.6	2737
597.8	2768
598.0	2772
598.2	2771
598.4	2756
598.6	2768
598.8	2774
599.0	2782
599.2	2783
599.4	2777
599.6	2778
599.8	2802
600.0	2808
600.2	2798
600.4	2794
600.6	2798
600.8	2825
601.0	2843
601.2	2863
601.4	2868
601.6	2874
601.8	2882
602.0	2896
602.2	2901
602.4	2927
602.6	2917
602.8	2925
603.0	2938
603.2	2946
603.4	2966
603.6	2967
603.8	2954
604.0	2980
604.2	3002
604.4	3013
604.6	3031
604.8	3028
605.0	3019
605.2	3031
605.4	3052
605.6	3077
605.8	3089
606.0	3102
606.2	3092
606.4	3084
606.6	3089
606.8	3101
607.0	3110
607.2	3128
607.4	3145
607.6	3156
607.8	3186
608.0	3182
608.2	3200
608.4	3206
608.6	3225
608.8	3235
609.0	3253
609.2	3253
609.4	3268
609.6	3265
609.8	3303
610.0	3333
610.2	3345
610.4	3378
610.6	3394
610.8	3400
611.0	3411
611.2	3417
611.4	3441
611.6	3459
611.8	3476
612.0	3508
612.2	3523
612.4	3536
612.6	3571
612.8	3568
613.0	3600
613.2	3605
613.4	3622
613.6	3629
613.8	3650
614.0	3670
614.2	3715
614.4	3707
614.6	3730
614.8	3743
615.0	3774
615.2	3824
615.4	3863
615.6	3886
615.8	3904
616.0	3913
616.2	3907
616.4	3925
616.6	3956
616.8	4000
617.0	4027
617.2	4061
617.4	4073
617.6	4082
617.8	4102
618.0	4144
618.2	4167
618.4	4197
618.6	4235
618.8	4263
619.0	4282
619.2	4310
619.4	4353
619.6	4372
619.8	4416
620.0	4454
620.2	4465
620.4	4508
620.6	4551
620.8	4576
621.0	4608
621.2	4637
621.4	4636
621.6	4693
621.8	4732
622.0	4766
622.2	4797
622.4	4828
622.6	4848
622.8	4887
623.0	4948
623.2	4990
623.4	5038
623.6	5067
623.8	5079
624.0	5061
624.2	5087
624.4	5105
624.6	5147
624.8	5239
625.0	5306
625.2	5352
625.4	5376
625.6	5366
625.8	5380
626.0	5445
626.2	5510
626.4	5575
626.6	5612
626.8	5663
627.0	5704
627.2	5719
627.4	5749
627.6	5784
627.8	5838
628.0	5931
628.2	5965
628.4	5959
628.6	5971
628.8	5987
629.0	6049
629.2	6147
629.4	6196
629.6	6210
629.8	6247
630.0	6267
630.2	6318
630.4	6369
630.6	6409
630.8	6427
631.0	6486
631.2	6536
631.4	6599
631.6	6645
631.8	6690
632.0	6724
632.2	6767
632.4	6794
632.6	6834
632.8	6863
633.0	6900
633.2	6925
633.4	6975
633.6	7040
633.8	7112
634.0	7179
634.2	7210
634.4	7195
634.6	7228
634.8	7264
635.0	7297
635.2	7350
635.4	7396
635.6	7428
635.8	7472
636.0	7509
636.2	7537
636.4	7565
636.6	7629
636.8	7666
637.0	7706
637.2	7719
637.4	7754
637.6	7769
637.8	7816
638.0	7861
638.2	7909
638.4	7903
638.6	7946
638.8	7970
639.0	8010
639.2	8066
639.4	8104
639.6	8153
639.8	8206
640.0	8244
640.2	8275
640.4	8291
640.6	8320
640.8	8370
641.0	8394
641.2	8437
641.4	8468
641.6	8483
641.8	8523
642.0	8513
642.2	8519
642.4	8525
642.6	8576
642.8	8638
643.0	8692
643.2	8679
643.4	8694
643.6	8691
643.8	8745
644.0	8805
644.2	8831
644.4	8855
644.6	8884
644.8	8883
645.0	8897
645.2	8900
645.4	8916
645.6	8974
645.8	9001
646.0	9032
646.2	9055
646.4	9043
646.6	9020
646.8	9002
647.0	9018
647.2	9058
647.4	9089
647.6	9106
647.8	9100
648.0	9103
648.2	9134
648.4	9153
648.6	9175
648.8	9179
649.0	9178
649.2	9193
649.4	9201
649.6	9214
649.8	9221
650.0	9205
650.2	9179
650.4	9177
650.6	9199
650.8	9215
651.0	9229
651.2	9241
651.4	9219
651.6	9195
651.8	9184
652.0	9203
652.2	9234
652.4	9223
652.6	9232
652.8	9225
653.0	9192
653.2	9180
653.4	9186
653.6	9157
653.8	9210
654.0	9238
654.2	9219
654.4	9175
654.6	9146
654.8	9145
655.0	9154
655.2	9144
655.4	9143
655.6	9119
655.8	9084
656.0	9076
656.2	9080
656.4	9064
656.6	9066
656.8	9070
657.0	9051
657.2	9050
657.4	9054
657.6	9026
657.8	8999
658.0	8971
658.2	8933
658.4	8928
658.6	8880
658.8	8824
659.0	8785
659.2	8775
659.4	8780
659.6	8785
659.8	8784
660.0	8777
660.2	8722
660.4	8725
660.6	8704
660.8	8660
661.0	8658
661.2	8637
661.4	8577
661.6	8582
661.8	8550
662.0	8508
662.2	8478
662.4	8430
662.6	8407
662.8	8418
663.0	8402
663.2	8362
663.4	8354
663.6	8369
663.8	8356
664.0	8290
664.2	8232
664.4	8158
664.6	8129
664.8	8127
665.0	8107
665.2	8091
665.4	8046
665.6	7988
665.8	7956
666.0	7937
666.2	7939
666.4	7960
666.6	7923
666.8	7850
667.0	7791
667.2	7791
667.4	7748
667.6	7695
667.8	7675
668.0	7621
668.2	7600
668.4	7632
668.6	7598
668.8	7550
669.0	7536
669.2	7478
669.4	7449
669.6	7434
669.8	7376
670.0	7319
670.2	7276
670.4	7211
670.6	7190
670.8	7186
671.0	7174
671.2	7169
671.4	7131
671.6	7086
671.8	7059
672.0	7008
672.2	6975
672.4	6949
672.6	6917
672.8	6884
673.0	6873
673.2	6838
673.4	6777
673.6	6756
673.8	6726
674.0	6698
674.2	6677
674.4	6654
674.6	6603
674.8	6583
675.0	6524
675.2	6492
675.4	6456
675.6	6439
675.8	6413
676.0	6371
676.2	6303
676.4	6283
676.6	6252
676.8	6233
677.0	6192
677.2	6178
677.4	6154
677.6	6133
677.8	6120
678.0	6110
678.2	6059
678.4	6051
678.6	6017
678.8	5943
679.0	5896
679.2	5872
679.4	5839
679.6	5835
679.8	5807
680.0	5768
680.2	5728
680.4	5674
680.6	5661
680.8	5647
681.0	5616
681.2	5612
681.4	5578
681.6	5535
681.8	5542
682.0	5508
682.2	5466
682.4	5437
682.6	5394
682.8	5359
683.0	5348
683.2	5297
683.4	5250
683.6	5238
683.8	5222
684.0	5185
684.2	5182
684.4	5161
684.6	5134
684.8	5135
685.0	5087
685.2	5038
685.4	5017
685.6	4991
685.8	4951
686.0	4925
686.2	4887
686.4	4871
686.6	4848
686.8	4823
687.0	4811
687.2	4791
687.4	4768
687.6	4754
687.8	4705
688.0	4678
688.2	4674
688.4	4645
688.6	4616
688.8	4607
689.0	4558
689.2	4532
689.4	4520
689.6	4517
689.8	4496
690.0	4478
690.2	4438
690.4	4397
690.6	4376
690.8	4398
691.0	4386
691.2	4354
691.4	4324
691.6	4296
691.8	4283
692.0	4273
692.2	4258
692.4	4232
692.6	4195
692.8	4201
693.0	4215
693.2	4186
693.4	4153
693.6	4130
693.8	4085
694.0	4084
694.2	4097
694.4	4076
694.6	4042
694.8	4012
695.0	3970
695.2	3958
695.4	3958
695.6	3970
695.8	3952
696.0	3923
696.2	3889
696.4	3874
696.6	3858
696.8	3861
697.0	3826
697.2	3808
697.4	3806
697.6	3799
697.8	3808
698.0	3811
698.2	3766
698.4	3749
698.6	3746
698.8	3722
699.0	3712
699.2	3729
699.4	3695
699.6	3687
699.8	3687
700.0	3657
700.2	3602
700.4	3592
700.6	3569
700.8	3557
701.0	3570
701.2	3559
701.4	3532
701.6	3515
701.8	3494
702.0	3477
702.2	3473
702.4	3460
702.6	3462
702.8	3448
703.0	3424
703.2	3397
703.4	3378
703.6	3379
703.8	3381
704.0	3371
704.2	3348
704.4	3313
704.6	3291
704.8	3289
705.0	3285
705.2	3307
705.4	3295
705.6	3270
705.8	3242
706.0	3213
706.2	3192
706.4	3195
706.6	3208
706.8	3202
707.0	3186
707.2	3165
707.4	3148
707.6	3113
707.8	3118
708.0	3116
708.2	3102
708.4	3105
708.6	3095
708.8	3056
709.0	3039
709.2	3027
709.4	3008
709.6	2999
709.8	2977
710.0	2965
710.2	2964
710.4	2950
710.6	2934
710.8	2938
711.0	2926
711.2	2918
711.4	2900
711.6	2880
711.8	2841
712.0	2843
712.2	2825
712.4	2823
712.6	2799
712.8	2793
713.0	2752
713.2	2740
713.4	2726
713.6	2744
713.8	2733
714.0	2740
714.2	2717
714.4	2697
714.6	2683
714.8	2687
715.0	2681
715.2	2678
715.4	2673
715.6	2645
715.8	2629
716.0	2610
716.2	2591
716.4	2569
716.6	2561
716.8	2547
717.0	2531
717.2	2504
717.4	2484
717.6	2492
717.8	2493
718.0	2496
718.2	2479
718.4	2458
718.6	2429
718.8	2421
719.0	2404
719.2	2392
719.4	2378
719.6	2359
719.8	2355
720.0	2345
720.2	2338
720.4	2342
720.6	2324
720.8	2296
721.0	2286
721.2	2266
721.4	2248
721.6	2244
721.8	2232
722.0	2215
722.2	2200
722.4	2183
722.6	2156
722.8	2139
723.0	2134
723.2	2122
723.4	2124
723.6	2129
723.8	2116
724.0	2102
724.2	2094
724.4	2085
724.6	2077
724.8	2070
725.0	2048
725.2	2017
725.4	2001
725.6	2005
725.8	2007
726.0	2007
726.2	1994
726.4	1975
726.6	1958
726.8	1941
727.0	1912
727.2	1895
727.4	1885
727.6	1874
727.8	1874
728.0	1874
728.2	1851
728.4	1851
728.6	1840
728.8	1832
729.0	1831
729.2	1828
729.4	1798
729.6	1783
729.8	1762
730.0	1760
730.2	1751
730.4	1746
730.6	1735
730.8	1708
731.0	1697
731.2	1685
731.4	1677
731.6	1664
731.8	1660
732.0	1638
732.2	1639
732.4	1634
732.6	1636
732.8	1637
733.0	1629
733.2	1608
733.4	1597
733.6	1577
733.8	1564
734.0	1553
734.2	1539
734.4	1527
734.6	1534
734.8	1524
735.0	1512
735.2	1492
735.4	1481
735.6	1473
735.8	1469
736.0	1463
736.2	1452
736.4	1448
736.6	1453
736.8	1443
737.0	1428
737.2	1410
737.4	1383
737.6	1375
737.8	1358
738.0	1345
738.2	1329
738.4	1319
738.6	1308
738.8	1314
739.0	1303
739.2	1304
739.4	1292
739.6	1299
739.8	1288
740.0	1284
740.2	1285
740.4	1265
740.6	1251
740.8	1240
741.0	1232
741.2	1217
741.4	1209
741.6	1200
741.8	1204
742.0	1206
742.2	1198
742.4	1177
742.6	1160
742.8	1156
743.0	1159
743.2	1157
743.4	1140
743.6	1119
743.8	1116
744.0	1108
744.2	1102
744.4	1086
744.6	1066
744.8	1061
745.0	1063
745.2	1074
745.4	1083
745.6	1075
745.8	1055
746.0	1043
746.2	1022
746.4	1029
746.6	1040
746.8	1042
747.0	1030
747.2	1014
747.4	1001
747.6	993.4
747.8	987.3
748.0	976.6
748.2	962.9
748.4	952.3
748.6	953.7
748.8	949.0
749.0	946.3
749.2	937.4
749.4	931.3
749.6	928.8
749.8	932.9
750.0	934.6
750.2	922.8
750.4	910.5
750.6	899.5
750.8	895.2
751.0	889.5
751.2	891.9
751.4	887.3
751.6	883.3
751.8	878.9
752.0	880.4
752.2	872.5
752.4	869.7
752.6	866.1
752.8	846.8
753.0	831.8
753.2	830.8
753.4	825.4
753.6	831.1
753.8	833.9
754.0	826.5
754.2	814.2
754.4	810.8
754.6	800.4
754.8	795.5
755.0	783.2
755.2	764.8
755.4	752.4
755.6	762.3
755.8	774.9
756.0	777.4
756.2	775.5
756.4	759.1
756.6	733.4
756.8	729.2
757.0	720.8
757.2	719.5
757.4	730.2
757.6	739.8
757.8	725.9
758.0	721.2
758.2	712.5
758.4	707.2
758.6	701.3
758.8	698.0
759.0	687.7
759.2	686.6
759.4	685.5
759.6	681.9
759.8	672.4
760.0	669.3
760.2	674.7
760.4	676.2
760.6	671.9
760.8	664.4
761.0	649.8
761.2	635.7
761.4	626.2
761.6	619.6
761.8	620.9
762.0	625.9
762.2	628.6
762.4	633.3
762.6	627.3
762.8	615.2
763.0	607.8
763.2	598.5
763.4	595.5
763.6	603.8
763.8	601.1
764.0	596.4
764.2	588.3
764.4	571.1
764.6	565.0
764.8	562.3
765.0	554.5
765.2	558.2
765.4	546.6
765.6	542.1
765.8	538.2
766.0	538.4
766.2	542.3
766.4	548.4
766.6	544.3
766.8	538.0
767.0	527.4
767.2	512.0
767.4	507.3
767.6	512.1
767.8	520.7
768.0	519.8
768.2	512.9
768.4	500.9
768.6	496.2
768.8	501.6
769.0	501.0
769.2	499.5
769.4	490.0
769.6	480.0
769.8	473.6
770.0	465.7
770.2	465.8
770.4	468.4
770.6	475.8
770.8	474.8
771.0	470.0
771.2	456.6
771.4	455.1
771.6	453.5
771.8	462.9
772.0	465.5
772.2	453.8
772.4	438.8
772.6	432.0
772.8	431.3
773.0	437.8
773.2	440.9
773.4	437.2
773.6	429.3
773.8	428.7
774.0	426.8
774.2	422.2
774.4	413.3
774.6	413.5
774.8	410.2
775.0	410.5
775.2	413.4
775.4	409.5
775.6	397.0
775.8	398.9
776.0	400.3
776.2	397.4
776.4	401.5
776.6	404.6
776.8	402.6
777.0	400.3
777.2	390.5
777.4	382.1
777.6	379.4
777.8	379.2
778.0	383.8
778.2	377.2
778.4	372.4
778.6	368.0
778.8	364.4
779.0	364.4
779.2	369.9
779.4	370.9
779.6	372.2
779.8	367.7
780.0	360.6
780.2	352.5
780.4	341.9
780.6	335.0
780.8	336.1
781.0	342.6
781.2	349.9
781.4	348.4
781.6	343.8
781.8	340.2
782.0	337.0
782.2	332.2
782.4	333.0
782.6	329.3
782.8	330.4
783.0	337.9
783.2	336.4
783.4	334.0
783.6	331.3
783.8	326.8
784.0	320.7
784.2	319.6
784.4	320.9
784.6	322.1
784.8	318.4
785.0	318.5
785.2	314.6
785.4	314.0
785.6	323.1
785.8	323.8
786.0	317.1
786.2	313.4
786.4	305.2
786.6	300.7
786.8	301.1
787.0	300.9
787.2	297.0
787.4	292.7
787.6	296.6
787.8	294.3
788.0	289.0
788.2	291.5
788.4	292.1
788.6	288.4
788.8	295.1
789.0	291.4
789.2	291.4
789.4	288.9
789.6	284.5
789.8	284.6
790.0	282.0
790.2	279.7
790.4	286.5
790.6	285.5
790.8	286.8
791.0	288.9
791.2	281.4
791.4	279.0
791.6	274.5
791.8	272.1
792.0	271.8
792.2	264.4
792.4	264.1
792.6	267.5
792.8	263.1
793.0	263.4
793.2	266.9
793.4	263.7
793.6	265.3
793.8	260.8
794.0	258.3
794.2	259.5
794.4	263.7
794.6	263.3
794.8	255.2
795.0	241.5
795.2	239.5
795.4	241.5
795.6	247.5
795.8	254.9
796.0	259.4
796.2	250.1
796.4	244.0
796.6	240.3
796.8	237.9
797.0	241.1
797.2	251.8
797.4	249.8
797.6	242.9
797.8	249.9
798.0	250.1
798.2	249.8
798.4	247.2
798.6	243.1
798.8	240.0
799.0	250.2
799.2	252.8
799.4	253.2
799.6	244.0
799.8	239.9
800.0	238.3
800.2	238.5
800.4	236.7
800.6	236.1
800.8	229.7
801.0	228.2
801.2	229.6
801.4	230.7
801.6	231.8
801.8	229.9
802.0	227.1
802.2	228.8
802.4	229.4
802.6	225.2
802.8	220.7
803.0	216.7
803.2	216.8
803.4	222.5
803.6	224.7
803.8	222.3
804.0	215.6
804.2	211.6
804.4	212.8
804.6	217.6
804.8	216.3
805.0	215.6
805.2	209.3
805.4	203.9
805.6	200.0
805.8	200.8
806.0	199.4
806.2	204.6
806.4	207.6
806.6	211.4
806.8	208.8
807.0	207.2
807.2	206.2
807.4	203.5
807.6	198.0
807.8	194.7
808.0	189.7
808.2	191.1
808.4	195.9
808.6	199.3
808.8	194.8
809.0	192.6
809.2	196.3
809.4	191.1
809.6	189.5
809.8	185.0
810.0	176.3
810.2	178.7
810.4	186.1
810.6	189.1
810.8	187.6
811.0	178.1
811.2	171.5
811.4	173.2
811.6	168.7
811.8	173.8
812.0	174.2
812.2	173.8
812.4	177.8
812.6	182.7
812.8	178.8
813.0	179.5
813.2	183.1
813.4	179.2
813.6	177.6
813.8	171.4
814.0	160.5
814.2	160.7
814.4	159.8
814.6	160.6
814.8	162.3
815.0	164.2
815.2	163.4
815.4	167.7
815.6	170.7
815.8	171.6
816.0	164.5
816.2	161.1
816.4	157.8
816.6	150.7
816.8	154.8
817.0	156.2
817.2	155.5
817.4	153.7
817.6	147.3
817.8	140.4
818.0	149.2
818.2	157.7
818.4	156.2
818.6	150.1
818.8	136.2
819.0	125.4
819.2	131.9
819.4	142.4
819.6	142.5
819.8	144.0
820.0	138.1
820.2	131.1
820.4	132.2
820.6	131.8
820.8	131.7
821.0	129.8
821.2	127.8
821.4	131.8
821.6	133.5
821.8	130.7
822.0	133.1
822.2	126.6
822.4	124.1
822.6	125.7
822.8	121.3
823.0	122.1
823.2	123.9
823.4	120.3
823.6	117.6
823.8	118.9
824.0	118.0
824.2	118.2
824.4	116.9
824.6	111.4
824.8	109.0
825.0	111.6
825.2	110.5
825.4	109.5
825.6	109.9
825.8	109.5
826.0	110.8
826.2	112.1
826.4	109.2
826.6	107.2
826.8	106.8
827.0	106.9
827.2	104.1
827.4	101.2
827.6	97.93
827.8	95.80
828.0	94.89
828.2	95.13
828.4	97.47
828.6	98.39
828.8	96.93
829.0	96.34
829.2	94.80
829.4	93.17
829.6	94.42
829.8	96.07
830.0	94.44
830.2	93.52
830.4	91.94
830.6	90.46
