Sample:	'20211010A(EM)
File name:	r-c-dots-cho 1;5.FDS
Run date:	'20:42:36, 03/21/2023
Operator:	Administrator
Comment:	'

Instrument
Model:	F-4700 FL Spectrophotometer
Serial number:	2019-001
ROM Version:	5J24010 00

Instrument parameters
Measurement type:	Wavelength scan
Scan mode:	Emission
Data mode:	Fluorescence
EX WL:	530.0 nm
EM  Start WL:	550.0 nm
EM  End WL:	900.0 nm
Scan speed:	1200 nm/min
Delay:	0.0 s
EX Slit:	10.0 nm
EM Slit:	10.0 nm
PMT Voltage:	650 V
Response:	0.002 s
Corrected spectra:	Off
Shutter control:	On

Processing performed
Savitsky-Golay smoothed
Smoothing order:	3
Number of points:	7
Number of times:	1

Peak integration
Integration method:	Rectangular
Sensitivity:	1
Threshold:	1.000

Peaks
No.	Start(nm)	Apex(nm)	End(nm)	Height(Data)	Valley(nm)	Valley(Data)
1	550.0	636.4	780.8	8249	780.8	121.1
2	780.8	781.6	784.8	127.0	784.8	111.4
3	784.8	785.4	789.6	115.8	789.6	97.41
4	789.6	791.2	794.0	100.3	794.0	87.60
5	794.0	795.0	797.6	90.89	797.6	84.63
6	797.6	798.2	807.2	87.10	807.2	69.73
7	807.2	807.8	812.2	74.39	812.2	62.36
8	812.2	813.0	816.4	65.69	816.4	60.05
9	816.4	817.2	818.6	61.85	818.6	55.31
10	818.6	820.6	822.0	57.83	822.0	53.38
11	822.0	823.0	825.0	54.41	825.0	50.26
12	825.0	826.0	827.4	54.08	827.4	47.29
13	827.4	828.0	832.0	51.06	832.0	42.84
14	832.0	833.2	841.4	43.92	841.4	33.42
15	841.4	842.2	843.2	35.43	843.2	32.72
16	843.2	844.0	846.4	35.05	846.4	28.53
17	846.4	847.2	850.8	30.54	850.8	26.69
18	850.8	851.6	852.6	28.31	852.6	24.85
19	852.6	854.2	856.6	27.58	856.6	23.53
20	856.6	858.2	860.0	25.16	860.0	22.51
21	860.0	860.8	864.4	24.33	864.4	21.79
22	864.4	866.6	869.6	23.26	869.6	20.87
23	869.6	870.6	871.8	23.30	871.8	21.28
24	871.8	872.2	873.0	22.68	873.0	20.19
25	873.0	874.0	880.8	22.20	880.8	19.81
26	880.8	881.4	883.2	22.09	883.2	19.17
27	883.2	885.2	886.0	21.71	886.0	20.44
28	886.0	886.8	888.8	21.48	888.8	19.35
29	888.8	891.6	894.6	22.31	894.6	19.35
30	894.6	896.2	897.6	21.42	897.6	20.29
31	897.6	898.6	900.0	21.91	900.0	20.22

Data points
nm	Data
550.0	1863
550.2	1864
550.4	1867
550.6	1873
550.8	1888
551.0	1901
551.2	1915
551.4	1921
551.6	1916
551.8	1920
552.0	1935
552.2	1950
552.4	1965
552.6	1975
552.8	1981
553.0	1990
553.2	1999
553.4	2014
553.6	2025
553.8	2035
554.0	2049
554.2	2065
554.4	2083
554.6	2103
554.8	2105
555.0	2111
555.2	2123
555.4	2136
555.6	2152
555.8	2167
556.0	2166
556.2	2174
556.4	2185
556.6	2194
556.8	2212
557.0	2235
557.2	2246
557.4	2257
557.6	2263
557.8	2265
558.0	2276
558.2	2293
558.4	2302
558.6	2316
558.8	2329
559.0	2344
559.2	2360
559.4	2369
559.6	2378
559.8	2388
560.0	2414
560.2	2431
560.4	2451
560.6	2460
560.8	2466
561.0	2467
561.2	2484
561.4	2490
561.6	2499
561.8	2518
562.0	2526
562.2	2540
562.4	2564
562.6	2589
562.8	2603
563.0	2615
563.2	2629
563.4	2642
563.6	2658
563.8	2671
564.0	2678
564.2	2687
564.4	2710
564.6	2727
564.8	2745
565.0	2758
565.2	2773
565.4	2793
565.6	2818
565.8	2832
566.0	2842
566.2	2846
566.4	2849
566.6	2855
566.8	2874
567.0	2890
567.2	2908
567.4	2925
567.6	2937
567.8	2946
568.0	2969
568.2	2989
568.4	3002
568.6	3013
568.8	3026
569.0	3039
569.2	3064
569.4	3085
569.6	3106
569.8	3123
570.0	3135
570.2	3149
570.4	3155
570.6	3170
570.8	3187
571.0	3199
571.2	3216
571.4	3234
571.6	3250
571.8	3276
572.0	3300
572.2	3316
572.4	3326
572.6	3333
572.8	3341
573.0	3351
573.2	3386
573.4	3410
573.6	3433
573.8	3461
574.0	3475
574.2	3496
574.4	3514
574.6	3521
574.8	3537
575.0	3549
575.2	3557
575.4	3582
575.6	3594
575.8	3614
576.0	3628
576.2	3643
576.4	3659
576.6	3689
576.8	3706
577.0	3727
577.2	3733
577.4	3763
577.6	3785
577.8	3808
578.0	3826
578.2	3837
578.4	3841
578.6	3866
578.8	3883
579.0	3901
579.2	3930
579.4	3945
579.6	3953
579.8	3964
580.0	3969
580.2	3997
580.4	4031
580.6	4054
580.8	4075
581.0	4093
581.2	4105
581.4	4122
581.6	4133
581.8	4149
582.0	4170
582.2	4201
582.4	4240
582.6	4250
582.8	4262
583.0	4270
583.2	4281
583.4	4312
583.6	4347
583.8	4362
584.0	4382
584.2	4389
584.4	4400
584.6	4416
584.8	4432
585.0	4454
585.2	4471
585.4	4498
585.6	4521
585.8	4532
586.0	4547
586.2	4579
586.4	4597
586.6	4622
586.8	4645
587.0	4654
587.2	4664
587.4	4682
587.6	4695
587.8	4695
588.0	4714
588.2	4747
588.4	4765
588.6	4790
588.8	4806
589.0	4815
589.2	4824
589.4	4833
589.6	4839
589.8	4853
590.0	4864
590.2	4896
590.4	4917
590.6	4938
590.8	4966
591.0	4976
591.2	4991
591.4	5020
591.6	5041
591.8	5067
592.0	5096
592.2	5107
592.4	5133
592.6	5172
592.8	5190
593.0	5209
593.2	5232
593.4	5234
593.6	5225
593.8	5228
594.0	5221
594.2	5240
594.4	5273
594.6	5310
594.8	5339
595.0	5365
595.2	5385
595.4	5402
595.6	5421
595.8	5439
596.0	5456
596.2	5470
596.4	5480
596.6	5482
596.8	5503
597.0	5514
597.2	5546
597.4	5574
597.6	5574
597.8	5584
598.0	5603
598.2	5613
598.4	5636
598.6	5648
598.8	5650
599.0	5666
599.2	5685
599.4	5708
599.6	5714
599.8	5732
600.0	5755
600.2	5780
600.4	5814
600.6	5845
600.8	5864
601.0	5884
601.2	5894
601.4	5893
601.6	5895
601.8	5905
602.0	5930
602.2	5937
602.4	5950
602.6	5959
602.8	5960
603.0	5976
603.2	6016
603.4	6045
603.6	6075
603.8	6090
604.0	6086
604.2	6080
604.4	6100
604.6	6133
604.8	6165
605.0	6181
605.2	6203
605.4	6209
605.6	6218
605.8	6236
606.0	6247
606.2	6272
606.4	6303
606.6	6329
606.8	6349
607.0	6357
607.2	6362
607.4	6369
607.6	6373
607.8	6388
608.0	6404
608.2	6417
608.4	6437
608.6	6440
608.8	6468
609.0	6467
609.2	6479
609.4	6496
609.6	6515
609.8	6532
610.0	6545
610.2	6541
610.4	6571
610.6	6602
610.8	6637
611.0	6670
611.2	6666
611.4	6673
611.6	6684
611.8	6694
612.0	6709
612.2	6731
612.4	6752
612.6	6763
612.8	6775
613.0	6778
613.2	6777
613.4	6794
613.6	6828
613.8	6862
614.0	6901
614.2	6925
614.4	6923
614.6	6922
614.8	6916
615.0	6927
615.2	6951
615.4	6983
615.6	7009
615.8	7022
616.0	7031
616.2	7046
616.4	7056
616.6	7087
616.8	7111
617.0	7126
617.2	7153
617.4	7165
617.6	7163
617.8	7173
618.0	7184
618.2	7199
618.4	7234
618.6	7255
618.8	7269
619.0	7275
619.2	7275
619.4	7282
619.6	7291
619.8	7316
620.0	7334
620.2	7345
620.4	7363
620.6	7367
620.8	7380
621.0	7400
621.2	7410
621.4	7427
621.6	7454
621.8	7466
622.0	7489
622.2	7506
622.4	7527
622.6	7552
622.8	7573
623.0	7579
623.2	7584
623.4	7610
623.6	7624
623.8	7648
624.0	7655
624.2	7646
624.4	7652
624.6	7685
624.8	7704
625.0	7729
625.2	7734
625.4	7738
625.6	7736
625.8	7750
626.0	7770
626.2	7782
626.4	7805
626.6	7821
626.8	7822
627.0	7827
627.2	7852
627.4	7883
627.6	7913
627.8	7939
628.0	7949
628.2	7941
628.4	7947
628.6	7950
628.8	7941
629.0	7960
629.2	7977
629.4	7983
629.6	7990
629.8	7991
630.0	7992
630.2	8000
630.4	8013
630.6	8022
630.8	8031
631.0	8046
631.2	8068
631.4	8084
631.6	8098
631.8	8107
632.0	8111
632.2	8103
632.4	8100
632.6	8098
632.8	8108
633.0	8131
633.2	8153
633.4	8154
633.6	8147
633.8	8139
634.0	8148
634.2	8162
634.4	8171
634.6	8168
634.8	8169
635.0	8182
635.2	8180
635.4	8173
635.6	8174
635.8	8191
636.0	8216
636.2	8245
636.4	8249
636.6	8236
636.8	8225
637.0	8234
637.2	8232
637.4	8242
637.6	8232
637.8	8213
638.0	8193
638.2	8189
638.4	8191
638.6	8203
638.8	8201
639.0	8205
639.2	8175
639.4	8181
639.6	8185
639.8	8189
640.0	8187
640.2	8179
640.4	8161
640.6	8150
640.8	8144
641.0	8154
641.2	8147
641.4	8140
641.6	8142
641.8	8114
642.0	8114
642.2	8119
642.4	8107
642.6	8111
642.8	8098
643.0	8093
643.2	8089
643.4	8098
643.6	8071
643.8	8059
644.0	8045
644.2	8047
644.4	8027
644.6	8022
644.8	7998
645.0	7976
645.2	7974
645.4	7979
645.6	7971
645.8	7961
646.0	7948
646.2	7918
646.4	7901
646.6	7900
646.8	7899
647.0	7892
647.2	7869
647.4	7835
647.6	7818
647.8	7812
648.0	7777
648.2	7751
648.4	7719
648.6	7701
648.8	7711
649.0	7721
649.2	7679
649.4	7656
649.6	7630
649.8	7608
650.0	7587
650.2	7572
650.4	7544
650.6	7533
650.8	7526
651.0	7512
651.2	7476
651.4	7452
651.6	7441
651.8	7436
652.0	7408
652.2	7367
652.4	7318
652.6	7267
652.8	7250
653.0	7238
653.2	7219
653.4	7202
653.6	7185
653.8	7163
654.0	7141
654.2	7124
654.4	7098
654.6	7072
654.8	7038
655.0	7011
655.2	6994
655.4	6978
655.6	6954
655.8	6927
656.0	6898
656.2	6879
656.4	6856
656.6	6823
656.8	6793
657.0	6766
657.2	6750
657.4	6758
657.6	6720
657.8	6672
658.0	6624
658.2	6585
658.4	6578
658.6	6578
658.8	6543
659.0	6505
659.2	6477
659.4	6441
659.6	6426
659.8	6393
660.0	6353
660.2	6320
660.4	6292
660.6	6258
660.8	6237
661.0	6203
661.2	6174
661.4	6137
661.6	6116
661.8	6087
662.0	6064
662.2	6036
662.4	6010
662.6	5958
662.8	5926
663.0	5897
663.2	5877
663.4	5871
663.6	5852
663.8	5814
664.0	5777
664.2	5745
664.4	5707
664.6	5683
664.8	5650
665.0	5618
665.2	5588
665.4	5558
665.6	5522
665.8	5479
666.0	5448
666.2	5410
666.4	5396
666.6	5390
666.8	5371
667.0	5344
667.2	5310
667.4	5266
667.6	5236
667.8	5194
668.0	5153
668.2	5126
668.4	5102
668.6	5083
668.8	5066
669.0	5033
669.2	5012
669.4	4988
669.6	4963
669.8	4929
670.0	4903
670.2	4864
670.4	4832
670.6	4796
670.8	4757
671.0	4730
671.2	4716
671.4	4692
671.6	4668
671.8	4636
672.0	4609
672.2	4574
672.4	4550
672.6	4519
672.8	4487
673.0	4457
673.2	4437
673.4	4401
673.6	4367
673.8	4334
674.0	4312
674.2	4296
674.4	4277
674.6	4248
674.8	4206
675.0	4182
675.2	4158
675.4	4133
675.6	4129
675.8	4112
676.0	4088
676.2	4062
676.4	4020
676.6	3977
676.8	3959
677.0	3933
677.2	3918
677.4	3899
677.6	3874
677.8	3846
678.0	3817
678.2	3792
678.4	3771
678.6	3751
678.8	3731
679.0	3703
679.2	3686
679.4	3661
679.6	3643
679.8	3620
680.0	3597
680.2	3574
680.4	3554
680.6	3516
680.8	3496
681.0	3465
681.2	3429
681.4	3405
681.6	3385
681.8	3370
682.0	3366
682.2	3353
682.4	3319
682.6	3293
682.8	3271
683.0	3247
683.2	3230
683.4	3218
683.6	3192
683.8	3181
684.0	3165
684.2	3133
684.4	3104
684.6	3081
684.8	3056
685.0	3044
685.2	3024
685.4	3006
685.6	2985
685.8	2963
686.0	2946
686.2	2925
686.4	2902
686.6	2891
686.8	2882
687.0	2863
687.2	2843
687.4	2821
687.6	2800
687.8	2780
688.0	2762
688.2	2741
688.4	2718
688.6	2710
688.8	2692
689.0	2678
689.2	2655
689.4	2638
689.6	2621
689.8	2610
690.0	2592
690.2	2590
690.4	2569
690.6	2553
690.8	2540
691.0	2531
691.2	2518
691.4	2499
691.6	2475
691.8	2457
692.0	2434
692.2	2421
692.4	2411
692.6	2398
692.8	2387
693.0	2369
693.2	2342
693.4	2324
693.6	2311
693.8	2308
694.0	2299
694.2	2283
694.4	2259
694.6	2240
694.8	2228
695.0	2218
695.2	2206
695.4	2193
695.6	2170
695.8	2146
696.0	2136
696.2	2125
696.4	2115
696.6	2110
696.8	2096
697.0	2079
697.2	2066
697.4	2050
697.6	2037
697.8	2025
698.0	2009
698.2	1996
698.4	1983
698.6	1968
698.8	1955
699.0	1937
699.2	1924
699.4	1921
699.6	1916
699.8	1907
700.0	1900
700.2	1883
700.4	1872
700.6	1868
700.8	1858
701.0	1836
701.2	1822
701.4	1806
701.6	1791
701.8	1787
702.0	1788
702.2	1780
702.4	1772
702.6	1760
702.8	1740
703.0	1721
703.2	1711
703.4	1695
703.6	1680
703.8	1672
704.0	1662
704.2	1652
704.4	1643
704.6	1625
704.8	1613
705.0	1611
705.2	1611
705.4	1608
705.6	1596
705.8	1581
706.0	1564
706.2	1550
706.4	1538
706.6	1531
706.8	1525
707.0	1522
707.2	1516
707.4	1504
707.6	1486
707.8	1477
708.0	1467
708.2	1460
708.4	1459
708.6	1455
708.8	1451
709.0	1446
709.2	1434
709.4	1419
709.6	1401
709.8	1381
710.0	1374
710.2	1367
710.4	1371
710.6	1373
710.8	1364
711.0	1357
711.2	1350
711.4	1337
711.6	1331
711.8	1317
712.0	1303
712.2	1296
712.4	1292
712.6	1288
712.8	1280
713.0	1269
713.2	1267
713.4	1260
713.6	1256
713.8	1248
714.0	1231
714.2	1224
714.4	1219
714.6	1213
714.8	1208
715.0	1201
715.2	1193
715.4	1186
715.6	1180
715.8	1175
716.0	1173
716.2	1164
716.4	1159
716.6	1145
716.8	1136
717.0	1129
717.2	1125
717.4	1119
717.6	1114
717.8	1105
718.0	1097
718.2	1088
718.4	1079
718.6	1078
718.8	1073
719.0	1062
719.2	1058
719.4	1047
719.6	1039
719.8	1037
720.0	1035
720.2	1026
720.4	1016
720.6	1011
720.8	1002
721.0	996.7
721.2	993.3
721.4	988.8
721.6	977.3
721.8	971.9
722.0	965.8
722.2	964.1
722.4	962.8
722.6	955.6
722.8	946.7
723.0	935.7
723.2	928.7
723.4	924.2
723.6	919.9
723.8	913.9
724.0	907.7
724.2	903.0
724.4	893.6
724.6	885.6
724.8	880.3
725.0	879.8
725.2	877.6
725.4	875.3
725.6	865.1
725.8	856.5
726.0	847.7
726.2	844.0
726.4	838.5
726.6	834.1
726.8	824.1
727.0	819.8
727.2	815.7
727.4	811.3
727.6	803.9
727.8	797.7
728.0	787.2
728.2	789.6
728.4	789.4
728.6	782.3
728.8	775.1
729.0	767.8
729.2	755.9
729.4	754.9
729.6	746.0
729.8	737.8
730.0	734.5
730.2	733.6
730.4	729.1
730.6	726.0
730.8	717.0
731.0	716.9
731.2	713.0
731.4	706.1
731.6	705.0
731.8	693.5
732.0	682.5
732.2	679.2
732.4	669.0
732.6	662.0
732.8	665.7
733.0	659.8
733.2	655.5
733.4	653.8
733.6	653.8
733.8	652.2
734.0	650.4
734.2	642.7
734.4	633.1
734.6	625.0
734.8	621.1
735.0	614.1
735.2	613.8
735.4	610.3
735.6	610.3
735.8	605.0
736.0	600.9
736.2	596.6
736.4	598.4
736.6	589.1
736.8	581.5
737.0	573.3
737.2	565.8
737.4	565.1
737.6	567.4
737.8	565.1
738.0	562.5
738.2	561.4
738.4	552.3
738.6	548.1
738.8	543.6
739.0	541.3
739.2	536.3
739.4	531.3
739.6	525.7
739.8	525.5
740.0	521.9
740.2	519.9
740.4	519.0
740.6	515.7
740.8	513.2
741.0	513.5
741.2	506.0
741.4	497.5
741.6	488.9
741.8	483.0
742.0	479.9
742.2	482.7
742.4	482.8
742.6	479.8
742.8	473.2
743.0	469.8
743.2	465.3
743.4	467.5
743.6	468.3
743.8	464.2
744.0	460.7
744.2	455.8
744.4	451.3
744.6	451.3
744.8	451.2
745.0	443.4
745.2	434.9
745.4	430.4
745.6	431.8
745.8	434.8
746.0	436.4
746.2	433.7
746.4	425.6
746.6	419.6
746.8	414.0
747.0	407.4
747.2	402.4
747.4	402.6
747.6	401.0
747.8	401.2
748.0	401.0
748.2	394.4
748.4	390.1
748.6	385.6
748.8	380.4
749.0	378.4
749.2	380.3
749.4	377.0
749.6	373.0
749.8	370.8
750.0	368.8
750.2	369.2
750.4	369.4
750.6	364.1
750.8	359.9
751.0	358.1
751.2	356.1
751.4	355.7
751.6	354.2
751.8	351.2
752.0	351.1
752.2	346.2
752.4	343.1
752.6	339.3
752.8	335.7
753.0	333.0
753.2	331.0
753.4	329.3
753.6	332.2
753.8	331.2
754.0	328.5
754.2	320.7
754.4	314.2
754.6	310.6
754.8	310.0
755.0	309.1
755.2	311.7
755.4	311.4
755.6	309.8
755.8	307.4
756.0	301.8
756.2	298.1
756.4	295.8
756.6	295.0
756.8	290.9
757.0	290.1
757.2	285.9
757.4	286.2
757.6	285.0
757.8	282.3
758.0	278.8
758.2	276.7
758.4	271.4
758.6	272.7
758.8	271.8
759.0	269.2
759.2	268.3
759.4	265.4
759.6	260.5
759.8	258.5
760.0	256.1
760.2	253.2
760.4	254.2
760.6	251.5
760.8	251.6
761.0	252.1
761.2	250.4
761.4	248.1
761.6	249.9
761.8	247.4
762.0	248.7
762.2	247.1
762.4	240.9
762.6	235.7
762.8	231.7
763.0	227.6
763.2	229.5
763.4	227.0
763.6	226.7
763.8	225.9
764.0	223.8
764.2	223.2
764.4	224.3
764.6	221.0
764.8	221.1
765.0	218.7
765.2	217.3
765.4	216.7
765.6	214.6
765.8	209.7
766.0	206.6
766.2	203.7
766.4	203.7
766.6	201.8
766.8	202.1
767.0	201.2
767.2	197.8
767.4	198.7
767.6	199.0
767.8	195.8
768.0	194.9
768.2	195.1
768.4	191.0
768.6	191.4
768.8	189.6
769.0	186.0
769.2	183.9
769.4	184.0
769.6	182.0
769.8	181.5
770.0	179.5
770.2	179.0
770.4	178.0
770.6	179.9
770.8	178.5
771.0	176.6
771.2	175.9
771.4	175.3
771.6	173.2
771.8	171.2
772.0	171.0
772.2	169.0
772.4	166.8
772.6	165.0
772.8	162.4
773.0	159.1
773.2	160.6
773.4	160.6
773.6	160.2
773.8	161.5
774.0	160.5
774.2	157.5
774.4	155.9
774.6	153.3
774.8	152.5
775.0	153.3
775.2	153.7
775.4	150.9
775.6	149.9
775.8	148.4
776.0	148.9
776.2	149.5
776.4	148.1
776.6	147.0
776.8	148.7
777.0	148.3
777.2	147.0
777.4	143.5
777.6	139.0
777.8	138.2
778.0	139.3
778.2	138.1
778.4	136.3
778.6	135.3
778.8	134.3
779.0	133.6
779.2	133.4
779.4	132.9
779.6	131.7
779.8	133.8
780.0	131.8
780.2	128.5
780.4	124.7
780.6	122.5
780.8	121.1
781.0	123.9
781.2	125.2
781.4	126.4
781.6	127.0
781.8	125.1
782.0	122.1
782.2	121.2
782.4	120.8
782.6	120.7
782.8	121.4
783.0	120.8
783.2	119.9
783.4	119.9
783.6	118.8
783.8	118.3
784.0	116.6
784.2	116.9
784.4	114.3
784.6	113.2
784.8	111.4
785.0	112.2
785.2	112.8
785.4	115.8
785.6	115.0
785.8	114.3
786.0	112.3
786.2	109.6
786.4	108.9
786.6	109.3
786.8	108.5
787.0	107.9
787.2	106.5
787.4	103.5
787.6	103.3
787.8	103.6
788.0	103.9
788.2	104.8
788.4	104.6
788.6	103.3
788.8	103.0
789.0	102.1
789.2	99.41
789.4	97.89
789.6	97.41
789.8	97.46
790.0	98.91
790.2	100.1
790.4	98.49
790.6	98.36
790.8	98.71
791.0	99.22
791.2	100.3
791.4	100.1
791.6	97.22
791.8	96.12
792.0	94.25
792.2	92.94
792.4	91.81
792.6	90.58
792.8	90.12
793.0	91.67
793.2	91.99
793.4	91.87
793.6	90.66
793.8	89.38
794.0	87.60
794.2	88.76
794.4	89.69
794.6	89.86
794.8	90.55
795.0	90.89
795.2	89.91
795.4	90.22
795.6	90.36
795.8	90.26
796.0	90.70
796.2	89.18
796.4	87.95
796.6	86.55
796.8	86.10
797.0	86.36
797.2	86.39
797.4	85.29
797.6	84.63
797.8	85.40
798.0	86.00
798.2	87.10
798.4	86.41
798.6	86.21
798.8	86.46
799.0	86.62
799.2	85.69
799.4	84.95
799.6	82.11
799.8	80.91
800.0	81.63
800.2	80.85
800.4	81.20
800.6	82.27
800.8	80.44
801.0	79.22
801.2	78.39
801.4	78.61
801.6	78.79
801.8	79.38
802.0	79.00
802.2	77.86
802.4	77.53
802.6	78.88
802.8	79.11
803.0	79.21
803.2	78.87
803.4	77.37
803.6	77.10
803.8	76.54
804.0	76.70
804.2	77.99
804.4	75.90
804.6	75.75
804.8	75.25
805.0	75.09
805.2	74.54
805.4	75.43
805.6	73.75
805.8	74.01
806.0	72.33
806.2	73.16
806.4	72.75
806.6	71.77
806.8	70.35
807.0	70.16
807.2	69.73
807.4	71.75
807.6	73.59
807.8	74.39
808.0	73.08
808.2	72.03
808.4	69.87
808.6	68.50
808.8	69.62
809.0	70.76
809.2	70.88
809.4	71.19
809.6	69.75
809.8	69.42
810.0	68.70
810.2	67.23
810.4	66.96
810.6	68.99
810.8	69.06
811.0	70.15
811.2	68.55
811.4	65.98
811.6	64.74
811.8	65.25
812.0	63.15
812.2	62.36
812.4	62.85
812.6	63.06
812.8	64.49
813.0	65.69
813.2	64.41
813.4	63.84
813.6	64.00
813.8	63.35
814.0	62.94
814.2	61.73
814.4	61.92
814.6	63.55
814.8	63.70
815.0	63.93
815.2	63.04
815.4	61.23
815.6	62.20
815.8	62.02
816.0	61.36
816.2	61.04
816.4	60.05
816.6	60.56
816.8	60.14
817.0	60.64
817.2	61.85
817.4	61.79
817.6	61.40
817.8	61.52
818.0	58.12
818.2	57.15
818.4	56.08
818.6	55.31
818.8	56.59
819.0	57.72
819.2	57.28
819.4	57.29
819.6	56.75
819.8	55.80
820.0	56.26
820.2	56.92
820.4	57.52
820.6	57.83
820.8	57.53
821.0	56.12
821.2	55.18
821.4	55.36
821.6	54.31
821.8	53.78
822.0	53.38
822.2	53.48
822.4	54.06
822.6	54.25
822.8	53.50
823.0	54.41
823.2	53.77
823.4	53.53
823.6	52.95
823.8	51.63
824.0	52.16
824.2	53.11
824.4	52.83
824.6	52.64
824.8	51.79
825.0	50.26
825.2	50.85
825.4	50.97
825.6	51.69
825.8	53.87
826.0	54.08
826.2	52.70
826.4	50.74
826.6	49.09
826.8	47.75
827.0	48.33
827.2	47.75
827.4	47.29
827.6	48.82
827.8	50.36
828.0	51.06
828.2	50.40
828.4	49.30
828.6	48.85
828.8	49.72
829.0	49.25
829.2	47.89
829.4	46.73
829.6	46.67
829.8	47.93
830.0	48.38
830.2	48.23
830.4	46.07
830.6	45.70
830.8	44.84
831.0	44.45
831.2	43.99
831.4	43.96
831.6	43.04
831.8	43.05
832.0	42.84
832.2	43.56
832.4	43.68
832.6	43.55
832.8	43.21
833.0	43.49
833.2	43.92
833.4	43.69
833.6	42.93
833.8	41.66
834.0	40.87
834.2	40.80
834.4	40.13
834.6	40.33
834.8	40.73
835.0	40.36
835.2	40.56
835.4	39.53
835.6	38.94
835.8	39.84
836.0	39.85
836.2	39.61
836.4	39.98
836.6	38.67
836.8	39.15
837.0	39.03
837.2	38.39
837.4	38.36
837.6	38.33
837.8	37.78
838.0	37.44
838.2	36.95
838.4	36.97
