Sample:	'20211010A(EM)
File name:	r-c-dots-cho 1;15.FDS
Run date:	'20:47:13, 03/21/2023
Operator:	Administrator
Comment:	'

Instrument
Model:	F-4700 FL Spectrophotometer
Serial number:	2019-001
ROM Version:	5J24010 00

Instrument parameters
Measurement type:	Wavelength scan
Scan mode:	Emission
Data mode:	Fluorescence
EX WL:	530.0 nm
EM  Start WL:	550.0 nm
EM  End WL:	900.0 nm
Scan speed:	1200 nm/min
Delay:	0.0 s
EX Slit:	10.0 nm
EM Slit:	10.0 nm
PMT Voltage:	640 V
Response:	0.002 s
Corrected spectra:	Off
Shutter control:	On

Processing performed
Savitsky-Golay smoothed
Smoothing order:	3
Number of points:	7
Number of times:	1

Peak integration
Integration method:	Rectangular
Sensitivity:	1
Threshold:	1.000

Peaks
No.	Start(nm)	Apex(nm)	End(nm)	Height(Data)	Valley(nm)	Valley(Data)
1	550.0	634.2	792.4	9063	792.4	60.98
2	792.4	793.2	798.2	63.13	798.2	54.43
3	798.2	798.8	804.8	57.06	804.8	44.10
4	804.8	805.4	808.0	49.69	808.0	41.67
5	808.0	808.8	815.0	45.20	815.0	34.88
6	815.0	816.0	817.8	36.79	817.8	32.76
7	817.8	818.2	819.8	34.64	819.8	29.80
8	819.8	820.6	822.8	31.60	822.8	27.08
9	822.8	823.6	827.2	29.74	827.2	23.58
10	827.2	828.0	831.6	25.18	831.6	19.10
11	831.6	832.4	834.8	20.26	834.8	16.53
12	834.8	835.6	840.2	17.60	840.2	11.86
13	840.2	841.6	848.0	12.89	848.0	7.666
14	848.0	848.4	866.2	9.364	866.2	4.913
15	866.2	867.8	880.8	6.323	880.8	4.540
16	880.8	882.2	883.6	5.648	883.6	4.611
17	883.6	884.4	887.8	5.828	887.8	4.372
18	887.8	895.6	898.2	6.138	898.2	4.856

Data points
nm	Data
550.0	2000
550.2	2002
550.4	2013
550.6	2029
550.8	2050
551.0	2062
551.2	2077
551.4	2084
551.6	2093
551.8	2113
552.0	2130
552.2	2133
552.4	2150
552.6	2169
552.8	2177
553.0	2192
553.2	2197
553.4	2210
553.6	2226
553.8	2248
554.0	2259
554.2	2272
554.4	2289
554.6	2311
554.8	2319
555.0	2330
555.2	2348
555.4	2358
555.6	2377
555.8	2400
556.0	2411
556.2	2411
556.4	2418
556.6	2427
556.8	2436
557.0	2459
557.2	2482
557.4	2495
557.6	2510
557.8	2532
558.0	2554
558.2	2573
558.4	2591
558.6	2603
558.8	2618
559.0	2627
559.2	2641
559.4	2651
559.6	2670
559.8	2690
560.0	2709
560.2	2718
560.4	2727
560.6	2744
560.8	2768
561.0	2795
561.2	2806
561.4	2810
561.6	2813
561.8	2823
562.0	2840
562.2	2867
562.4	2878
562.6	2891
562.8	2917
563.0	2933
563.2	2949
563.4	2962
563.6	2975
563.8	2998
564.0	3021
564.2	3036
564.4	3060
564.6	3072
564.8	3094
565.0	3114
565.2	3119
565.4	3132
565.6	3156
565.8	3176
566.0	3200
566.2	3221
566.4	3241
566.6	3260
566.8	3277
567.0	3294
567.2	3308
567.4	3315
567.6	3318
567.8	3329
568.0	3351
568.2	3367
568.4	3388
568.6	3408
568.8	3430
569.0	3454
569.2	3475
569.4	3481
569.6	3493
569.8	3513
570.0	3541
570.2	3571
570.4	3588
570.6	3603
570.8	3612
571.0	3630
571.2	3655
571.4	3682
571.6	3697
571.8	3713
572.0	3721
572.2	3737
572.4	3764
572.6	3792
572.8	3816
573.0	3830
573.2	3854
573.4	3866
573.6	3881
573.8	3898
574.0	3920
574.2	3946
574.4	3978
574.6	3994
574.8	4009
575.0	4023
575.2	4035
575.4	4065
575.6	4088
575.8	4112
576.0	4131
576.2	4150
576.4	4156
576.6	4182
576.8	4200
577.0	4223
577.2	4246
577.4	4271
577.6	4290
577.8	4324
578.0	4341
578.2	4362
578.4	4375
578.6	4378
578.8	4394
579.0	4410
579.2	4429
579.4	4464
579.6	4487
579.8	4510
580.0	4537
580.2	4552
580.4	4561
580.6	4583
580.8	4598
581.0	4622
581.2	4653
581.4	4672
581.6	4695
581.8	4720
582.0	4742
582.2	4766
582.4	4797
582.6	4816
582.8	4839
583.0	4859
583.2	4870
583.4	4879
583.6	4903
583.8	4935
584.0	4955
584.2	4980
584.4	5005
584.6	5016
584.8	5033
585.0	5059
585.2	5081
585.4	5094
585.6	5113
585.8	5130
586.0	5148
586.2	5175
586.4	5212
586.6	5242
586.8	5269
587.0	5301
587.2	5316
587.4	5324
587.6	5336
587.8	5346
588.0	5375
588.2	5405
588.4	5436
588.6	5461
588.8	5484
589.0	5488
589.2	5514
589.4	5540
589.6	5558
589.8	5567
590.0	5598
590.2	5619
590.4	5641
590.6	5670
590.8	5684
591.0	5689
591.2	5717
591.4	5735
591.6	5757
591.8	5787
592.0	5800
592.2	5834
592.4	5877
592.6	5907
592.8	5934
593.0	5948
593.2	5951
593.4	5977
593.6	5989
593.8	6002
594.0	6012
594.2	6027
594.4	6052
594.6	6080
594.8	6105
595.0	6122
595.2	6145
595.4	6176
595.6	6198
595.8	6227
596.0	6247
596.2	6263
596.4	6284
596.6	6311
596.8	6328
597.0	6351
597.2	6366
597.4	6379
597.6	6398
597.8	6425
598.0	6432
598.2	6451
598.4	6462
598.6	6475
598.8	6495
599.0	6516
599.2	6516
599.4	6533
599.6	6551
599.8	6587
600.0	6606
600.2	6625
600.4	6643
600.6	6668
600.8	6686
601.0	6709
601.2	6730
601.4	6755
601.6	6780
601.8	6800
602.0	6799
602.2	6809
602.4	6834
602.6	6855
602.8	6876
603.0	6897
603.2	6896
603.4	6909
603.6	6926
603.8	6949
604.0	6974
604.2	6996
604.4	7015
604.6	7046
604.8	7067
605.0	7084
605.2	7086
605.4	7084
605.6	7105
605.8	7141
606.0	7175
606.2	7204
606.4	7225
606.6	7234
606.8	7260
607.0	7285
607.2	7295
607.4	7317
607.6	7334
607.8	7344
608.0	7357
608.2	7375
608.4	7379
608.6	7404
608.8	7423
609.0	7448
609.2	7462
609.4	7489
609.6	7499
609.8	7522
610.0	7531
610.2	7546
610.4	7560
610.6	7585
610.8	7598
611.0	7616
611.2	7646
611.4	7677
611.6	7693
611.8	7716
612.0	7722
612.2	7716
612.4	7734
612.6	7756
612.8	7762
613.0	7777
613.2	7789
613.4	7807
613.6	7836
613.8	7866
614.0	7903
614.2	7913
614.4	7922
614.6	7920
614.8	7924
615.0	7935
615.2	7974
615.4	8001
615.6	8032
615.8	8042
616.0	8052
616.2	8065
616.4	8075
616.6	8082
616.8	8107
617.0	8131
617.2	8144
617.4	8160
617.6	8156
617.8	8169
618.0	8186
618.2	8201
618.4	8219
618.6	8243
618.8	8248
619.0	8277
619.2	8293
619.4	8308
619.6	8337
619.8	8359
620.0	8365
620.2	8379
620.4	8394
620.6	8408
620.8	8433
621.0	8458
621.2	8463
621.4	8477
621.6	8487
621.8	8496
622.0	8505
622.2	8519
622.4	8523
622.6	8539
622.8	8554
623.0	8558
623.2	8560
623.4	8565
623.6	8594
623.8	8624
624.0	8652
624.2	8667
624.4	8680
624.6	8695
624.8	8715
625.0	8711
625.2	8711
625.4	8713
625.6	8721
625.8	8729
626.0	8745
626.2	8759
626.4	8798
626.6	8821
626.8	8838
627.0	8832
627.2	8839
627.4	8840
627.6	8836
627.8	8834
628.0	8846
628.2	8853
628.4	8885
628.6	8895
628.8	8892
629.0	8896
629.2	8903
629.4	8914
629.6	8934
629.8	8943
630.0	8947
630.2	8933
630.4	8928
630.6	8928
630.8	8935
631.0	8945
631.2	8959
631.4	8962
631.6	8978
631.8	8978
632.0	8991
632.2	8980
632.4	8976
632.6	8971
632.8	8999
633.0	8998
633.2	9001
633.4	9018
633.6	9017
633.8	9026
634.0	9059
634.2	9063
634.4	9053
634.6	9044
634.8	9019
635.0	9014
635.2	9016
635.4	9030
635.6	9030
635.8	9015
636.0	9005
636.2	9001
636.4	8997
636.6	8995
636.8	9000
637.0	8990
637.2	8972
637.4	8972
637.6	8975
637.8	8991
638.0	9001
638.2	8979
638.4	8970
638.6	8954
638.8	8961
639.0	8965
639.2	8952
639.4	8928
639.6	8926
639.8	8908
640.0	8911
640.2	8885
640.4	8860
640.6	8843
640.8	8836
641.0	8840
641.2	8827
641.4	8807
641.6	8788
641.8	8782
642.0	8785
642.2	8785
642.4	8768
642.6	8749
642.8	8731
643.0	8722
643.2	8712
643.4	8685
643.6	8670
643.8	8630
644.0	8606
644.2	8596
644.4	8572
644.6	8557
644.8	8547
645.0	8527
645.2	8513
645.4	8505
645.6	8485
645.8	8461
646.0	8430
646.2	8407
646.4	8394
646.6	8394
646.8	8385
647.0	8358
647.2	8328
647.4	8284
647.6	8263
647.8	8243
648.0	8218
648.2	8173
648.4	8144
648.6	8115
648.8	8093
649.0	8065
649.2	8035
649.4	8002
649.6	7985
649.8	7986
650.0	7960
650.2	7924
650.4	7893
650.6	7868
650.8	7855
651.0	7852
651.2	7816
651.4	7766
651.6	7726
651.8	7694
652.0	7681
652.2	7659
652.4	7638
652.6	7600
652.8	7567
653.0	7534
653.2	7500
653.4	7465
653.6	7441
653.8	7415
654.0	7386
654.2	7347
654.4	7310
654.6	7283
654.8	7239
655.0	7224
655.2	7205
655.4	7181
655.6	7155
655.8	7127
656.0	7076
656.2	7045
656.4	7013
656.6	6983
656.8	6943
657.0	6897
657.2	6851
657.4	6809
657.6	6786
657.8	6764
658.0	6753
658.2	6713
658.4	6686
658.6	6658
658.8	6621
659.0	6581
659.2	6552
659.4	6509
659.6	6473
659.8	6458
660.0	6428
660.2	6404
660.4	6371
660.6	6335
660.8	6285
661.0	6262
661.2	6230
661.4	6210
661.6	6175
661.8	6134
662.0	6091
662.2	6037
662.4	5989
662.6	5955
662.8	5927
663.0	5897
663.2	5865
663.4	5815
663.6	5784
663.8	5753
664.0	5734
664.2	5714
664.4	5681
664.6	5650
664.8	5616
665.0	5575
665.2	5541
665.4	5516
665.6	5475
665.8	5437
666.0	5390
666.2	5344
666.4	5313
666.6	5294
666.8	5273
667.0	5250
667.2	5210
667.4	5167
667.6	5128
667.8	5093
668.0	5078
668.2	5054
668.4	5010
668.6	4983
668.8	4940
669.0	4903
669.2	4875
669.4	4840
669.6	4810
669.8	4802
670.0	4781
670.2	4749
670.4	4704
670.6	4661
670.8	4628
671.0	4601
671.2	4579
671.4	4543
671.6	4495
671.8	4469
672.0	4453
672.2	4426
672.4	4401
672.6	4369
672.8	4324
673.0	4295
673.2	4279
673.4	4254
673.6	4236
673.8	4200
674.0	4166
674.2	4133
674.4	4095
674.6	4068
674.8	4045
675.0	4007
675.2	3986
675.4	3966
675.6	3931
675.8	3907
676.0	3876
676.2	3846
676.4	3834
676.6	3817
676.8	3804
677.0	3786
677.2	3752
677.4	3713
677.6	3687
677.8	3651
678.0	3632
678.2	3619
678.4	3598
678.6	3572
678.8	3549
679.0	3516
679.2	3478
679.4	3449
679.6	3428
679.8	3401
680.0	3391
680.2	3383
680.4	3361
680.6	3339
680.8	3310
681.0	3282
681.2	3257
681.4	3226
681.6	3195
681.8	3172
682.0	3150
682.2	3138
682.4	3112
682.6	3096
682.8	3084
683.0	3066
683.2	3048
683.4	3020
683.6	2991
683.8	2979
684.0	2962
684.2	2941
684.4	2918
684.6	2887
684.8	2857
685.0	2841
685.2	2814
685.4	2792
685.6	2778
685.8	2769
686.0	2753
686.2	2743
686.4	2713
686.6	2682
686.8	2671
687.0	2665
687.2	2649
687.4	2630
687.6	2602
687.8	2579
688.0	2572
688.2	2558
688.4	2542
688.6	2521
688.8	2502
689.0	2480
689.2	2467
689.4	2448
689.6	2429
689.8	2413
690.0	2396
690.2	2377
690.4	2359
690.6	2349
690.8	2335
691.0	2321
691.2	2307
691.4	2291
691.6	2271
691.8	2260
692.0	2244
692.2	2233
692.4	2225
692.6	2205
692.8	2189
693.0	2175
693.2	2161
693.4	2156
693.6	2146
693.8	2129
694.0	2118
694.2	2101
694.4	2091
694.6	2076
694.8	2060
695.0	2041
695.2	2027
695.4	2013
695.6	2008
695.8	1999
696.0	2000
696.2	1989
696.4	1974
696.6	1963
696.8	1947
697.0	1930
697.2	1920
697.4	1902
697.6	1885
697.8	1875
698.0	1865
698.2	1858
698.4	1854
698.6	1844
698.8	1833
699.0	1821
699.2	1815
699.4	1810
699.6	1806
699.8	1792
700.0	1778
700.2	1765
700.4	1758
700.6	1752
700.8	1740
701.0	1725
701.2	1708
701.4	1694
701.6	1681
701.8	1671
702.0	1663
702.2	1661
702.4	1650
702.6	1641
702.8	1632
703.0	1618
703.2	1605
703.4	1594
703.6	1579
703.8	1575
704.0	1575
704.2	1563
704.4	1561
704.6	1549
704.8	1542
705.0	1534
705.2	1521
705.4	1511
705.6	1506
705.8	1491
706.0	1485
706.2	1470
706.4	1464
706.6	1456
706.8	1441
707.0	1429
707.2	1419
707.4	1409
707.6	1409
707.8	1404
708.0	1393
708.2	1386
708.4	1375
708.6	1369
708.8	1363
709.0	1354
709.2	1343
709.4	1337
709.6	1325
709.8	1315
710.0	1308
710.2	1297
710.4	1295
710.6	1292
710.8	1283
711.0	1275
711.2	1269
711.4	1264
711.6	1255
711.8	1240
712.0	1231
712.2	1221
712.4	1211
712.6	1201
712.8	1184
713.0	1176
713.2	1170
713.4	1162
713.6	1153
713.8	1144
714.0	1135
714.2	1133
714.4	1131
714.6	1130
714.8	1127
715.0	1120
715.2	1113
715.4	1105
715.6	1101
715.8	1092
716.0	1084
716.2	1073
716.4	1066
716.6	1056
716.8	1052
717.0	1036
717.2	1024
717.4	1013
717.6	1010
717.8	1004
718.0	997.1
718.2	989.4
718.4	983.1
718.6	973.8
718.8	970.6
719.0	961.1
719.2	948.6
719.4	943.8
719.6	940.9
719.8	935.7
720.0	929.5
720.2	918.4
720.4	906.8
720.6	903.6
720.8	895.4
721.0	891.6
721.2	885.5
721.4	881.3
721.6	872.9
721.8	869.4
722.0	859.0
722.2	857.1
722.4	848.9
722.6	839.0
722.8	827.4
723.0	819.2
723.2	816.1
723.4	817.6
723.6	812.3
723.8	803.8
724.0	792.9
724.2	782.7
724.4	779.5
724.6	778.8
724.8	775.6
725.0	768.4
725.2	759.4
725.4	749.1
725.6	741.4
725.8	735.6
726.0	729.9
726.2	728.3
726.4	725.9
726.6	720.7
726.8	713.5
727.0	704.8
727.2	699.7
727.4	698.8
727.6	691.2
727.8	683.6
728.0	674.9
728.2	671.1
728.4	665.2
728.6	660.5
728.8	659.4
729.0	656.4
729.2	649.2
729.4	649.3
729.6	638.2
729.8	632.9
730.0	626.8
730.2	620.5
730.4	615.5
730.6	614.6
730.8	604.2
731.0	596.9
731.2	585.7
731.4	583.3
731.6	581.4
731.8	584.4
732.0	582.2
732.2	575.2
732.4	565.6
732.6	560.9
732.8	554.0
733.0	550.0
733.2	547.0
733.4	543.3
733.6	538.3
733.8	537.3
734.0	538.1
734.2	531.5
734.4	526.9
734.6	519.4
734.8	507.2
735.0	498.0
735.2	497.3
735.4	496.0
735.6	498.8
735.8	498.0
736.0	491.9
736.2	484.3
736.4	483.2
736.6	479.3
736.8	476.9
737.0	473.5
737.2	464.4
737.4	456.3
737.6	451.7
737.8	448.6
738.0	448.1
738.2	448.9
738.4	444.3
738.6	438.8
738.8	435.2
739.0	433.5
739.2	428.6
739.4	426.8
739.6	421.3
739.8	414.2
740.0	412.0
740.2	409.9
740.4	406.1
740.6	404.2
740.8	401.4
741.0	399.1
741.2	396.5
741.4	391.3
741.6	387.1
741.8	384.5
742.0	380.6
742.2	378.1
742.4	378.4
742.6	375.0
742.8	371.5
743.0	369.2
743.2	365.5
743.4	360.3
743.6	359.3
743.8	360.3
744.0	358.7
744.2	354.9
744.4	350.2
744.6	343.1
744.8	339.3
745.0	340.8
745.2	339.9
745.4	335.9
745.6	332.8
745.8	330.2
746.0	327.8
746.2	325.5
746.4	322.2
746.6	317.3
746.8	312.6
747.0	313.1
747.2	311.7
747.4	306.9
747.6	305.4
747.8	300.2
748.0	293.0
748.2	295.1
748.4	293.9
748.6	293.1
748.8	293.4
749.0	288.8
749.2	282.3
749.4	281.4
749.6	279.0
749.8	279.6
750.0	280.7
750.2	277.6
750.4	275.4
750.6	273.6
750.8	272.1
751.0	268.7
751.2	269.9
751.4	264.4
751.6	259.6
751.8	257.0
752.0	255.9
752.2	254.6
752.4	254.7
752.6	252.0
752.8	250.4
753.0	249.2
753.2	247.0
753.4	242.4
753.6	237.8
753.8	236.4
754.0	237.1
754.2	236.4
754.4	234.8
754.6	230.7
754.8	227.6
755.0	225.8
755.2	224.6
755.4	224.8
755.6	221.4
755.8	218.7
756.0	219.0
756.2	218.2
756.4	219.7
756.6	220.2
756.8	216.6
757.0	213.6
757.2	212.8
757.4	209.1
757.6	207.7
757.8	204.7
758.0	202.7
758.2	201.6
758.4	201.8
758.6	204.1
758.8	202.8
759.0	199.3
759.2	195.4
759.4	190.4
759.6	185.0
759.8	184.0
760.0	181.4
760.2	182.1
760.4	182.4
760.6	182.8
760.8	179.3
761.0	177.5
761.2	174.6
761.4	171.6
761.6	169.7
761.8	171.7
762.0	170.1
762.2	171.9
762.4	172.6
762.6	171.1
762.8	170.6
763.0	168.5
763.2	163.3
763.4	159.8
763.6	156.5
763.8	156.0
764.0	156.6
764.2	155.2
764.4	155.8
764.6	155.8
764.8	154.1
765.0	153.6
765.2	152.3
765.4	151.0
765.6	150.7
765.8	149.6
766.0	147.8
766.2	147.8
766.4	146.5
766.6	144.9
766.8	143.3
767.0	140.8
767.2	137.3
767.4	135.8
767.6	133.5
767.8	130.5
768.0	131.3
768.2	133.2
768.4	134.3
768.6	134.9
768.8	131.4
769.0	127.3
769.2	127.7
769.4	128.3
769.6	126.7
769.8	125.6
770.0	122.2
770.2	122.7
770.4	122.4
770.6	121.4
770.8	118.7
771.0	117.4
771.2	114.8
771.4	117.0
771.6	115.2
771.8	115.0
772.0	114.9
772.2	114.1
772.4	112.2
772.6	112.6
772.8	112.3
773.0	111.6
773.2	110.4
773.4	107.9
773.6	105.4
773.8	104.9
774.0	106.2
774.2	105.9
774.4	106.4
774.6	106.6
774.8	105.3
775.0	105.1
775.2	104.1
775.4	101.6
775.6	101.3
775.8	101.3
776.0	99.91
776.2	98.74
776.4	98.16
776.6	97.49
776.8	97.85
777.0	98.04
777.2	97.18
777.4	96.56
777.6	95.70
777.8	94.24
778.0	93.02
778.2	92.17
778.4	91.90
778.6	92.32
778.8	92.19
779.0	91.64
779.2	91.47
779.4	90.28
779.6	88.18
779.8	87.39
780.0	85.90
780.2	85.78
780.4	87.49
780.6	88.42
780.8	86.02
781.0	85.43
781.2	83.32
781.4	81.33
781.6	81.76
781.8	82.67
782.0	82.76
782.2	83.19
782.4	82.23
782.6	79.84
782.8	78.77
783.0	78.80
783.2	78.34
783.4	79.03
783.6	78.11
783.8	77.12
784.0	77.83
784.2	78.73
784.4	76.49
784.6	76.67
784.8	74.26
785.0	73.90
785.2	75.25
785.4	76.88
785.6	76.44
785.8	75.01
786.0	73.61
786.2	72.70
786.4	72.48
786.6	72.41
786.8	72.33
787.0	72.13
787.2	73.49
787.4	72.63
787.6	72.07
787.8	69.87
788.0	68.04
788.2	67.63
788.4	68.19
788.6	67.94
788.8	69.31
789.0	67.88
789.2	67.27
789.4	66.80
789.6	66.30
789.8	67.41
790.0	67.38
790.2	66.14
790.4	66.47
790.6	66.84
790.8	66.00
791.0	66.66
791.2	64.89
791.4	64.85
791.6	64.65
791.8	63.39
792.0	62.06
792.2	61.14
792.4	60.98
792.6	61.42
792.8	61.72
793.0	62.53
793.2	63.13
793.4	62.54
793.6	61.82
793.8	60.00
794.0	58.98
794.2	58.78
794.4	58.76
794.6	59.44
794.8	60.13
795.0	60.22
795.2	58.51
795.4	57.94
795.6	58.25
795.8	59.09
796.0	60.31
796.2	59.93
796.4	57.30
796.6	56.48
796.8	55.46
797.0	55.16
797.2	55.85
797.4	55.57
797.6	56.04
797.8	55.75
798.0	55.08
798.2	54.43
798.4	55.66
798.6	56.48
798.8	57.06
799.0	56.96
799.2	55.03
799.4	52.22
799.6	52.00
799.8	51.92
800.0	52.45
800.2	52.97
800.4	52.11
800.6	50.62
800.8	50.61
801.0	50.85
801.2	51.66
801.4	51.55
801.6	49.65
801.8	48.38
802.0	49.13
802.2	50.38
802.4	50.91
802.6	51.40
802.8	49.47
803.0	48.35
803.2	49.45
803.4	49.38
803.6	48.24
803.8	48.32
804.0	46.98
804.2	45.59
804.4	45.70
804.6	44.98
804.8	44.10
805.0	46.08
805.2	47.71
805.4	49.69
805.6	49.62
805.8	48.41
806.0	46.75
806.2	46.57
806.4	46.33
806.6	46.72
806.8	46.38
807.0	46.12
807.2	45.54
807.4	45.08
807.6	43.48
807.8	41.69
808.0	41.67
808.2	43.11
808.4	43.34
808.6	44.83
808.8	45.20
809.0	44.17
809.2	43.30
809.4	42.61
809.6	41.26
809.8	41.93
810.0	42.22
810.2	41.95
810.4	42.12
810.6	40.89
810.8	40.28
811.0	41.07
811.2	41.06
811.4	40.70
811.6	41.04
811.8	39.80
812.0	39.23
812.2	39.52
812.4	39.60
812.6	39.45
812.8	39.36
813.0	38.04
813.2	37.69
813.4	37.56
813.6	37.32
813.8	37.50
814.0	37.29
814.2	35.94
814.4	36.23
814.6	36.02
814.8	35.45
815.0	34.88
815.2	34.94
815.4	35.09
815.6	36.14
815.8	36.45
816.0	36.79
816.2	36.19
816.4	35.29
816.6	33.88
816.8	33.55
817.0	33.76
817.2	32.89
817.4	33.41
817.6	32.94
817.8	32.76
818.0	33.60
818.2	34.64
818.4	33.01
818.6	32.85
818.8	32.17
819.0	31.77
819.2	31.23
819.4	31.52
819.6	30.54
819.8	29.80
820.0	30.32
820.2	30.91
820.4	30.74
820.6	31.60
820.8	30.89
821.0	29.89
821.2	29.83
821.4	30.36
821.6	30.53
821.8	30.58
822.0	29.91
822.2	28.99
822.4	28.34
822.6	27.97
822.8	27.08
823.0	27.39
823.2	27.66
823.4	28.41
823.6	29.74
823.8	29.39
824.0	27.71
824.2	27.39
824.4	26.93
824.6	26.63
824.8	26.81
825.0	26.32
825.2	25.36
825.4	24.55
825.6	24.26
825.8	24.03
826.0	23.88
826.2	24.23
826.4	24.24
826.6	23.93
826.8	23.91
827.0	24.01
827.2	23.58
827.4	23.81
827.6	24.24
827.8	25.14
828.0	25.18
828.2	24.84
828.4	23.65
828.6	22.86
828.8	22.43
829.0	22.64
829.2	22.27
829.4	22.62
829.6	22.57
829.8	22.51
830.0	22.21
830.2	22.11
830.4	21.62
830.6	21.53
830.8	20.99
831.0	20.65
831.2	19.68
831.4	19.73
831.6	19.10
831.8	19.26
832.0	19.86
832.2	20.25
832.4	20.26
832.6	20.07
832.8	19.25
833.0	18.97
833.2	19.18
833.4	18.08
833.6	17.82
833.8	17.30
834.0	16.77
834.2	17.20
834.4	17.52
834.6	16.82
834.8	16.53
835.0	16.60
835.2	17.07
835.4	17.42
835.6	17.60
835.8	16.92
836.0	16.01
836.2	15.81
836.4	15.69
836.6	15.29
836.8	15.46
837.0	15.30
837.2	14.95
837.4	15.20
837.6	14.93
837.8	14.48
838.0	14.37
838.2	14.62
838.4	14.25
838.6	13.91
838.8	13.88
839.0	13.33
839.2	13.60
839.4	13.65
839.6	12.97
839.8	12.53
840.0	11.98
840.2	11.86
840.4	12.50
840.6	12.62
840.8	12.69
841.0	12.64
841.2	12.38
841.4	12.54
841.6	12.89
841.8	12.71
842.0	12.81
842.2	11.89
842.4	11.53
842.6	11.11
842.8	10.95
843.0	11.16
843.2	11.44
843.4	11.36
843.6	11.25
843.8	11.43
844.0	11.14
844.2	10.99
844.4	10.61
844.6	10.88
844.8	10.63
845.0	10.74
845.2	9.924
845.4	9.304
845.6	9.050
845.8	9.453
846.0	9.578
846.2	9.722
