Sample:	'20211010A(EM)
File name:	r-c-dots 1;15 wei touxi.FDS
Run date:	'20:54:32, 03/21/2023
Operator:	Administrator
Comment:	'

Instrument
Model:	F-4700 FL Spectrophotometer
Serial number:	2019-001
ROM Version:	5J24010 00

Instrument parameters
Measurement type:	Wavelength scan
Scan mode:	Emission
Data mode:	Fluorescence
EX WL:	530.0 nm
EM  Start WL:	550.0 nm
EM  End WL:	900.0 nm
Scan speed:	1200 nm/min
Delay:	0.0 s
EX Slit:	10.0 nm
EM Slit:	10.0 nm
PMT Voltage:	800 V
Response:	0.002 s
Corrected spectra:	Off
Shutter control:	On

Processing performed
Savitsky-Golay smoothed
Smoothing order:	3
Number of points:	7
Number of times:	1

Peak integration
Integration method:	Rectangular
Sensitivity:	1
Threshold:	1.000

Peaks
No.	Start(nm)	Apex(nm)	End(nm)	Height(Data)	Valley(nm)	Valley(Data)
1	552.4	555.2	554.8	9.515	554.8	8.106
2	554.8	556.2	556.8	10.77	556.8	8.582
3	556.8	559.0	559.8	13.20	559.8	9.749
4	559.8	561.8	562.4	13.90	562.4	12.01
5	562.4	564.4	565.2	16.59	565.2	12.28
6	565.2	567.2	568.0	18.72	568.0	15.99
7	568.0	570.4	571.8	21.28	571.8	16.93
8	571.8	579.2	580.0	33.04	580.0	28.60
9	580.0	581.6	583.0	40.94	583.0	33.69
10	583.0	585.0	586.6	41.69	586.6	36.18
11	586.6	589.4	590.8	49.48	590.8	44.27
12	590.8	596.2	597.0	60.86	597.0	56.03
13	597.0	598.8	599.4	64.15	599.4	58.68
14	599.4	604.8	606.4	76.26	606.4	71.66
15	606.4	609.6	610.4	91.76	610.4	87.88
16	610.4	617.4	618.2	126.1	618.2	115.3
17	618.2	661.4	662.0	907.8	662.0	883.6
18	662.0	663.0	663.8	900.6	663.8	890.7
19	663.8	664.6	665.6	917.6	665.6	879.8
20	665.6	667.2	670.4	909.3	670.4	873.0
21	670.4	671.4	672.4	884.7	672.4	857.0
22	672.4	673.0	679.0	871.2	679.0	797.3
23	679.0	680.0	681.8	809.1	681.8	781.5
24	681.8	682.4	695.4	793.8	695.4	641.1
25	695.4	696.8	698.2	670.3	698.2	630.1
26	698.2	699.2	702.8	651.2	702.8	610.8
27	702.8	703.4	706.2	626.0	706.2	570.8
28	706.2	708.0	715.0	605.2	715.0	507.9
29	715.0	715.4	718.6	517.3	718.6	456.6
30	718.6	719.6	727.2	479.7	727.2	376.7
31	727.2	728.8	738.4	388.1	738.4	270.7
32	738.4	739.2	745.8	279.9	745.8	220.1
33	745.8	746.2	747.6	228.6	747.6	206.2
34	747.6	748.4	750.0	218.9	750.0	192.3
35	750.0	751.0	758.6	206.8	758.6	148.7
36	758.6	759.2	760.6	156.9	760.6	137.4
37	760.6	761.4	771.4	147.9	771.4	97.81
38	771.4	772.0	773.0	107.9	773.0	98.44
39	773.0	773.8	778.0	108.3	778.0	82.93
40	778.0	778.6	780.2	94.32	780.2	81.39
41	780.2	782.6	785.2	89.78	785.2	76.26
42	785.2	785.8	787.2	83.71	787.2	78.84
43	787.2	787.8	791.8	80.91	791.8	70.46
44	791.8	792.6	794.8	77.76	794.8	68.11
45	794.8	795.4	797.0	74.36	797.0	65.12
46	797.0	798.8	799.6	72.64	799.6	64.01
47	799.6	801.6	802.6	69.36	802.6	57.44
48	802.6	803.4	807.2	68.58	807.2	58.28
49	807.2	808.2	810.0	64.85	810.0	56.56
50	810.0	811.0	813.6	63.04	813.6	47.72
51	813.6	815.0	815.8	56.48	815.8	52.27
52	815.8	817.6	818.6	56.00	818.6	50.15
53	818.6	820.6	822.0	56.60	822.0	53.02
54	822.0	822.8	823.2	56.68	823.2	53.74
55	823.2	824.4	825.4	57.12	825.4	50.71
56	825.4	826.6	828.6	54.15	828.6	42.96
57	828.6	829.4	837.6	49.28	837.6	21.06
58	837.6	838.4	840.8	27.21	840.8	16.24
59	840.8	841.8	843.8	18.66	843.8	11.61
60	843.8	844.8	847.6	14.41	847.6	8.905
61	847.6	848.4	849.8	11.89	849.8	6.720
62	849.8	850.6	855.0	7.937	855.0	4.232
63	855.0	855.6	859.2	6.137	859.2	2.841
64	859.2	860.4	863.2	4.928	863.2	2.294
65	863.2	864.4	865.2	4.315	865.2	2.096
66	865.2	866.2	869.2	3.903	869.2	1.350
67	869.2	870.2	870.8	3.635	870.8	1.336
68	870.8	873.2	874.8	3.337	874.8	1.807
69	874.8	876.4	878.4	3.901	878.4	1.494
70	878.4	879.6	880.4	3.544	880.4	1.064
71	880.4	881.2	882.2	2.782	882.2	1.656
72	882.2	884.0	885.4	2.803	885.4	0.840
73	885.4	886.0	887.6	2.651	887.6	1.465
74	887.6	888.4	888.8	2.545	888.8	1.278
75	888.8	890.4	892.2	2.959	892.2	1.488
76	892.2	896.4	897.2	3.117	897.2	0.332

Data points
nm	Data
550.0	11.42
550.2	9.107
550.4	7.932
550.6	7.583
550.8	8.020
551.0	7.603
551.2	7.649
551.4	9.144
551.6	10.02
551.8	9.337
552.0	6.976
552.2	5.684
552.4	5.406
552.6	6.386
552.8	6.794
553.0	7.700
553.2	6.305
553.4	7.021
553.6	6.861
553.8	7.530
554.0	8.282
554.2	9.045
554.4	8.924
554.6	8.807
554.8	8.106
555.0	9.204
555.2	9.515
555.4	9.042
555.6	8.530
555.8	8.427
556.0	9.398
556.2	10.77
556.4	10.40
556.6	9.606
556.8	8.582
557.0	8.770
557.2	8.924
557.4	9.378
557.6	9.737
557.8	10.41
558.0	9.656
558.2	11.01
558.4	10.72
558.6	10.98
558.8	12.80
559.0	13.20
559.2	11.16
559.4	10.79
559.6	10.18
559.8	9.749
560.0	10.09
560.2	10.70
560.4	11.08
560.6	12.08
560.8	12.05
561.0	12.28
561.2	12.14
561.4	13.07
561.6	13.87
561.8	13.90
562.0	12.61
562.2	12.21
562.4	12.01
562.6	12.41
562.8	13.20
563.0	13.66
563.2	13.81
563.4	14.39
563.6	15.40
563.8	15.83
564.0	15.73
564.2	15.82
564.4	16.59
564.6	16.14
564.8	15.27
565.0	12.86
565.2	12.28
565.4	13.08
565.6	15.81
565.8	16.84
566.0	16.58
566.2	14.06
566.4	14.32
566.6	15.73
566.8	16.32
567.0	17.83
567.2	18.72
567.4	18.46
567.6	18.47
567.8	18.36
568.0	15.99
568.2	16.04
568.4	17.16
568.6	18.02
568.8	17.14
569.0	17.42
569.2	18.43
569.4	18.87
569.6	19.61
569.8	20.07
570.0	20.21
570.2	20.64
570.4	21.28
570.6	19.04
570.8	18.81
571.0	19.22
571.2	19.91
571.4	17.60
571.6	17.05
571.8	16.93
572.0	19.53
572.2	21.38
572.4	22.38
572.6	21.04
572.8	22.33
573.0	23.12
573.2	24.65
573.4	23.63
573.6	23.61
573.8	22.18
574.0	23.14
574.2	23.82
574.4	24.54
574.6	24.34
574.8	25.59
575.0	24.42
575.2	25.98
575.4	25.61
575.6	26.24
575.8	26.67
576.0	25.80
576.2	25.72
576.4	26.71
576.6	27.20
576.8	28.02
577.0	29.78
577.2	29.87
577.4	30.38
577.6	29.58
577.8	29.44
578.0	28.67
578.2	29.91
578.4	31.07
578.6	31.88
578.8	31.89
579.0	32.72
579.2	33.04
579.4	32.95
579.6	32.05
579.8	30.63
580.0	28.60
580.2	29.56
580.4	31.36
580.6	32.88
580.8	33.76
581.0	34.92
581.2	37.27
581.4	38.95
581.6	40.94
581.8	40.39
582.0	38.58
582.2	39.68
582.4	38.95
582.6	36.56
582.8	34.63
583.0	33.69
583.2	33.86
583.4	37.22
583.6	39.52
583.8	42.64
584.0	40.40
584.2	40.51
584.4	38.86
584.6	38.91
584.8	41.20
585.0	41.69
585.2	40.21
585.4	40.82
585.6	39.82
585.8	40.70
586.0	40.96
586.2	39.45
586.4	38.62
586.6	36.18
586.8	36.78
587.0	39.21
587.2	41.56
587.4	43.12
587.6	43.53
587.8	43.29
588.0	43.84
588.2	43.91
588.4	42.02
588.6	40.56
588.8	41.50
589.0	44.22
589.2	48.20
589.4	49.48
589.6	48.42
589.8	48.35
590.0	48.37
590.2	48.42
590.4	47.72
590.6	46.13
590.8	44.27
591.0	46.16
591.2	48.56
591.4	49.66
591.6	50.77
591.8	51.99
592.0	48.59
592.2	48.72
592.4	49.87
592.6	48.90
592.8	50.79
593.0	51.03
593.2	50.25
593.4	51.46
593.6	52.33
593.8	51.94
594.0	53.24
594.2	53.73
594.4	54.47
594.6	54.59
594.8	55.26
595.0	55.07
595.2	56.53
595.4	57.27
595.6	56.86
595.8	57.24
596.0	60.35
596.2	60.86
596.4	58.62
596.6	59.64
596.8	58.22
597.0	56.03
597.2	57.46
597.4	59.12
597.6	59.79
597.8	62.65
598.0	61.10
598.2	60.62
598.4	61.65
598.6	62.35
598.8	64.15
599.0	61.29
599.2	58.74
599.4	58.68
599.6	58.68
599.8	59.78
600.0	60.18
600.2	60.02
600.4	64.14
600.6	67.14
600.8	67.63
601.0	66.21
601.2	63.54
601.4	61.09
601.6	63.66
601.8	67.20
602.0	67.78
602.2	68.49
602.4	67.37
602.6	65.38
602.8	64.96
603.0	67.35
603.2	69.75
603.4	71.61
603.6	69.11
603.8	66.91
604.0	68.31
604.2	72.78
604.4	74.83
604.6	75.98
604.8	76.26
605.0	73.30
605.2	74.93
605.4	74.27
605.6	74.17
605.8	72.19
606.0	73.39
606.2	72.50
606.4	71.66
606.6	72.18
606.8	75.64
607.0	76.02
607.2	79.53
607.4	81.24
607.6	80.32
607.8	82.11
608.0	80.91
608.2	81.78
608.4	83.13
608.6	84.82
608.8	85.67
609.0	87.67
609.2	87.00
609.4	90.10
609.6	91.76
609.8	91.42
610.0	90.31
610.2	88.19
610.4	87.88
610.6	89.42
610.8	90.26
611.0	90.73
611.2	90.16
611.4	89.96
611.6	93.21
611.8	93.46
612.0	95.13
612.2	97.31
612.4	95.97
612.6	96.98
612.8	94.86
613.0	95.44
613.2	96.57
613.4	93.99
613.6	93.11
613.8	97.56
614.0	98.33
614.2	100.8
614.4	102.1
614.6	98.17
614.8	98.99
615.0	102.7
615.2	103.7
615.4	102.2
615.6	107.7
615.8	111.1
616.0	116.6
616.2	117.1
616.4	114.3
616.6	112.8
616.8	116.9
617.0	120.5
617.2	125.7
617.4	126.1
617.6	123.0
617.8	119.6
618.0	116.0
618.2	115.3
618.4	117.8
618.6	121.5
618.8	127.0
619.0	131.4
619.2	135.2
619.4	135.2
619.6	137.0
619.8	133.9
620.0	135.2
620.2	133.6
620.4	133.8
620.6	135.4
620.8	143.9
621.0	144.5
621.2	147.2
621.4	147.1
621.6	147.0
621.8	151.7
622.0	157.1
622.2	156.0
622.4	157.2
622.6	158.0
622.8	163.0
623.0	172.2
623.2	178.0
623.4	182.5
623.6	182.3
623.8	173.8
624.0	170.3
624.2	171.1
624.4	174.4
624.6	185.1
624.8	190.9
625.0	192.7
625.2	193.8
625.4	197.5
625.6	197.0
625.8	202.8
626.0	200.1
626.2	202.8
626.4	206.0
626.6	211.8
626.8	213.1
627.0	213.9
627.2	209.6
627.4	219.2
627.6	226.4
627.8	233.6
628.0	248.2
628.2	249.3
628.4	250.6
628.6	253.8
628.8	250.0
629.0	251.6
629.2	254.8
629.4	248.8
629.6	255.7
629.8	262.1
630.0	269.8
630.2	284.5
630.4	285.9
630.6	281.4
630.8	285.9
631.0	284.6
631.2	285.9
631.4	284.9
631.6	289.7
631.8	294.1
632.0	302.0
632.2	309.5
632.4	316.7
632.6	315.6
632.8	326.9
633.0	329.1
633.2	336.2
633.4	339.5
633.6	337.9
633.8	331.6
634.0	331.8
634.2	340.5
634.4	357.8
634.6	365.5
634.8	371.5
635.0	369.0
635.2	371.6
635.4	378.9
635.6	380.8
635.8	377.8
636.0	380.8
636.2	385.3
636.4	398.5
636.6	410.5
636.8	413.4
637.0	420.0
637.2	421.2
637.4	423.7
637.6	424.2
637.8	428.2
638.0	436.7
638.2	451.7
638.4	453.9
638.6	461.9
638.8	462.9
639.0	472.6
639.2	480.9
639.4	485.0
639.6	486.9
639.8	496.5
640.0	502.4
640.2	508.0
640.4	501.0
640.6	498.8
640.8	508.5
641.0	519.5
641.2	530.5
641.4	539.7
641.6	543.4
641.8	549.1
642.0	560.2
642.2	559.1
642.4	560.9
642.6	569.3
642.8	573.3
643.0	578.2
643.2	585.2
643.4	584.2
643.6	587.8
643.8	600.2
644.0	610.4
644.2	618.5
644.4	622.6
644.6	614.8
644.8	621.1
645.0	624.2
645.2	618.6
645.4	619.4
645.6	623.2
645.8	629.6
646.0	654.5
646.2	665.1
646.4	665.3
646.6	664.8
646.8	660.7
647.0	666.4
647.2	675.0
647.4	676.2
647.6	682.7
647.8	684.2
648.0	687.3
648.2	698.8
648.4	704.9
648.6	701.8
648.8	710.3
649.0	720.6
649.2	728.2
649.4	728.4
649.6	729.0
649.8	731.4
650.0	731.4
650.2	739.7
650.4	744.6
650.6	749.0
650.8	757.4
651.0	767.6
651.2	770.6
651.4	775.4
651.6	776.5
651.8	777.6
652.0	778.1
652.2	774.3
652.4	778.0
652.6	775.2
652.8	781.5
653.0	793.4
653.2	808.2
653.4	809.7
653.6	815.6
653.8	809.9
654.0	807.5
654.2	808.2
654.4	818.9
654.6	821.1
654.8	830.9
655.0	826.5
655.2	818.4
655.4	815.5
655.6	824.2
655.8	835.7
656.0	848.4
656.2	845.5
656.4	846.0
656.6	843.1
656.8	843.2
657.0	852.4
657.2	861.2
657.4	861.7
657.6	868.0
657.8	858.2
658.0	855.8
658.2	856.7
658.4	858.7
658.6	863.2
658.8	865.7
659.0	859.3
659.2	858.8
659.4	861.4
659.6	868.7
659.8	879.3
660.0	877.4
660.2	874.6
660.4	865.1
660.6	861.3
660.8	867.2
661.0	880.4
661.2	888.1
661.4	907.8
661.6	903.0
661.8	898.4
662.0	883.6
662.2	886.1
662.4	887.7
662.6	897.3
662.8	897.5
663.0	900.6
663.2	891.2
663.4	898.5
663.6	896.8
663.8	890.7
664.0	893.7
664.2	899.3
664.4	904.1
664.6	917.6
664.8	916.7
665.0	911.1
665.2	898.2
665.4	883.9
665.6	879.8
665.8	891.1
666.0	904.8
666.2	907.0
666.4	908.2
666.6	900.1
666.8	898.9
667.0	904.5
667.2	909.3
667.4	898.8
667.6	897.0
667.8	891.1
668.0	886.1
668.2	889.4
668.4	887.0
668.6	883.4
668.8	883.2
669.0	882.9
669.2	878.9
669.4	880.7
669.6	879.2
669.8	873.4
670.0	873.9
670.2	876.0
670.4	873.0
670.6	875.3
670.8	878.1
671.0	873.2
671.2	876.5
671.4	884.7
671.6	877.8
671.8	874.7
672.0	869.7
672.2	858.2
672.4	857.0
672.6	866.5
672.8	864.2
673.0	871.2
673.2	870.2
673.4	868.5
673.6	870.2
673.8	859.4
674.0	850.7
674.2	859.8
674.4	858.5
674.6	857.3
674.8	851.0
675.0	838.4
675.2	849.1
675.4	860.0
675.6	854.4
675.8	850.4
676.0	837.4
676.2	835.6
676.4	842.4
676.6	834.5
676.8	830.2
677.0	825.9
677.2	825.3
677.4	828.1
677.6	835.8
677.8	827.8
678.0	832.2
678.2	818.8
678.4	814.2
678.6	804.6
678.8	803.1
679.0	797.3
679.2	803.5
679.4	798.6
679.6	803.3
679.8	809.0
680.0	809.1
680.2	806.3
680.4	801.0
680.6	786.8
680.8	786.7
681.0	790.9
681.2	794.5
681.4	785.3
681.6	782.7
681.8	781.5
682.0	788.0
682.2	792.3
682.4	793.8
682.6	790.0
682.8	791.1
683.0	788.8
683.2	783.6
683.4	774.4
683.6	765.1
683.8	764.9
684.0	762.7
684.2	761.9
684.4	759.6
684.6	750.4
684.8	752.3
685.0	754.8
685.2	754.3
685.4	761.4
685.6	761.0
685.8	744.7
686.0	748.2
686.2	751.9
686.4	750.2
686.6	750.9
686.8	749.4
687.0	735.6
687.2	736.9
687.4	738.6
687.6	744.0
687.8	741.4
688.0	742.3
688.2	737.3
688.4	736.6
688.6	731.5
688.8	728.5
689.0	720.1
689.2	719.1
689.4	711.7
689.6	718.3
689.8	724.6
690.0	716.6
690.2	706.9
690.4	708.9
690.6	707.7
690.8	712.4
691.0	711.7
691.2	699.7
691.4	692.5
691.6	698.0
691.8	708.8
692.0	710.3
692.2	699.6
692.4	687.4
692.6	678.5
692.8	681.7
693.0	691.5
693.2	693.8
693.4	692.5
693.6	683.3
693.8	678.0
694.0	681.3
694.2	676.9
694.4	671.5
694.6	672.3
694.8	665.7
695.0	661.0
695.2	655.2
695.4	641.1
695.6	644.0
695.8	651.5
696.0	653.1
696.2	661.9
696.4	666.5
696.6	659.1
696.8	670.3
697.0	666.0
697.2	661.0
697.4	664.6
697.6	651.8
697.8	635.9
698.0	636.0
698.2	630.1
698.4	639.9
698.6	646.2
698.8	647.6
699.0	647.3
699.2	651.2
699.4	647.3
699.6	638.8
699.8	631.6
700.0	631.5
700.2	631.3
700.4	629.8
700.6	628.9
700.8	627.2
701.0	631.0
701.2	628.0
701.4	627.8
701.6	620.8
701.8	626.2
702.0	629.9
702.2	622.8
702.4	614.0
702.6	612.2
702.8	610.8
703.0	618.6
703.2	622.4
703.4	626.0
703.6	624.1
703.8	621.0
704.0	620.1
704.2	610.3
704.4	603.2
704.6	610.1
704.8	602.0
705.0	600.5
705.2	607.5
705.4	607.0
705.6	601.3
705.8	597.4
706.0	583.8
706.2	570.8
706.4	576.5
706.6	586.9
706.8	596.6
707.0	589.6
707.2	583.3
707.4	580.0
707.6	581.2
707.8	591.2
708.0	605.2
708.2	588.5
708.4	577.1
708.6	564.1
708.8	552.5
709.0	560.8
709.2	571.1
709.4	565.5
709.6	556.8
709.8	554.6
710.0	558.2
710.2	561.2
710.4	566.3
710.6	561.2
710.8	553.7
711.0	548.9
711.2	545.3
711.4	534.9
711.6	531.6
711.8	523.8
712.0	528.0
712.2	529.3
712.4	530.3
712.6	528.5
712.8	530.6
713.0	524.0
713.2	523.7
713.4	525.2
713.6	517.7
713.8	517.8
714.0	517.9
714.2	519.3
714.4	513.6
714.6	515.0
714.8	510.1
715.0	507.9
715.2	509.0
715.4	517.3
715.6	512.2
715.8	514.1
716.0	510.3
716.2	508.4
716.4	509.1
716.6	505.8
716.8	488.7
717.0	478.4
717.2	471.7
717.4	474.2
717.6	485.8
717.8	491.1
718.0	482.4
718.2	476.3
718.4	464.5
718.6	456.6
718.8	464.0
719.0	472.0
719.2	475.8
719.4	474.9
719.6	479.7
719.8	476.1
720.0	473.6
720.2	460.4
720.4	447.5
720.6	434.3
720.8	437.7
721.0	443.2
721.2	450.8
721.4	444.2
721.6	435.0
721.8	431.1
722.0	426.1
722.2	429.7
722.4	440.4
722.6	433.8
722.8	429.8
723.0	426.6
723.2	422.3
723.4	420.2
723.6	424.9
723.8	419.3
724.0	413.5
724.2	413.1
724.4	412.1
724.6	408.3
724.8	407.0
725.0	406.9
725.2	404.7
725.4	408.4
725.6	408.7
725.8	404.6
726.0	405.2
726.2	406.1
726.4	402.0
726.6	396.7
726.8	389.0
727.0	378.4
727.2	376.7
727.4	379.6
727.6	381.6
727.8	384.7
728.0	383.9
728.2	382.0
728.4	381.3
728.6	387.4
728.8	388.1
729.0	378.4
729.2	371.7
729.4	361.3
729.6	358.0
729.8	358.9
730.0	364.2
730.2	366.1
730.4	367.4
730.6	364.1
730.8	358.8
731.0	352.1
731.2	349.4
731.4	349.5
731.6	348.7
731.8	345.8
732.0	336.9
732.2	327.6
732.4	325.5
732.6	330.9
732.8	339.4
733.0	345.5
733.2	336.3
733.4	328.2
733.6	324.9
733.8	318.2
734.0	320.2
734.2	321.3
734.4	314.9
734.6	320.0
734.8	311.5
735.0	304.8
735.2	300.5
735.4	299.4
735.6	305.9
735.8	307.9
736.0	305.5
736.2	302.1
736.4	298.9
736.6	300.1
736.8	307.2
737.0	306.1
737.2	300.3
737.4	289.9
737.6	281.8
737.8	273.3
738.0	274.7
738.2	272.2
738.4	270.7
738.6	273.0
738.8	274.6
739.0	272.2
739.2	279.9
739.4	279.2
739.6	278.4
739.8	269.4
740.0	260.1
740.2	254.0
740.4	261.9
740.6	266.3
740.8	267.6
741.0	262.1
741.2	259.1
741.4	258.3
741.6	253.0
741.8	248.4
742.0	248.6
742.2	253.6
742.4	258.6
742.6	259.1
742.8	242.9
743.0	234.8
743.2	233.2
743.4	236.6
743.6	239.3
743.8	244.8
744.0	242.1
744.2	241.6
744.4	238.8
744.6	229.3
744.8	228.0
745.0	226.4
745.2	223.5
745.4	224.8
745.6	224.1
745.8	220.1
746.0	226.8
746.2	228.6
746.4	225.4
746.6	224.2
746.8	225.9
747.0	221.6
747.2	216.9
747.4	213.5
747.6	206.2
747.8	207.7
748.0	213.7
748.2	218.0
748.4	218.9
748.6	217.4
748.8	211.3
749.0	210.4
749.2	207.1
749.4	200.6
749.6	199.3
749.8	194.7
750.0	192.3
750.2	194.0
750.4	203.2
750.6	200.9
750.8	202.0
751.0	206.8
751.2	203.2
751.4	198.2
751.6	195.5
751.8	189.4
752.0	181.8
752.2	190.1
752.4	183.3
752.6	179.0
752.8	174.2
753.0	181.1
753.2	180.7
753.4	183.4
753.6	176.7
753.8	176.4
754.0	171.7
754.2	172.8
754.4	169.2
754.6	166.5
754.8	167.0
755.0	174.5
755.2	176.0
755.4	173.9
755.6	166.3
755.8	161.6
756.0	162.6
756.2	160.3
756.4	154.6
756.6	152.9
756.8	148.6
757.0	152.8
757.2	158.3
757.4	156.6
757.6	153.4
757.8	152.0
758.0	150.9
758.2	150.9
758.4	149.5
758.6	148.7
758.8	153.2
759.0	151.1
759.2	156.9
759.4	156.7
759.6	155.9
759.8	154.3
760.0	151.6
760.2	141.7
760.4	141.1
760.6	137.4
760.8	139.9
761.0	144.7
761.2	147.0
761.4	147.9
761.6	145.2
761.8	138.2
762.0	138.8
762.2	141.9
762.4	141.4
762.6	141.9
762.8	139.3
763.0	131.4
763.2	132.0
763.4	132.6
763.6	129.8
763.8	130.3
764.0	126.6
764.2	123.4
764.4	125.1
764.6	127.1
764.8	128.5
765.0	128.2
765.2	127.3
765.4	126.1
765.6	123.0
765.8	120.9
766.0	120.5
766.2	120.1
766.4	122.3
766.6	119.6
766.8	117.5
767.0	113.9
767.2	113.2
767.4	112.1
767.6	116.2
767.8	118.2
768.0	121.6
768.2	119.3
768.4	113.0
768.6	105.5
768.8	110.5
769.0	115.0
769.2	116.1
769.4	113.4
769.6	108.6
769.8	101.7
770.0	103.8
770.2	106.9
770.4	110.8
770.6	112.4
770.8	113.6
771.0	106.8
771.2	102.2
771.4	97.81
771.6	104.0
771.8	104.8
772.0	107.9
772.2	105.6
772.4	103.8
772.6	102.1
772.8	104.0
773.0	98.44
773.2	102.1
773.4	104.6
773.6	106.6
773.8	108.3
774.0	104.8
774.2	95.60
774.4	94.29
774.6	96.24
774.8	96.57
775.0	97.14
775.2	94.54
775.4	92.88
775.6	92.90
775.8	95.62
776.0	94.62
776.2	91.80
776.4	89.53
776.6	88.49
776.8	88.76
777.0	91.57
777.2	89.48
777.4	88.15
777.6	85.20
777.8	84.27
778.0	82.93
778.2	87.79
778.4	90.68
778.6	94.32
778.8	93.28
779.0	93.45
779.2	90.48
779.4	88.72
779.6	88.33
779.8	84.90
780.0	81.92
780.2	81.39
780.4	83.52
780.6	83.47
780.8	84.73
781.0	81.95
781.2	82.32
781.4	85.99
781.6	86.13
781.8	85.65
782.0	87.57
782.2	86.71
782.4	87.88
782.6	89.78
782.8	87.25
783.0	82.84
783.2	83.85
783.4	82.12
783.6	80.63
783.8	82.62
784.0	82.38
784.2	78.63
784.4	79.26
784.6	79.93
784.8	78.42
785.0	79.79
785.2	76.26
785.4	76.58
785.6	79.00
785.8	83.71
786.0	82.15
786.2	82.35
786.4	79.31
786.6	80.11
786.8	79.28
787.0	79.21
787.2	78.84
787.4	79.04
787.6	80.73
787.8	80.91
788.0	78.41
788.2	79.53
788.4	80.29
788.6	77.87
788.8	78.93
789.0	78.33
789.2	79.13
789.4	80.29
789.6	78.13
789.8	75.40
790.0	74.63
790.2	74.22
790.4	75.40
790.6	73.82
790.8	72.33
791.0	74.04
791.2	77.27
791.4	77.23
791.6	73.08
791.8	70.46
792.0	71.83
792.2	71.13
792.4	75.27
792.6	77.76
792.8	76.60
793.0	75.21
793.2	76.55
793.4	72.32
793.6	68.81
793.8	70.79
794.0	71.52
794.2	70.03
794.4	70.04
794.6	70.00
794.8	68.11
795.0	71.11
795.2	73.52
795.4	74.36
795.6	73.02
795.8	71.70
796.0	69.79
796.2	68.08
796.4	68.14
796.6	66.37
796.8	65.20
797.0	65.12
797.2	67.38
797.4	69.66
797.6	70.12
