Sample:	'20211010A(EM)
File name:	R-CDs 8 800uM.FDS
Run date:	'16:11:19, 06/09/2023
Operator:	Administrator
Comment:	'

Instrument
Model:	F-4700 FL Spectrophotometer
Serial number:	2019-001
ROM Version:	5J24010 00

Instrument parameters
Measurement type:	Wavelength scan
Scan mode:	Emission
Data mode:	Fluorescence
EX WL:	520.0 nm
EM  Start WL:	540.0 nm
EM  End WL:	800.0 nm
Scan speed:	1200 nm/min
Delay:	0.0 s
EX Slit:	10.0 nm
EM Slit:	10.0 nm
PMT Voltage:	615 V
Response:	0.002 s
Corrected spectra:	Off
Shutter control:	On

Processing performed
Savitsky-Golay smoothed
Smoothing order:	3
Number of points:	7
Number of times:	1

Peak integration
Integration method:	Rectangular
Sensitivity:	1
Threshold:	1.000

Peaks
No.	Start(nm)	Apex(nm)	End(nm)	Height(Data)	Valley(nm)	Valley(Data)
1	540.0	602.0	602.8	2086	602.8	2070
2	602.8	604.4	606.0	2101	606.0	2084
3	606.0	607.4	608.2	2096	608.2	2086
4	608.2	608.8	609.6	2104	609.6	2074
5	609.6	611.4	744.6	2089	744.6	83.00
6	744.6	745.6	758.2	86.45	758.2	52.71
7	758.2	759.0	767.6	54.50	767.6	37.51
8	767.6	768.4	769.4	39.51	769.4	35.71
9	769.4	770.2	771.2	38.20	771.2	32.34
10	771.2	772.2	774.6	35.65	774.6	30.33
11	774.6	775.8	783.4	31.76	783.4	22.65
12	783.4	784.4	786.2	25.56	786.2	21.39
13	786.2	787.6	789.4	23.38	789.4	20.73
14	789.4	790.2	792.6	22.92	792.6	20.00
15	792.6	793.8	795.6	21.28	795.6	17.77
16	795.6	796.6	799.0	20.10	799.0	16.48

Data points
nm	Data
540.0	205.9
540.2	210.0
540.4	212.0
540.6	212.8
540.8	212.8
541.0	214.1
541.2	217.2
541.4	217.6
541.6	220.1
541.8	223.6
542.0	225.3
542.2	225.1
542.4	228.1
542.6	229.6
542.8	233.5
543.0	238.7
543.2	237.6
543.4	237.0
543.6	235.9
543.8	235.4
544.0	236.8
544.2	241.0
544.4	242.7
544.6	249.0
544.8	246.4
545.0	247.4
545.2	246.9
545.4	250.6
545.6	254.5
545.8	261.2
546.0	263.0
546.2	265.6
546.4	268.1
546.6	267.0
546.8	268.7
547.0	273.4
547.2	274.8
547.4	275.0
547.6	277.0
547.8	275.0
548.0	278.3
548.2	284.7
548.4	287.1
548.6	286.6
548.8	287.5
549.0	289.2
549.2	291.9
549.4	294.7
549.6	297.5
549.8	295.0
550.0	296.6
550.2	302.2
550.4	309.3
550.6	310.4
550.8	311.1
551.0	310.8
551.2	313.5
551.4	319.3
551.6	325.6
551.8	327.6
552.0	328.6
552.2	333.5
552.4	337.2
552.6	340.7
552.8	343.3
553.0	345.5
553.2	349.6
553.4	353.1
553.6	358.5
553.8	363.3
554.0	368.3
554.2	372.6
554.4	377.9
554.6	378.7
554.8	381.7
555.0	382.3
555.2	387.3
555.4	390.4
555.6	399.7
555.8	408.9
556.0	415.6
556.2	421.0
556.4	422.9
556.6	422.9
556.8	427.3
557.0	432.7
557.2	436.7
557.4	442.1
557.6	444.4
557.8	452.5
558.0	456.9
558.2	466.3
558.4	472.6
558.6	476.6
558.8	482.6
559.0	491.6
559.2	497.4
559.4	508.6
559.6	511.2
559.8	512.8
560.0	515.2
560.2	524.7
560.4	535.2
560.6	550.2
560.8	553.5
561.0	562.2
561.2	567.1
561.4	575.6
561.6	580.7
561.8	592.8
562.0	599.9
562.2	611.8
562.4	619.7
562.6	627.0
562.8	627.7
563.0	638.2
563.2	648.0
563.4	657.1
563.6	662.7
563.8	668.4
564.0	669.9
564.2	681.7
564.4	691.4
564.6	705.1
564.8	715.8
565.0	724.1
565.2	736.8
565.4	748.6
565.6	760.4
565.8	777.0
566.0	786.2
566.2	791.4
566.4	796.6
566.6	799.8
566.8	809.2
567.0	824.1
567.2	837.1
567.4	845.6
567.6	853.8
567.8	868.4
568.0	881.7
568.2	898.5
568.4	916.1
568.6	919.2
568.8	929.6
569.0	946.3
569.2	960.1
569.4	972.3
569.6	985.6
569.8	988.2
570.0	999.5
570.2	1016
570.4	1031
570.6	1039
570.8	1050
571.0	1060
571.2	1074
571.4	1089
571.6	1110
571.8	1118
572.0	1131
572.2	1142
572.4	1146
572.6	1155
572.8	1166
573.0	1167
573.2	1180
573.4	1204
573.6	1218
573.8	1236
574.0	1248
574.2	1249
574.4	1261
574.6	1282
574.8	1297
575.0	1308
575.2	1317
575.4	1320
575.6	1332
575.8	1348
576.0	1361
576.2	1373
576.4	1387
576.6	1395
576.8	1401
577.0	1414
577.2	1414
577.4	1422
577.6	1445
577.8	1459
578.0	1471
578.2	1487
578.4	1487
578.6	1506
578.8	1528
579.0	1539
579.2	1541
579.4	1537
579.6	1537
579.8	1557
580.0	1576
580.2	1595
580.4	1600
580.6	1610
580.8	1617
581.0	1628
581.2	1632
581.4	1634
581.6	1635
581.8	1649
582.0	1656
582.2	1669
582.4	1677
582.6	1685
582.8	1695
583.0	1700
583.2	1707
583.4	1717
583.6	1717
583.8	1725
584.0	1723
584.2	1719
584.4	1732
584.6	1749
584.8	1757
585.0	1765
585.2	1761
585.4	1770
585.6	1788
585.8	1800
586.0	1807
586.2	1802
586.4	1790
586.6	1797
586.8	1803
587.0	1822
587.2	1833
587.4	1839
587.6	1838
587.8	1848
588.0	1848
588.2	1862
588.4	1866
588.6	1870
588.8	1873
589.0	1878
589.2	1877
589.4	1885
589.6	1894
589.8	1909
590.0	1910
590.2	1906
590.4	1902
590.6	1912
590.8	1925
591.0	1938
591.2	1941
591.4	1942
591.6	1942
591.8	1949
592.0	1956
592.2	1957
592.4	1952
592.6	1948
592.8	1947
593.0	1961
593.2	1971
593.4	1975
593.6	1975
593.8	1976
594.0	1983
594.2	1987
594.4	1983
594.6	1974
594.8	1977
595.0	1986
595.2	2002
595.4	2006
595.6	2013
595.8	2015
596.0	2023
596.2	2027
596.4	2030
596.6	2028
596.8	2034
597.0	2041
597.2	2045
597.4	2046
597.6	2045
597.8	2039
598.0	2038
598.2	2043
598.4	2040
598.6	2050
598.8	2056
599.0	2056
599.2	2061
599.4	2069
599.6	2064
599.8	2069
600.0	2072
600.2	2074
600.4	2082
600.6	2084
600.8	2086
601.0	2083
601.2	2081
601.4	2082
601.6	2080
601.8	2081
602.0	2086
602.2	2079
602.4	2083
602.6	2078
602.8	2070
603.0	2077
603.2	2085
603.4	2078
603.6	2083
603.8	2087
604.0	2085
604.2	2091
604.4	2101
604.6	2095
604.8	2093
605.0	2100
605.2	2094
605.4	2087
605.6	2091
605.8	2087
606.0	2084
606.2	2093
606.4	2091
606.6	2089
606.8	2089
607.0	2092
607.2	2090
607.4	2096
607.6	2090
607.8	2086
608.0	2086
608.2	2086
608.4	2087
608.6	2099
608.8	2104
609.0	2101
609.2	2097
609.4	2085
609.6	2074
609.8	2076
610.0	2078
610.2	2083
610.4	2081
610.6	2086
610.8	2084
611.0	2081
611.2	2083
611.4	2089
611.6	2080
611.8	2074
612.0	2075
612.2	2069
612.4	2072
612.6	2067
612.8	2056
613.0	2053
613.2	2058
613.4	2054
613.6	2052
613.8	2049
614.0	2046
614.2	2050
614.4	2052
614.6	2049
614.8	2047
615.0	2048
615.2	2054
615.4	2055
615.6	2050
615.8	2036
616.0	2031
616.2	2027
616.4	2031
616.6	2034
616.8	2032
617.0	2030
617.2	2027
617.4	2021
617.6	2014
617.8	2006
618.0	2005
618.2	2004
618.4	2001
618.6	2001
618.8	2006
619.0	2003
619.2	2004
619.4	2001
619.6	1993
619.8	1989
620.0	1981
620.2	1972
620.4	1966
620.6	1970
620.8	1968
621.0	1974
621.2	1970
621.4	1965
621.6	1960
621.8	1958
622.0	1951
622.2	1951
622.4	1948
622.6	1943
622.8	1947
623.0	1952
623.2	1955
623.4	1954
623.6	1945
623.8	1938
624.0	1935
624.2	1932
624.4	1930
624.6	1928
624.8	1917
625.0	1907
625.2	1897
625.4	1890
625.6	1887
625.8	1890
626.0	1890
626.2	1890
626.4	1884
626.6	1874
626.8	1864
627.0	1855
627.2	1849
627.4	1851
627.6	1851
627.8	1846
628.0	1842
628.2	1849
628.4	1848
628.6	1842
628.8	1838
629.0	1825
629.2	1817
629.4	1813
629.6	1807
629.8	1800
630.0	1806
630.2	1815
630.4	1818
630.6	1809
630.8	1798
631.0	1784
631.2	1777
631.4	1777
631.6	1772
631.8	1767
632.0	1766
632.2	1757
632.4	1753
632.6	1754
632.8	1752
633.0	1742
633.2	1727
633.4	1719
633.6	1717
633.8	1718
634.0	1718
634.2	1714
634.4	1703
634.6	1700
634.8	1699
635.0	1694
635.2	1684
635.4	1681
635.6	1677
635.8	1673
636.0	1671
636.2	1661
636.4	1649
636.6	1640
636.8	1632
637.0	1632
637.2	1635
637.4	1638
637.6	1637
637.8	1632
638.0	1620
638.2	1610
638.4	1604
638.6	1595
638.8	1583
639.0	1567
639.2	1558
639.4	1558
639.6	1569
639.8	1571
640.0	1572
640.2	1564
640.4	1547
640.6	1542
640.8	1537
641.0	1528
641.2	1520
641.4	1515
641.6	1509
641.8	1507
642.0	1501
642.2	1503
642.4	1496
642.6	1488
642.8	1485
643.0	1471
643.2	1463
643.4	1465
643.6	1466
643.8	1468
644.0	1462
644.2	1454
644.4	1448
644.6	1438
644.8	1428
645.0	1424
645.2	1415
645.4	1409
645.6	1408
645.8	1404
646.0	1396
646.2	1393
646.4	1392
646.6	1378
646.8	1369
647.0	1357
647.2	1346
647.4	1347
647.6	1353
647.8	1350
648.0	1350
648.2	1344
648.4	1336
648.6	1328
648.8	1325
649.0	1322
649.2	1318
649.4	1308
649.6	1297
649.8	1285
650.0	1282
650.2	1284
650.4	1280
650.6	1277
650.8	1275
651.0	1269
651.2	1257
651.4	1248
651.6	1239
651.8	1237
652.0	1237
652.2	1239
652.4	1234
652.6	1221
652.8	1213
653.0	1205
653.2	1203
653.4	1203
653.6	1194
653.8	1183
654.0	1180
654.2	1177
654.4	1172
654.6	1169
654.8	1157
655.0	1148
655.2	1141
655.4	1141
655.6	1136
655.8	1135
656.0	1133
656.2	1130
656.4	1121
656.6	1117
656.8	1102
657.0	1097
657.2	1097
657.4	1099
657.6	1100
657.8	1099
658.0	1090
658.2	1084
658.4	1073
658.6	1063
658.8	1055
659.0	1045
659.2	1041
659.4	1038
659.6	1032
659.8	1033
660.0	1033
660.2	1026
660.4	1022
660.6	1016
660.8	1009
661.0	1007
661.2	1001
661.4	999.4
661.6	993.0
661.8	984.5
662.0	974.8
662.2	966.9
662.4	965.4
662.6	972.7
662.8	973.6
663.0	968.1
663.2	960.8
663.4	952.9
663.6	941.4
663.8	936.1
664.0	927.7
664.2	916.8
664.4	917.1
664.6	919.8
664.8	913.6
665.0	909.2
665.2	896.4
665.4	884.1
665.6	877.8
665.8	880.1
666.0	882.0
666.2	877.6
666.4	873.2
666.6	872.2
666.8	866.6
667.0	870.5
667.2	868.4
667.4	855.0
667.6	847.3
667.8	840.3
668.0	836.3
668.2	834.6
668.4	831.0
668.6	822.4
668.8	818.6
669.0	817.6
669.2	813.9
669.4	809.9
669.6	809.2
669.8	800.4
670.0	793.9
670.2	786.9
670.4	780.2
670.6	778.7
670.8	775.8
671.0	768.0
671.2	763.8
671.4	760.5
671.6	761.3
671.8	764.2
672.0	757.8
672.2	753.3
672.4	752.3
672.6	750.4
672.8	747.6
673.0	747.6
673.2	736.5
673.4	729.2
673.6	728.4
673.8	727.8
674.0	726.9
674.2	719.9
674.4	709.5
674.6	699.2
674.8	697.4
675.0	697.3
675.2	700.0
675.4	698.1
675.6	691.5
675.8	675.9
676.0	670.2
676.2	663.5
676.4	664.3
676.6	667.3
676.8	662.7
677.0	653.7
677.2	650.8
677.4	644.9
677.6	643.6
677.8	643.2
678.0	639.5
678.2	634.2
678.4	626.7
678.6	625.1
678.8	624.3
679.0	620.9
679.2	617.7
679.4	613.4
679.6	608.6
679.8	608.3
680.0	607.7
680.2	604.6
680.4	603.3
680.6	598.4
680.8	592.3
681.0	588.1
681.2	584.6
681.4	584.4
681.6	583.5
681.8	581.1
682.0	575.7
682.2	571.2
682.4	565.7
682.6	557.9
682.8	550.0
683.0	547.8
683.2	545.4
683.4	548.0
683.6	551.4
683.8	548.4
684.0	539.5
684.2	534.1
684.4	529.7
684.6	528.3
684.8	529.0
685.0	527.7
685.2	520.9
685.4	514.7
685.6	508.3
685.8	505.7
686.0	508.0
686.2	508.0
686.4	506.6
686.6	498.4
686.8	492.2
687.0	489.1
687.2	488.8
687.4	489.4
687.6	486.0
687.8	480.3
688.0	478.3
688.2	479.4
688.4	477.6
688.6	474.3
688.8	469.0
689.0	463.2
689.2	464.0
689.4	468.1
689.6	465.4
689.8	460.6
690.0	460.6
690.2	457.4
690.4	457.7
690.6	455.1
690.8	446.3
691.0	438.6
691.2	438.4
691.4	435.7
691.6	435.9
691.8	431.8
692.0	430.0
692.2	428.5
692.4	426.6
692.6	421.9
692.8	415.9
693.0	408.9
693.2	410.6
693.4	412.9
693.6	410.4
693.8	408.6
694.0	405.1
694.2	405.2
694.4	404.4
694.6	401.2
694.8	401.0
695.0	401.1
695.2	398.9
695.4	398.3
695.6	397.9
695.8	393.1
696.0	389.9
696.2	389.5
696.4	386.0
696.6	383.2
696.8	384.1
697.0	380.8
697.2	377.8
697.4	378.5
697.6	375.3
697.8	373.4
698.0	367.6
698.2	363.0
698.4	360.0
698.6	356.4
698.8	353.5
699.0	357.2
699.2	355.5
699.4	356.4
699.6	354.6
699.8	352.2
700.0	349.2
700.2	349.0
700.4	349.1
700.6	349.5
700.8	347.2
701.0	342.3
701.2	337.1
701.4	333.9
701.6	331.4
701.8	331.8
702.0	330.6
702.2	330.9
702.4	329.4
702.6	330.4
702.8	325.2
703.0	323.3
703.2	320.2
703.4	319.6
703.6	317.8
703.8	320.1
704.0	316.5
704.2	314.4
704.4	312.8
704.6	309.9
704.8	309.6
705.0	311.0
705.2	309.3
705.4	309.6
705.6	307.5
705.8	301.7
706.0	297.2
706.2	294.8
706.4	294.5
706.6	295.8
706.8	294.1
707.0	289.0
707.2	286.4
707.4	284.8
707.6	287.6
707.8	290.6
708.0	289.8
708.2	284.2
708.4	282.2
708.6	274.7
708.8	272.0
709.0	270.6
709.2	273.2
709.4	273.5
709.6	275.8
709.8	272.8
710.0	268.7
710.2	263.5
710.4	260.9
710.6	258.8
710.8	258.5
711.0	260.5
711.2	260.9
711.4	260.9
711.6	253.5
711.8	250.5
712.0	245.8
712.2	243.9
712.4	244.8
712.6	246.6
712.8	246.3
713.0	250.0
713.2	247.7
713.4	245.8
713.6	241.3
713.8	237.1
714.0	235.3
714.2	234.8
714.4	234.7
714.6	235.6
714.8	234.2
715.0	231.8
715.2	229.4
715.4	228.1
715.6	225.9
715.8	223.6
716.0	221.1
716.2	219.1
716.4	218.0
716.6	219.3
716.8	216.2
717.0	216.2
717.2	212.8
717.4	211.8
717.6	210.7
717.8	207.8
718.0	204.7
718.2	203.4
718.4	205.5
718.6	208.3
718.8	209.8
719.0	205.7
719.2	204.7
719.4	200.1
719.6	200.4
719.8	198.8
720.0	198.5
720.2	193.6
720.4	194.9
720.6	191.3
720.8	188.8
721.0	185.3
721.2	187.1
721.4	185.5
721.6	186.5
721.8	185.2
722.0	184.3
722.2	180.1
722.4	179.1
722.6	177.3
722.8	175.0
723.0	174.6
723.2	175.5
723.4	174.2
723.6	173.8
723.8	170.0
724.0	167.2
724.2	164.0
724.4	162.6
724.6	163.5
724.8	166.8
725.0	164.7
725.2	166.3
725.4	163.7
725.6	161.6
725.8	160.5
726.0	158.7
726.2	154.9
726.4	155.6
726.6	154.3
726.8	153.4
727.0	153.4
727.2	151.5
727.4	149.6
727.6	149.9
727.8	150.5
728.0	149.8
728.2	150.9
728.4	149.8
728.6	148.4
728.8	146.0
729.0	144.9
729.2	143.1
729.4	142.5
729.6	141.6
729.8	140.2
730.0	139.8
730.2	141.2
730.4	141.6
730.6	142.5
730.8	142.0
731.0	137.7
731.2	134.7
731.4	132.5
731.6	131.9
731.8	132.7
732.0	135.1
732.2	134.1
732.4	132.1
732.6	128.1
732.8	126.6
733.0	125.5
733.2	126.6
733.4	126.8
733.6	126.2
733.8	126.0
734.0	126.4
734.2	126.0
734.4	124.1
734.6	120.8
734.8	117.4
735.0	116.4
735.2	115.2
735.4	117.3
735.6	117.6
735.8	115.3
736.0	113.9
736.2	113.0
736.4	110.7
736.6	112.0
736.8	110.2
737.0	107.5
737.2	108.8
737.4	111.0
737.6	111.3
737.8	112.8
738.0	109.4
738.2	106.1
738.4	105.5
738.6	105.4
738.8	102.3
739.0	101.8
739.2	100.2
739.4	100.4
739.6	101.5
739.8	102.7
740.0	100.6
740.2	99.69
740.4	97.44
740.6	96.60
740.8	95.85
741.0	96.19
741.2	96.01
741.4	94.92
741.6	92.41
741.8	91.86
742.0	91.06
742.2	91.41
742.4	91.66
742.6	91.27
742.8	90.53
743.0	90.67
743.2	89.81
743.4	90.02
743.6	90.26
743.8	89.70
744.0	88.43
744.2	85.56
744.4	84.67
744.6	83.00
744.8	83.75
745.0	85.17
745.2	85.45
745.4	85.82
745.6	86.45
745.8	84.44
746.0	82.65
746.2	79.86
746.4	76.83
746.6	77.52
746.8	76.66
747.0	78.62
747.2	78.97
747.4	76.85
747.6	75.71
747.8	75.26
748.0	74.61
748.2	75.88
748.4	73.95
748.6	72.04
748.8	71.10
749.0	70.32
749.2	71.07
749.4	70.49
749.6	69.99
749.8	71.52
750.0	71.54
750.2	70.49
750.4	69.98
750.6	69.90
750.8	70.11
751.0	70.09
751.2	67.64
751.4	65.55
751.6	64.98
751.8	65.79
752.0	65.43
752.2	64.93
752.4	63.10
752.6	62.79
752.8	63.09
753.0	63.31
753.2	62.76
753.4	62.56
753.6	61.12
753.8	61.30
754.0	61.59
754.2	61.73
754.4	61.11
754.6	61.26
754.8	60.22
755.0	60.66
755.2	61.10
755.4	59.99
755.6	58.33
755.8	55.82
756.0	54.43
756.2	53.76
756.4	55.82
756.6	56.10
756.8	56.59
757.0	55.79
757.2	55.03
757.4	54.18
757.6	53.76
757.8	53.00
758.0	52.76
758.2	52.71
758.4	53.12
758.6	54.13
758.8	54.38
759.0	54.50
759.2	54.23
759.4	53.80
759.6	54.15
759.8	53.98
760.0	53.42
760.2	51.65
760.4	50.07
760.6	48.82
760.8	48.94
761.0	49.77
761.2	50.63
761.4	49.83
761.6	49.06
761.8	47.51
762.0	46.62
762.2	46.56
762.4	46.79
762.6	46.98
762.8	47.64
763.0	46.89
763.2	45.67
763.4	44.24
763.6	43.98
763.8	44.93
764.0	45.11
764.2	44.93
764.4	44.75
764.6	43.55
764.8	43.44
765.0	42.96
765.2	41.80
765.4	41.69
765.6	42.95
765.8	42.10
766.0	42.26
766.2	41.30
766.4	39.80
766.6	40.47
766.8	40.76
767.0	40.08
767.2	40.36
767.4	38.97
767.6	37.51
767.8	37.78
768.0	37.62
768.2	38.38
768.4	39.51
768.6	39.41
768.8	38.53
769.0	38.19
769.2	36.36
769.4	35.71
769.6	35.92
769.8	36.52
770.0	36.74
770.2	38.20
770.4	37.27
770.6	36.66
770.8	34.75
771.0	33.81
771.2	32.34
771.4	33.57
771.6	34.63
771.8	35.63
772.0	35.33
772.2	35.65
772.4	34.58
772.6	34.61
772.8	32.83
773.0	31.89
773.2	31.01
773.4	30.93
773.6	31.70
773.8	32.83
774.0	32.12
774.2	32.19
774.4	30.91
774.6	30.33
774.8	30.55
775.0	30.86
775.2	31.17
775.4	31.66
775.6	31.45
775.8	31.76
776.0	30.84
776.2	29.96
776.4	29.46
776.6	29.77
776.8	30.61
777.0	30.46
777.2	29.75
777.4	29.33
777.6	29.87
777.8	29.60
778.0	29.46
778.2	28.84
778.4	28.34
778.6	29.01
778.8	29.68
779.0	29.21
779.2	28.39
779.4	28.35
779.6	27.82
779.8	28.11
780.0	27.41
780.2	26.64
780.4	25.84
780.6	25.81
780.8	25.82
781.0	25.91
781.2	26.44
781.4	26.08
781.6	26.10
781.8	26.59
782.0	26.25
782.2	25.50
782.4	25.13
782.6	24.19
782.8	23.55
783.0	23.78
783.2	23.64
783.4	22.65
783.6	22.88
783.8	24.11
784.0	24.26
784.2	25.20
784.4	25.56
784.6	23.89
784.8	23.68
785.0	23.62
785.2	23.62
785.4	23.86
785.6	23.43
785.8	22.38
786.0	22.19
786.2	21.39
786.4	22.03
786.6	21.93
786.8	21.65
787.0	22.20
787.2	22.93
787.4	23.18
787.6	23.38
787.8	23.05
788.0	22.41
788.2	22.70
788.4	22.31
788.6	21.81
788.8	21.37
789.0	20.96
789.2	20.77
789.4	20.73
789.6	21.23
789.8	21.59
790.0	22.70
790.2	22.92
790.4	22.42
790.6	21.71
790.8	21.86
791.0	21.73
791.2	22.48
791.4	21.85
791.6	21.35
791.8	20.78
792.0	20.52
792.2	20.25
792.4	20.04
792.6	20.00
792.8	20.79
793.0	20.76
793.2	21.13
793.4	20.81
793.6	20.80
793.8	21.28
794.0	21.15
794.2	20.40
794.4	20.56
794.6	20.80
794.8	21.15
795.0	20.68
795.2	19.29
795.4	18.31
795.6	17.77
795.8	18.08
796.0	18.43
796.2	19.18
796.4	19.79
796.6	20.10
796.8	18.99
797.0	17.86
797.2	17.62
797.4	17.90
797.6	18.16
797.8	17.94
798.0	17.70
798.2	17.37
798.4	17.39
798.6	17.43
798.8	17.26
799.0	16.48
799.2	16.71
799.4	17.64
799.6	18.72
799.8	19.48
800.0	19.45

