Sample:	'20211010A(EM)
File name:	R-CDs 1 100.FDS
Run date:	'15:38:40, 06/09/2023
Operator:	Administrator
Comment:	'

Instrument
Model:	F-4700 FL Spectrophotometer
Serial number:	2019-001
ROM Version:	5J24010 00

Instrument parameters
Measurement type:	Wavelength scan
Scan mode:	Emission
Data mode:	Fluorescence
EX WL:	520.0 nm
EM  Start WL:	540.0 nm
EM  End WL:	800.0 nm
Scan speed:	1200 nm/min
Delay:	0.0 s
EX Slit:	10.0 nm
EM Slit:	10.0 nm
PMT Voltage:	650 V
Response:	0.002 s
Corrected spectra:	Off
Shutter control:	On

Processing performed
Savitsky-Golay smoothed
Smoothing order:	3
Number of points:	7
Number of times:	1

Peak integration
Integration method:	Rectangular
Sensitivity:	1
Threshold:	1.000

Peaks
No.	Start(nm)	Apex(nm)	End(nm)	Height(Data)	Valley(nm)	Valley(Data)
1	540.0	593.0	594.6	2036	594.6	2016
2	594.6	596.6	597.2	2057	597.2	2030
3	597.2	600.0	601.0	2091	601.0	2042
4	601.0	601.8	602.6	2072	602.6	2055
5	602.6	604.0	604.8	2081	604.8	2048
6	604.8	605.8	607.2	2063	607.2	2036
7	607.2	607.8	611.4	2060	611.4	2005
8	611.4	612.4	712.4	2016	712.4	218.6
9	712.4	713.0	741.0	228.0	741.0	83.65
10	741.0	741.6	747.8	86.27	747.8	68.22
11	747.8	748.4	750.0	71.74	750.0	63.88
12	750.0	750.6	755.0	67.41	755.0	50.64
13	755.0	755.8	759.4	55.51	759.4	46.74
14	759.4	760.0	762.6	51.12	762.6	42.68
15	762.6	764.0	769.4	44.88	769.4	33.96
16	769.4	770.4	773.2	35.56	773.2	30.00
17	773.2	774.2	780.6	31.64	780.6	24.19
18	780.6	781.4	782.8	26.58	782.8	23.23
19	782.8	783.6	785.6	25.49	785.6	20.55
20	785.6	786.0	788.2	23.28	788.2	20.09
21	788.2	789.2	790.0	22.16	790.0	19.47
22	790.0	790.6	792.2	21.55	792.2	18.76
23	792.2	793.0	794.6	22.39	794.6	18.97
24	794.6	795.2	800.0	21.47	800.0	18.25

Data points
nm	Data
540.0	232.2
540.2	246.4
540.4	250.5
540.6	248.6
540.8	247.5
541.0	244.6
541.2	244.9
541.4	247.7
541.6	247.8
541.8	249.5
542.0	251.6
542.2	252.3
542.4	254.0
542.6	257.1
542.8	260.5
543.0	266.3
543.2	269.1
543.4	269.7
543.6	269.5
543.8	268.1
544.0	269.7
544.2	272.7
544.4	273.2
544.6	273.4
544.8	276.2
545.0	275.9
545.2	277.3
545.4	281.4
545.6	284.2
545.8	291.1
546.0	299.1
546.2	302.6
546.4	303.5
546.6	302.7
546.8	301.3
547.0	302.8
547.2	303.6
547.4	300.4
547.6	304.9
547.8	308.8
548.0	315.2
548.2	319.4
548.4	319.9
548.6	315.4
548.8	314.4
549.0	319.8
549.2	326.2
549.4	333.1
549.6	336.0
549.8	336.6
550.0	335.2
550.2	333.0
550.4	335.4
550.6	340.6
550.8	344.1
551.0	353.0
551.2	360.5
551.4	362.4
551.6	367.1
551.8	370.5
552.0	367.8
552.2	371.3
552.4	377.1
552.6	382.3
552.8	386.4
553.0	392.2
553.2	392.0
553.4	398.1
553.6	409.3
553.8	416.0
554.0	417.2
554.2	423.3
554.4	424.7
554.6	425.4
554.8	427.2
555.0	431.4
555.2	433.0
555.4	438.6
555.6	450.6
555.8	458.6
556.0	461.9
556.2	464.9
556.4	467.5
556.6	468.6
556.8	478.4
557.0	486.0
557.2	491.7
557.4	501.9
557.6	514.7
557.8	518.5
558.0	520.5
558.2	527.2
558.4	531.6
558.6	543.4
558.8	557.3
559.0	560.8
559.2	570.0
559.4	582.5
559.6	587.1
559.8	591.1
560.0	593.5
560.2	593.5
560.4	603.6
560.6	614.5
560.8	629.0
561.0	638.2
561.2	642.7
561.4	650.7
561.6	658.7
561.8	670.3
562.0	684.3
562.2	689.5
562.4	692.2
562.6	698.4
562.8	706.5
563.0	727.3
563.2	738.3
563.4	747.1
563.6	753.5
563.8	758.1
564.0	768.6
564.2	784.6
564.4	789.3
564.6	798.5
564.8	810.5
565.0	822.4
565.2	833.6
565.4	841.8
565.6	854.7
565.8	865.8
566.0	879.2
566.2	889.3
566.4	898.8
566.6	906.0
566.8	924.4
567.0	932.7
567.2	948.8
567.4	956.2
567.6	967.8
567.8	980.5
568.0	999.7
568.2	1014
568.4	1035
568.6	1044
568.8	1051
569.0	1059
569.2	1063
569.4	1072
569.6	1087
569.8	1104
570.0	1116
570.2	1132
570.4	1144
570.6	1156
570.8	1169
571.0	1185
571.2	1196
571.4	1215
571.6	1233
571.8	1242
572.0	1248
572.2	1257
572.4	1269
572.6	1284
572.8	1306
573.0	1324
573.2	1337
573.4	1349
573.6	1362
573.8	1369
574.0	1372
574.2	1381
574.4	1395
574.6	1410
574.8	1428
575.0	1435
575.2	1442
575.4	1455
575.6	1472
575.8	1488
576.0	1499
576.2	1511
576.4	1521
576.6	1529
576.8	1539
577.0	1555
577.2	1565
577.4	1584
577.6	1594
577.8	1605
578.0	1612
578.2	1628
578.4	1633
578.6	1649
578.8	1657
579.0	1659
579.2	1663
579.4	1678
579.6	1688
579.8	1700
580.0	1698
580.2	1694
580.4	1697
580.6	1712
580.8	1731
581.0	1734
581.2	1741
581.4	1744
581.6	1757
581.8	1777
582.0	1800
582.2	1798
582.4	1804
582.6	1792
582.8	1791
583.0	1797
583.2	1810
583.4	1827
583.6	1845
583.8	1854
584.0	1855
584.2	1848
584.4	1837
584.6	1844
584.8	1848
585.0	1869
585.2	1880
585.4	1887
585.6	1885
585.8	1885
586.0	1880
586.2	1887
586.4	1888
586.6	1895
586.8	1906
587.0	1908
587.2	1913
587.4	1924
587.6	1932
587.8	1943
588.0	1952
588.2	1949
588.4	1948
588.6	1953
588.8	1946
589.0	1945
589.2	1945
589.4	1948
589.6	1952
589.8	1969
590.0	1962
590.2	1965
590.4	1971
590.6	1980
590.8	1982
591.0	1992
591.2	1989
591.4	1993
591.6	1995
591.8	2000
592.0	2003
592.2	2002
592.4	2003
592.6	2011
592.8	2023
593.0	2036
593.2	2036
593.4	2028
593.6	2024
593.8	2024
594.0	2031
594.2	2030
594.4	2023
594.6	2016
594.8	2021
595.0	2028
595.2	2043
595.4	2046
595.6	2051
595.8	2047
596.0	2042
596.2	2048
596.4	2054
596.6	2057
596.8	2050
597.0	2039
597.2	2030
597.4	2038
597.6	2045
597.8	2054
598.0	2058
598.2	2053
598.4	2063
598.6	2066
598.8	2071
599.0	2061
599.2	2060
599.4	2062
599.6	2082
599.8	2085
600.0	2091
600.2	2071
600.4	2055
600.6	2051
600.8	2047
601.0	2042
601.2	2052
601.4	2056
601.6	2064
601.8	2072
602.0	2064
602.2	2057
602.4	2056
602.6	2055
602.8	2059
603.0	2057
603.2	2058
603.4	2063
603.6	2068
603.8	2073
604.0	2081
604.2	2068
604.4	2056
604.6	2052
604.8	2048
605.0	2048
605.2	2051
605.4	2057
605.6	2058
605.8	2063
606.0	2062
606.2	2062
606.4	2051
606.6	2050
606.8	2045
607.0	2039
607.2	2036
607.4	2050
607.6	2054
607.8	2060
608.0	2060
608.2	2039
608.4	2028
608.6	2030
608.8	2031
609.0	2033
609.2	2024
609.4	2020
609.6	2017
609.8	2019
610.0	2023
610.2	2019
610.4	2017
610.6	2023
610.8	2012
611.0	2007
611.2	2006
611.4	2005
611.6	2006
611.8	2010
612.0	2013
612.2	2012
612.4	2016
612.6	2014
612.8	2002
613.0	1988
613.2	1980
613.4	1972
613.6	1975
613.8	1989
614.0	1995
614.2	1986
614.4	1977
614.6	1972
614.8	1960
615.0	1967
615.2	1966
615.4	1958
615.6	1957
615.8	1958
616.0	1956
616.2	1962
616.4	1956
616.6	1948
616.8	1944
617.0	1939
617.2	1940
617.4	1941
617.6	1918
617.8	1907
618.0	1904
618.2	1912
618.4	1923
618.6	1926
618.8	1915
619.0	1910
619.2	1903
619.4	1907
619.6	1907
619.8	1903
620.0	1899
620.2	1898
620.4	1894
620.6	1896
620.8	1889
621.0	1882
621.2	1864
621.4	1868
621.6	1862
621.8	1857
622.0	1851
622.2	1833
622.4	1830
622.6	1837
622.8	1840
623.0	1844
623.2	1840
623.4	1827
623.6	1824
623.8	1818
624.0	1817
624.2	1812
624.4	1814
624.6	1810
624.8	1798
625.0	1796
625.2	1795
625.4	1788
625.6	1790
625.8	1783
626.0	1780
626.2	1777
626.4	1769
626.6	1768
626.8	1761
627.0	1751
627.2	1752
627.4	1745
627.6	1739
627.8	1736
628.0	1726
628.2	1724
628.4	1724
628.6	1725
628.8	1726
629.0	1723
629.2	1722
629.4	1717
629.6	1704
629.8	1688
630.0	1678
630.2	1687
630.4	1691
630.6	1686
630.8	1675
631.0	1666
631.2	1652
631.4	1656
631.6	1656
631.8	1653
632.0	1653
632.2	1644
632.4	1632
632.6	1634
632.8	1624
633.0	1616
633.2	1607
633.4	1595
633.6	1592
633.8	1589
634.0	1585
634.2	1592
634.4	1587
634.6	1584
634.8	1580
635.0	1567
635.2	1569
635.4	1566
635.6	1552
635.8	1546
636.0	1541
636.2	1530
636.4	1526
636.6	1514
636.8	1501
637.0	1505
637.2	1508
637.4	1507
637.6	1495
637.8	1479
638.0	1464
638.2	1464
638.4	1464
638.6	1477
638.8	1478
639.0	1475
639.2	1469
639.4	1460
639.6	1442
639.8	1435
640.0	1424
640.2	1414
640.4	1417
640.6	1426
640.8	1425
641.0	1417
641.2	1407
641.4	1404
641.6	1403
641.8	1406
642.0	1396
642.2	1383
642.4	1379
642.6	1372
642.8	1365
643.0	1351
643.2	1344
643.4	1341
643.6	1340
643.8	1332
644.0	1335
644.2	1331
644.4	1336
644.6	1332
644.8	1327
645.0	1314
645.2	1305
645.4	1294
645.6	1291
645.8	1283
646.0	1283
646.2	1274
646.4	1265
646.6	1246
646.8	1239
647.0	1239
647.2	1247
647.4	1248
647.6	1249
647.8	1240
648.0	1234
648.2	1232
648.4	1229
648.6	1217
648.8	1207
649.0	1193
649.2	1188
649.4	1184
649.6	1186
649.8	1183
650.0	1183
650.2	1174
650.4	1173
650.6	1167
650.8	1160
651.0	1153
651.2	1151
651.4	1144
651.6	1142
651.8	1143
652.0	1139
652.2	1138
652.4	1129
652.6	1123
652.8	1113
653.0	1111
653.2	1104
653.4	1100
653.6	1092
653.8	1084
654.0	1079
654.2	1074
654.4	1074
654.6	1075
654.8	1070
655.0	1068
655.2	1058
655.4	1045
655.6	1035
655.8	1035
656.0	1035
656.2	1038
656.4	1029
656.6	1024
656.8	1012
657.0	1010
657.2	1010
657.4	1004
657.6	995.5
657.8	989.3
658.0	984.9
658.2	983.5
658.4	982.4
658.6	978.6
658.8	962.1
659.0	952.8
659.2	944.4
659.4	940.2
659.6	935.7
659.8	937.9
660.0	929.0
660.2	934.5
660.4	927.0
660.6	921.6
660.8	916.4
661.0	912.7
661.2	909.0
661.4	909.1
661.6	902.2
661.8	896.2
662.0	888.9
662.2	880.1
662.4	880.8
662.6	878.0
662.8	875.7
663.0	877.4
663.2	868.5
663.4	857.9
663.6	850.3
663.8	844.7
664.0	845.2
664.2	850.6
664.4	851.4
664.6	843.9
664.8	831.0
665.0	815.9
665.2	811.4
665.4	809.3
665.6	812.5
665.8	810.6
666.0	800.3
666.2	791.6
666.4	792.5
666.6	791.9
666.8	790.5
667.0	787.7
667.2	783.8
667.4	781.6
667.6	773.8
667.8	765.6
668.0	758.2
668.2	747.5
668.4	746.5
668.6	749.0
668.8	742.8
669.0	739.3
669.2	736.0
669.4	727.6
669.6	722.9
669.8	720.4
670.0	717.5
670.2	711.7
670.4	710.4
670.6	708.7
670.8	711.5
671.0	709.4
671.2	705.7
671.4	694.7
671.6	686.7
671.8	679.3
672.0	682.7
672.2	681.2
672.4	679.7
672.6	674.8
672.8	670.2
673.0	661.9
673.2	659.4
673.4	653.3
673.6	648.5
673.8	647.9
674.0	648.5
674.2	644.7
674.4	648.0
674.6	645.7
674.8	634.6
675.0	631.8
675.2	624.7
675.4	618.7
675.6	618.7
675.8	615.2
676.0	610.0
676.2	612.1
676.4	607.9
676.6	607.7
676.8	606.8
677.0	594.0
677.2	593.3
677.4	590.7
677.6	584.0
677.8	583.4
678.0	578.6
678.2	573.7
678.4	575.5
678.6	572.6
678.8	566.5
679.0	562.9
679.2	559.3
679.4	565.6
679.6	561.9
679.8	562.3
680.0	556.3
680.2	552.5
680.4	547.8
680.6	546.2
680.8	535.8
681.0	529.0
681.2	521.9
681.4	517.8
681.6	521.7
681.8	524.0
682.0	516.9
682.2	508.5
682.4	501.0
682.6	501.2
682.8	509.0
683.0	508.8
683.2	506.9
683.4	496.6
683.6	489.8
683.8	489.0
684.0	486.6
684.2	483.5
684.4	484.6
684.6	478.5
684.8	475.0
685.0	471.6
685.2	471.0
685.4	468.7
685.6	468.3
685.8	464.1
686.0	454.7
686.2	452.2
686.4	447.7
686.6	445.6
686.8	449.8
687.0	447.8
687.2	448.5
687.4	445.6
687.6	437.8
687.8	433.5
688.0	434.8
688.2	433.8
688.4	437.5
688.6	430.8
688.8	428.6
689.0	424.6
689.2	424.3
689.4	421.8
689.6	420.7
689.8	412.5
690.0	410.6
690.2	409.5
690.4	405.0
690.6	402.1
690.8	400.4
691.0	393.7
691.2	392.6
691.4	394.9
691.6	392.0
691.8	395.3
692.0	391.9
692.2	386.5
692.4	383.7
692.6	381.2
692.8	375.1
693.0	375.6
693.2	374.6
693.4	372.6
693.6	374.6
693.8	376.4
694.0	370.6
694.2	369.4
694.4	367.2
694.6	361.0
694.8	362.1
695.0	363.1
695.2	360.7
695.4	362.3
695.6	360.3
695.8	356.0
696.0	355.3
696.2	349.1
696.4	346.2
696.6	342.8
696.8	337.5
697.0	336.0
697.2	334.9
697.4	333.7
697.6	338.5
697.8	337.0
698.0	333.3
698.2	331.4
698.4	325.1
698.6	323.4
698.8	324.2
699.0	323.7
699.2	327.8
699.4	327.7
699.6	321.5
699.8	317.4
700.0	313.0
700.2	311.3
700.4	313.9
700.6	311.0
700.8	307.3
701.0	304.8
701.2	304.7
701.4	305.9
701.6	306.6
701.8	304.5
702.0	303.4
702.2	303.3
702.4	302.9
702.6	300.6
702.8	299.0
703.0	294.7
703.2	288.7
703.4	283.8
703.6	282.0
703.8	281.8
704.0	284.3
704.2	285.9
704.4	281.1
704.6	274.1
704.8	271.2
705.0	272.0
705.2	273.1
705.4	269.9
705.6	264.6
705.8	264.0
706.0	267.0
706.2	270.8
706.4	269.5
706.6	265.4
706.8	259.7
707.0	263.7
707.2	266.4
707.4	265.4
707.6	262.8
707.8	258.7
708.0	253.5
708.2	256.3
708.4	257.1
708.6	256.1
708.8	255.7
709.0	248.7
709.2	246.3
709.4	243.8
709.6	242.9
709.8	241.1
710.0	241.7
710.2	239.1
710.4	238.6
710.6	236.3
710.8	234.0
711.0	229.9
711.2	228.3
711.4	228.2
711.6	226.6
711.8	226.2
712.0	223.3
712.2	219.4
712.4	218.6
712.6	222.8
712.8	226.8
713.0	228.0
713.2	224.4
713.4	219.3
713.6	217.9
713.8	217.0
714.0	217.9
714.2	216.6
714.4	211.8
714.6	208.4
714.8	207.5
715.0	209.3
715.2	207.9
715.4	206.3
715.6	202.3
715.8	198.3
716.0	193.6
716.2	194.6
716.4	195.7
716.6	196.4
716.8	196.3
717.0	195.2
717.2	190.2
717.4	186.1
717.6	186.4
717.8	184.4
718.0	184.8
718.2	186.8
718.4	184.9
718.6	183.4
718.8	182.2
719.0	181.8
719.2	181.6
719.4	180.4
719.6	178.0
719.8	174.5
720.0	175.0
720.2	176.4
720.4	174.8
720.6	172.5
720.8	172.2
721.0	170.4
721.2	171.5
721.4	169.8
721.6	166.7
721.8	163.7
722.0	164.7
722.2	164.9
722.4	164.4
722.6	163.5
722.8	163.0
723.0	162.2
723.2	162.6
723.4	162.3
723.6	159.7
723.8	157.7
724.0	154.0
724.2	152.6
724.4	151.1
724.6	153.9
724.8	154.1
725.0	154.7
725.2	150.8
725.4	150.0
725.6	144.8
725.8	143.3
726.0	141.0
726.2	140.5
726.4	142.1
726.6	145.3
726.8	144.2
727.0	141.8
727.2	138.7
727.4	136.9
727.6	136.4
727.8	135.0
728.0	134.6
728.2	132.0
728.4	130.6
728.6	132.1
728.8	132.0
729.0	130.4
729.2	130.0
729.4	128.9
729.6	128.0
729.8	129.4
730.0	129.8
730.2	127.6
730.4	127.8
730.6	125.5
730.8	124.2
731.0	124.6
731.2	124.5
731.4	123.0
731.6	123.5
731.8	121.2
732.0	122.4
732.2	122.5
732.4	122.8
732.6	122.4
732.8	120.0
733.0	115.6
733.2	113.5
733.4	111.2
733.6	111.2
733.8	111.0
734.0	109.9
734.2	108.9
734.4	109.3
734.6	108.1
734.8	106.2
735.0	104.3
735.2	102.9
735.4	105.5
735.6	106.6
735.8	104.4
736.0	101.0
736.2	101.1
736.4	101.1
736.6	102.6
736.8	101.8
737.0	101.4
737.2	99.81
737.4	100.1
737.6	100.0
737.8	97.51
738.0	95.43
738.2	96.25
738.4	98.16
738.6	98.43
738.8	99.45
739.0	96.93
739.2	94.20
739.4	91.73
739.6	92.68
739.8	90.84
740.0	93.54
740.2	93.38
740.4	93.29
740.6	91.27
740.8	88.17
741.0	83.65
741.2	83.83
741.4	83.83
741.6	86.27
741.8	85.67
742.0	84.59
742.2	84.37
742.4	85.05
742.6	84.24
742.8	84.64
743.0	82.86
743.2	80.61
743.4	78.87
743.6	78.95
743.8	78.30
744.0	78.98
744.2	81.09
744.4	81.81
744.6	79.49
744.8	77.32
745.0	73.82
745.2	73.65
745.4	74.45
745.6	75.65
745.8	75.62
746.0	74.64
746.2	73.20
746.4	74.64
746.6	73.31
746.8	72.63
747.0	71.02
747.2	69.55
747.4	68.22
747.6	68.48
747.8	68.22
748.0	70.40
748.2	70.87
748.4	71.74
748.6	71.60
748.8	69.35
749.0	67.93
749.2	65.28
749.4	64.28
749.6	64.30
749.8	64.35
750.0	63.88
750.2	65.78
750.4	66.25
750.6	67.41
750.8	66.93
751.0	65.20
751.2	63.10
751.4	62.10
751.6	62.28
751.8	62.94
752.0	62.09
752.2	63.68
752.4	63.96
752.6	62.89
752.8	61.85
753.0	61.18
753.2	59.24
753.4	60.41
753.6	60.35
753.8	57.50
754.0	58.17
754.2	57.81
754.4	56.67
754.6	55.46
754.8	52.53
755.0	50.64
755.2	51.85
755.4	53.72
755.6	55.50
755.8	55.51
756.0	54.84
756.2	54.41
756.4	53.54
756.6	52.41
756.8	51.95
757.0	51.88
757.2	52.33
757.4	52.01
757.6	51.24
757.8	49.70
758.0	49.64
758.2	49.62
758.4	49.85
758.6	49.40
758.8	48.65
759.0	47.79
759.2	47.59
759.4	46.74
759.6	48.47
759.8	49.61
760.0	51.12
760.2	50.66
760.4	49.87
760.6	47.37
760.8	45.44
761.0	45.12
761.2	43.95
761.4	43.66
761.6	44.70
761.8	45.59
762.0	44.87
762.2	45.47
762.4	43.55
762.6	42.68
762.8	42.84
763.0	43.73
763.2	43.03
763.4	43.71
763.6	44.07
763.8	44.14
764.0	44.88
764.2	43.86
764.4	41.72
764.6	41.59
764.8	41.18
765.0	41.13
765.2	41.41
765.4	41.58
765.6	41.09
765.8	41.85
766.0	41.24
766.2	40.32
766.4	39.49
766.6	38.45
766.8	37.98
767.0	37.39
767.2	36.50
767.4	36.57
767.6	36.41
767.8	36.26
768.0	37.25
768.2	36.30
768.4	35.91
768.6	35.65
768.8	34.09
769.0	35.04
769.2	35.09
769.4	33.96
769.6	34.73
769.8	34.63
770.0	34.28
770.2	35.15
770.4	35.56
770.6	33.36
770.8	33.51
771.0	33.02
771.2	31.81
771.4	31.40
771.6	32.59
771.8	32.10
772.0	32.28
772.2	32.74
772.4	31.50
772.6	30.31
772.8	31.20
773.0	30.59
773.2	30.00
773.4	30.56
773.6	30.12
773.8	30.28
774.0	31.51
774.2	31.64
774.4	30.65
774.6	30.95
774.8	30.22
775.0	29.37
775.2	28.90
775.4	28.77
775.6	28.82
775.8	29.36
776.0	29.53
776.2	28.92
776.4	29.14
776.6	28.54
776.8	29.14
777.0	28.14
777.2	27.99
777.4	28.05
777.6	27.87
777.8	27.96
778.0	28.69
778.2	27.53
778.4	27.22
778.6	27.37
778.8	26.81
779.0	27.39
779.2	28.04
779.4	27.48
779.6	27.39
779.8	26.97
780.0	26.54
780.2	25.72
780.4	24.75
780.6	24.19
780.8	24.46
781.0	24.82
781.2	26.14
781.4	26.58
781.6	26.07
781.8	25.38
782.0	24.65
782.2	23.46
782.4	23.26
782.6	23.62
782.8	23.23
783.0	24.28
783.2	25.27
783.4	25.28
783.6	25.49
783.8	25.47
784.0	24.03
784.2	24.36
784.4	24.33
784.6	24.26
784.8	24.34
785.0	23.06
785.2	21.79
785.4	21.34
785.6	20.55
785.8	21.66
786.0	23.28
786.2	22.72
786.4	22.48
786.6	21.84
786.8	21.90
787.0	22.13
787.2	23.15
787.4	22.37
787.6	21.99
787.8	20.86
788.0	21.23
788.2	20.09
788.4	20.68
788.6	20.35
788.8	20.85
789.0	21.48
789.2	22.16
789.4	21.71
789.6	20.91
789.8	19.57
790.0	19.47
790.2	20.48
790.4	21.07
790.6	21.55
790.8	20.94
791.0	20.87
791.2	20.71
791.4	19.80
791.6	19.59
791.8	19.66
792.0	18.98
792.2	18.76
792.4	19.66
792.6	19.81
792.8	21.53
793.0	22.39
793.2	22.32
793.4	20.84
793.6	21.10
793.8	20.39
794.0	20.22
794.2	19.38
794.4	19.12
794.6	18.97
794.8	20.43
795.0	20.97
795.2	21.47
795.4	20.55
795.6	20.57
795.8	20.21
796.0	19.84
796.2	19.27
796.4	20.28
796.6	20.08
796.8	20.18
797.0	19.70
797.2	19.73
797.4	19.67
797.6	20.20
797.8	20.17
798.0	19.23
798.2	18.77
798.4	18.90
798.6	19.03
798.8	18.32
799.0	18.44
799.2	18.30
799.4	18.63
799.6	19.17
799.8	19.21
800.0	18.25

