Sample:	'20211010A(EM)
File name:	R-CDs 5.FDS
Run date:	'15:58:33, 06/09/2023
Operator:	Administrator
Comment:	'

Instrument
Model:	F-4700 FL Spectrophotometer
Serial number:	2019-001
ROM Version:	5J24010 00

Instrument parameters
Measurement type:	Wavelength scan
Scan mode:	Emission
Data mode:	Fluorescence
EX WL:	520.0 nm
EM  Start WL:	540.0 nm
EM  End WL:	800.0 nm
Scan speed:	1200 nm/min
Delay:	0.0 s
EX Slit:	10.0 nm
EM Slit:	10.0 nm
PMT Voltage:	615 V
Response:	0.002 s
Corrected spectra:	Off
Shutter control:	On

Processing performed
Savitsky-Golay smoothed
Smoothing order:	3
Number of points:	7
Number of times:	1

Peak integration
Integration method:	Rectangular
Sensitivity:	1
Threshold:	1.000

Peaks
No.	Start(nm)	Apex(nm)	End(nm)	Height(Data)	Valley(nm)	Valley(Data)
1	540.0	605.2	606.2	9232	606.2	9159
2	606.2	606.8	764.8	9231	764.8	113.6
3	764.8	765.6	777.0	120.0	777.0	73.25
4	777.0	777.6	783.4	79.63	783.4	61.30
5	783.4	784.6	786.0	63.41	786.0	57.31
6	786.0	787.4	797.4	59.30	797.4	43.59
7	797.4	798.4	800.0	45.96	800.0	44.85

Data points
nm	Data
540.0	748.1
540.2	766.3
540.4	780.2
540.6	791.4
540.8	801.6
541.0	813.1
541.2	819.5
541.4	832.8
541.6	840.7
541.8	849.5
542.0	862.1
542.2	881.6
542.4	893.1
542.6	906.6
542.8	913.8
543.0	919.4
543.2	921.8
543.4	939.3
543.6	959.5
543.8	978.2
544.0	989.5
544.2	998.4
544.4	1003
544.6	1024
544.8	1041
545.0	1057
545.2	1062
545.4	1075
545.6	1089
545.8	1109
546.0	1126
546.2	1143
546.4	1155
546.6	1174
546.8	1184
547.0	1193
547.2	1211
547.4	1223
547.6	1240
547.8	1256
548.0	1268
548.2	1281
548.4	1297
548.6	1312
548.8	1331
549.0	1353
549.2	1374
549.4	1393
549.6	1405
549.8	1415
550.0	1430
550.2	1457
550.4	1485
550.6	1509
550.8	1523
551.0	1534
551.2	1555
551.4	1579
551.6	1597
551.8	1618
552.0	1635
552.2	1654
552.4	1679
552.6	1712
552.8	1735
553.0	1756
553.2	1768
553.4	1777
553.6	1787
553.8	1813
554.0	1841
554.2	1867
554.4	1899
554.6	1924
554.8	1945
555.0	1967
555.2	1992
555.4	2016
555.6	2042
555.8	2059
556.0	2078
556.2	2104
556.4	2131
556.6	2162
556.8	2192
557.0	2216
557.2	2239
557.4	2261
557.6	2276
557.8	2306
558.0	2333
558.2	2354
558.4	2376
558.6	2408
558.8	2443
559.0	2487
559.2	2516
559.4	2540
559.6	2573
559.8	2601
560.0	2633
560.2	2667
560.4	2699
560.6	2727
560.8	2765
561.0	2783
561.2	2808
561.4	2840
561.6	2873
561.8	2908
562.0	2943
562.2	2978
562.4	3007
562.6	3045
562.8	3072
563.0	3107
563.2	3139
563.4	3173
563.6	3198
563.8	3232
564.0	3270
564.2	3317
564.4	3350
564.6	3384
564.8	3415
565.0	3456
565.2	3504
565.4	3552
565.6	3580
565.8	3611
566.0	3644
566.2	3688
566.4	3727
566.6	3769
566.8	3808
567.0	3856
567.2	3900
567.4	3948
567.6	3986
567.8	4009
568.0	4035
568.2	4077
568.4	4120
568.6	4180
568.8	4221
569.0	4252
569.2	4278
569.4	4313
569.6	4348
569.8	4386
570.0	4426
570.2	4483
570.4	4523
570.6	4573
570.8	4608
571.0	4650
571.2	4702
571.4	4752
571.6	4791
571.8	4831
572.0	4874
572.2	4920
572.4	4953
572.6	4974
572.8	5009
573.0	5054
573.2	5108
573.4	5154
573.6	5200
573.8	5234
574.0	5270
574.2	5318
574.4	5358
574.6	5396
574.8	5445
575.0	5488
575.2	5537
575.4	5601
575.6	5643
575.8	5663
576.0	5704
576.2	5726
576.4	5780
576.6	5835
576.8	5881
577.0	5902
577.2	5949
577.4	5984
577.6	6028
577.8	6073
578.0	6119
578.2	6151
578.4	6207
578.6	6245
578.8	6275
579.0	6327
579.2	6365
579.4	6404
579.6	6452
579.8	6483
580.0	6528
580.2	6583
580.4	6604
580.6	6638
580.8	6665
581.0	6710
581.2	6768
581.4	6820
581.6	6854
581.8	6894
582.0	6935
582.2	6974
582.4	7011
582.6	7037
582.8	7058
583.0	7078
583.2	7121
583.4	7159
583.6	7223
583.8	7265
584.0	7287
584.2	7304
584.4	7320
584.6	7353
584.8	7397
585.0	7438
585.2	7487
585.4	7529
585.6	7561
585.8	7583
586.0	7598
586.2	7623
586.4	7663
586.6	7694
586.8	7726
587.0	7754
587.2	7807
587.4	7840
587.6	7866
587.8	7877
588.0	7882
588.2	7922
588.4	7958
588.6	7996
588.8	8013
589.0	8034
589.2	8052
589.4	8098
589.6	8127
589.8	8165
590.0	8190
590.2	8225
590.4	8255
590.6	8266
590.8	8286
591.0	8291
591.2	8312
591.4	8348
591.6	8370
591.8	8381
592.0	8414
592.2	8426
592.4	8452
592.6	8497
592.8	8528
593.0	8546
593.2	8562
593.4	8566
593.6	8584
593.8	8630
594.0	8653
594.2	8657
594.4	8667
594.6	8679
594.8	8708
595.0	8766
595.2	8789
595.4	8816
595.6	8830
595.8	8825
596.0	8812
596.2	8826
596.4	8820
596.6	8841
596.8	8868
597.0	8886
597.2	8891
597.4	8907
597.6	8930
597.8	8968
598.0	9016
598.2	9020
598.4	9021
598.6	9019
598.8	9019
599.0	9023
599.2	9050
599.4	9060
599.6	9069
599.8	9084
600.0	9076
600.2	9078
600.4	9090
600.6	9108
600.8	9105
601.0	9117
601.2	9137
601.4	9155
601.6	9163
601.8	9162
602.0	9143
602.2	9138
602.4	9149
602.6	9154
602.8	9173
603.0	9167
603.2	9163
603.4	9162
603.6	9165
603.8	9172
604.0	9203
604.2	9204
604.4	9214
604.6	9221
604.8	9215
605.0	9216
605.2	9232
605.4	9228
605.6	9213
605.8	9194
606.0	9171
606.2	9159
606.4	9183
606.6	9214
606.8	9231
607.0	9224
607.2	9214
607.4	9209
607.6	9208
607.8	9203
608.0	9198
608.2	9178
608.4	9175
608.6	9194
608.8	9194
609.0	9191
609.2	9176
609.4	9161
609.6	9155
609.8	9152
610.0	9154
610.2	9141
610.4	9127
610.6	9122
610.8	9124
611.0	9115
611.2	9104
611.4	9087
611.6	9081
611.8	9074
612.0	9070
612.2	9053
612.4	9038
612.6	9043
612.8	9033
613.0	9038
613.2	9031
613.4	9030
613.6	9020
613.8	9017
614.0	8996
614.2	8979
614.4	8947
614.6	8928
614.8	8899
615.0	8892
615.2	8891
615.4	8898
615.6	8896
615.8	8883
616.0	8855
616.2	8829
616.4	8805
616.6	8804
616.8	8794
617.0	8785
617.2	8772
617.4	8747
617.6	8721
617.8	8733
618.0	8722
618.2	8692
618.4	8685
618.6	8661
618.8	8634
619.0	8639
619.2	8614
619.4	8577
619.6	8574
619.8	8556
620.0	8522
620.2	8506
620.4	8487
620.6	8472
620.8	8469
621.0	8447
621.2	8423
621.4	8407
621.6	8367
621.8	8340
622.0	8317
622.2	8289
622.4	8287
622.6	8302
622.8	8270
623.0	8246
623.2	8215
623.4	8183
623.6	8155
623.8	8147
624.0	8113
624.2	8080
624.4	8057
624.6	8040
624.8	8023
625.0	8010
625.2	7985
625.4	7955
625.6	7918
625.8	7891
626.0	7866
626.2	7851
626.4	7827
626.6	7808
626.8	7786
627.0	7770
627.2	7747
627.4	7732
627.6	7725
627.8	7708
628.0	7679
628.2	7653
628.4	7613
628.6	7581
628.8	7566
629.0	7542
629.2	7521
629.4	7512
629.6	7483
629.8	7444
630.0	7408
630.2	7372
630.4	7354
630.6	7338
630.8	7315
631.0	7300
631.2	7276
631.4	7248
631.6	7213
631.8	7178
632.0	7154
632.2	7146
632.4	7112
632.6	7091
632.8	7063
633.0	7033
633.2	7002
633.4	6969
633.6	6936
633.8	6917
634.0	6901
634.2	6872
634.4	6858
634.6	6838
634.8	6817
635.0	6776
635.2	6736
635.4	6690
635.6	6665
635.8	6649
636.0	6627
636.2	6616
636.4	6606
636.6	6578
636.8	6549
637.0	6519
637.2	6483
637.4	6454
637.6	6420
637.8	6389
638.0	6371
638.2	6350
638.4	6342
638.6	6324
638.8	6307
639.0	6288
639.2	6259
639.4	6222
639.6	6187
639.8	6149
640.0	6120
640.2	6101
640.4	6073
640.6	6044
640.8	6019
641.0	5987
641.2	5961
641.4	5932
641.6	5906
641.8	5878
642.0	5873
642.2	5865
642.4	5856
642.6	5825
642.8	5799
643.0	5764
643.2	5745
643.4	5711
643.6	5674
643.8	5637
644.0	5615
644.2	5598
644.4	5591
644.6	5559
644.8	5515
645.0	5483
645.2	5450
645.4	5428
645.6	5417
645.8	5406
646.0	5379
646.2	5346
646.4	5310
646.6	5271
646.8	5248
647.0	5241
647.2	5219
647.4	5194
647.6	5176
647.8	5147
648.0	5136
648.2	5112
648.4	5073
648.6	5045
648.8	5024
649.0	4997
649.2	4989
649.4	4978
649.6	4944
649.8	4914
650.0	4887
650.2	4840
650.4	4825
650.6	4818
650.8	4798
651.0	4782
651.2	4751
651.4	4703
651.6	4677
651.8	4655
652.0	4640
652.2	4630
652.4	4603
652.6	4572
652.8	4556
653.0	4529
653.2	4508
653.4	4488
653.6	4460
653.8	4443
654.0	4435
654.2	4404
654.4	4382
654.6	4345
654.8	4310
655.0	4292
655.2	4270
655.4	4242
655.6	4228
655.8	4211
656.0	4190
656.2	4178
656.4	4157
656.6	4129
656.8	4109
657.0	4087
657.2	4046
657.4	4024
657.6	4003
657.8	3981
658.0	3974
658.2	3960
658.4	3918
658.6	3902
658.8	3890
659.0	3882
659.2	3871
659.4	3844
659.6	3812
659.8	3784
660.0	3766
660.2	3739
660.4	3712
660.6	3685
660.8	3674
661.0	3665
661.2	3645
661.4	3627
661.6	3602
661.8	3579
662.0	3566
662.2	3559
662.4	3535
662.6	3526
662.8	3498
663.0	3466
663.2	3443
663.4	3423
663.6	3407
663.8	3397
664.0	3394
664.2	3380
664.4	3359
664.6	3339
664.8	3317
665.0	3291
665.2	3262
665.4	3235
665.6	3207
665.8	3204
666.0	3204
666.2	3186
666.4	3161
666.6	3133
666.8	3097
667.0	3091
667.2	3080
667.4	3073
667.6	3062
667.8	3042
668.0	3018
668.2	3001
668.4	2975
668.6	2969
668.8	2946
669.0	2928
669.2	2920
669.4	2902
669.6	2884
669.8	2876
670.0	2858
670.2	2832
670.4	2815
670.6	2795
670.8	2781
671.0	2770
671.2	2761
671.4	2739
671.6	2720
671.8	2698
672.0	2679
672.2	2660
672.4	2641
672.6	2627
672.8	2617
673.0	2592
673.2	2577
673.4	2561
673.6	2546
673.8	2540
674.0	2532
674.2	2517
674.4	2502
674.6	2476
674.8	2460
675.0	2441
675.2	2431
675.4	2435
675.6	2428
675.8	2414
676.0	2397
676.2	2373
676.4	2351
676.6	2339
676.8	2314
677.0	2306
677.2	2298
677.4	2291
677.6	2289
677.8	2276
678.0	2256
678.2	2248
678.4	2225
678.6	2206
678.8	2192
679.0	2172
679.2	2167
679.4	2167
679.6	2155
679.8	2147
680.0	2132
680.2	2112
680.4	2089
680.6	2077
680.8	2063
681.0	2053
681.2	2047
681.4	2035
681.6	2012
681.8	2002
682.0	1987
682.2	1971
682.4	1961
682.6	1953
682.8	1941
683.0	1928
683.2	1918
683.4	1907
683.6	1894
683.8	1877
684.0	1862
684.2	1848
684.4	1833
684.6	1822
684.8	1810
685.0	1788
685.2	1773
685.4	1762
685.6	1753
685.8	1758
686.0	1756
686.2	1755
686.4	1741
686.6	1720
686.8	1704
687.0	1695
687.2	1678
687.4	1677
687.6	1675
687.8	1666
688.0	1650
688.2	1628
688.4	1606
688.6	1594
688.8	1589
689.0	1586
689.2	1585
689.4	1586
689.6	1578
689.8	1565
690.0	1550
690.2	1531
690.4	1511
690.6	1504
690.8	1499
691.0	1498
691.2	1502
691.4	1494
691.6	1475
691.8	1457
692.0	1448
692.2	1439
692.4	1434
692.6	1430
692.8	1423
693.0	1419
693.2	1410
693.4	1393
693.6	1379
693.8	1369
694.0	1361
694.2	1357
694.4	1343
694.6	1335
694.8	1329
695.0	1325
695.2	1327
695.4	1325
695.6	1314
695.8	1305
696.0	1291
696.2	1276
696.4	1271
696.6	1261
696.8	1254
697.0	1249
697.2	1243
697.4	1239
697.6	1244
697.8	1235
698.0	1229
698.2	1217
698.4	1199
698.6	1189
698.8	1186
699.0	1177
699.2	1169
699.4	1169
699.6	1166
699.8	1169
700.0	1170
700.2	1157
700.4	1132
700.6	1124
700.8	1119
701.0	1119
701.2	1119
701.4	1112
701.6	1100
701.8	1097
702.0	1090
702.2	1085
702.4	1078
702.6	1071
702.8	1072
703.0	1070
703.2	1060
703.4	1054
703.6	1042
703.8	1030
704.0	1031
704.2	1027
704.4	1024
704.6	1016
704.8	1007
705.0	998.0
705.2	995.9
705.4	986.0
705.6	975.6
705.8	963.5
706.0	961.7
706.2	962.0
706.4	963.0
706.6	956.6
706.8	944.7
707.0	933.6
707.2	925.5
707.4	918.3
707.6	915.2
707.8	915.4
708.0	911.8
708.2	910.1
708.4	907.0
708.6	895.3
708.8	888.4
709.0	885.7
709.2	878.1
709.4	876.1
709.6	872.1
709.8	864.9
710.0	865.6
710.2	858.2
710.4	852.1
710.6	847.9
710.8	844.1
711.0	834.9
711.2	831.1
711.4	822.1
711.6	819.0
711.8	812.2
712.0	806.9
712.2	793.5
712.4	788.6
712.6	790.8
712.8	788.2
713.0	780.2
713.2	773.2
713.4	764.8
713.6	765.7
713.8	766.2
714.0	760.2
714.2	756.8
714.4	748.9
714.6	738.1
714.8	733.1
715.0	727.0
715.2	720.6
715.4	719.2
715.6	712.5
715.8	707.2
716.0	707.2
716.2	706.2
716.4	701.7
716.6	701.6
716.8	693.0
717.0	684.9
717.2	678.7
717.4	671.6
717.6	664.2
717.8	660.6
718.0	656.0
718.2	653.4
718.4	652.6
718.6	648.7
718.8	641.1
719.0	636.0
719.2	634.1
719.4	630.4
719.6	631.0
719.8	626.2
720.0	621.6
720.2	615.1
720.4	612.1
720.6	606.2
720.8	603.8
721.0	601.2
721.2	593.7
721.4	583.5
721.6	578.7
721.8	574.5
722.0	572.7
722.2	573.6
722.4	572.3
722.6	567.6
722.8	556.2
723.0	546.7
723.2	539.6
723.4	536.2
723.6	536.5
723.8	536.4
724.0	529.6
724.2	526.1
724.4	524.5
724.6	524.5
724.8	516.8
725.0	512.6
725.2	503.8
725.4	500.1
725.6	501.1
725.8	503.2
726.0	496.3
726.2	490.8
726.4	480.2
726.6	477.3
726.8	477.1
727.0	476.2
727.2	473.4
727.4	470.4
727.6	462.7
727.8	460.8
728.0	457.5
728.2	451.5
728.4	450.1
728.6	450.2
728.8	445.0
729.0	442.4
729.2	438.5
729.4	433.8
729.6	434.7
729.8	433.3
730.0	427.3
730.2	421.0
730.4	416.7
730.6	413.9
730.8	412.8
731.0	408.8
731.2	407.4
731.4	404.1
731.6	400.2
731.8	394.7
732.0	389.1
732.2	383.5
732.4	382.6
732.6	380.7
732.8	379.7
733.0	378.0
733.2	376.5
733.4	375.4
733.6	373.3
733.8	369.2
734.0	369.4
734.2	366.3
734.4	363.7
734.6	359.9
734.8	351.8
735.0	346.3
735.2	340.8
735.4	337.7
735.6	339.6
735.8	340.3
736.0	341.3
736.2	340.0
736.4	334.3
736.6	330.1
736.8	328.2
737.0	324.8
737.2	322.9
737.4	320.4
737.6	319.9
737.8	316.2
738.0	314.5
738.2	311.0
738.4	308.2
738.6	306.6
738.8	308.9
739.0	305.6
739.2	302.0
739.4	298.9
739.6	297.4
739.8	293.5
740.0	293.2
740.2	291.1
740.4	289.9
740.6	290.1
740.8	288.6
741.0	284.6
741.2	280.3
741.4	278.8
741.6	276.4
741.8	274.6
742.0	272.4
742.2	267.3
742.4	264.3
742.6	264.3
742.8	263.0
743.0	265.5
743.2	266.2
743.4	261.2
743.6	258.1
743.8	253.7
744.0	251.1
744.2	253.7
744.4	254.0
744.6	253.2
744.8	251.7
745.0	246.6
745.2	240.3
745.4	237.9
745.6	234.1
745.8	232.9
746.0	233.1
746.2	232.8
746.4	232.1
746.6	235.8
746.8	234.4
747.0	230.8
747.2	225.0
747.4	218.4
747.6	213.9
747.8	211.6
748.0	211.1
748.2	210.7
748.4	211.8
748.6	210.8
748.8	212.5
749.0	210.7
749.2	208.6
749.4	205.7
749.6	204.3
749.8	198.0
750.0	196.2
750.2	195.0
750.4	196.0
750.6	195.6
750.8	195.0
751.0	191.3
751.2	190.4
751.4	190.4
751.6	192.8
751.8	190.7
752.0	186.6
752.2	185.0
752.4	185.5
752.6	185.5
752.8	186.7
753.0	184.8
753.2	182.1
753.4	178.5
753.6	178.5
753.8	176.7
754.0	175.3
754.2	173.1
754.4	172.2
754.6	169.3
754.8	169.7
755.0	168.2
755.2	165.3
755.4	163.1
755.6	161.4
755.8	160.9
756.0	160.8
756.2	161.0
756.4	157.9
756.6	157.7
756.8	158.4
757.0	158.8
757.2	157.7
757.4	157.7
757.6	155.1
757.8	155.5
758.0	153.4
758.2	151.4
758.4	149.7
758.6	148.9
758.8	147.9
759.0	147.1
759.2	144.9
759.4	144.9
759.6	144.6
759.8	145.3
760.0	144.2
760.2	141.6
760.4	138.9
760.6	134.9
760.8	132.6
761.0	134.0
761.2	132.4
761.4	133.0
761.6	133.2
761.8	131.9
762.0	132.2
762.2	131.6
762.4	129.8
762.6	129.7
762.8	128.9
763.0	126.7
763.2	123.6
763.4	121.8
763.6	120.1
763.8	119.5
764.0	121.5
764.2	119.4
764.4	117.5
764.6	116.3
764.8	113.6
765.0	114.3
765.2	115.9
765.4	117.8
765.6	120.0
765.8	119.5
766.0	116.8
766.2	115.2
766.4	110.9
766.6	109.6
766.8	107.6
767.0	106.2
767.2	105.3
767.4	105.7
767.6	105.2
767.8	105.1
768.0	102.7
768.2	102.2
768.4	102.9
768.6	102.9
768.8	101.9
769.0	102.1
769.2	99.82
769.4	99.24
769.6	99.76
769.8	99.78
770.0	98.73
770.2	97.03
770.4	95.69
770.6	94.14
770.8	92.02
771.0	91.45
771.2	92.14
771.4	90.75
771.6	91.77
771.8	91.23
772.0	89.23
772.2	87.83
772.4	87.48
772.6	86.20
772.8	85.84
773.0	85.51
773.2	85.51
773.4	85.61
773.6	84.91
773.8	84.59
774.0	83.30
774.2	82.15
774.4	82.53
774.6	84.43
774.8	83.28
775.0	83.60
775.2	82.53
775.4	79.99
775.6	80.61
775.8	80.49
776.0	79.74
776.2	79.29
776.4	76.99
776.6	73.90
776.8	73.43
777.0	73.25
777.2	76.39
777.4	78.08
777.6	79.63
777.8	79.03
778.0	75.82
778.2	73.30
778.4	71.31
778.6	70.71
778.8	71.18
779.0	72.27
779.2	71.67
779.4	72.01
779.6	70.26
779.8	69.22
780.0	67.25
780.2	67.41
780.4	68.15
780.6	69.51
780.8	69.70
781.0	69.21
781.2	67.57
781.4	65.91
781.6	65.89
781.8	64.09
782.0	65.49
782.2	66.17
782.4	66.21
782.6	65.14
782.8	64.91
783.0	61.50
783.2	61.71
783.4	61.30
783.6	61.36
783.8	61.91
784.0	62.83
784.2	62.99
784.4	63.28
784.6	63.41
784.8	62.20
785.0	61.22
785.2	60.83
785.4	59.38
785.6	58.14
785.8	58.10
786.0	57.31
786.2	57.75
786.4	58.43
786.6	57.80
786.8	57.88
787.0	57.78
787.2	57.99
787.4	59.30
787.6	58.62
787.8	58.04
788.0	57.45
788.2	55.59
788.4	55.47
788.6	56.44
788.8	55.07
789.0	54.98
789.2	54.96
789.4	55.33
789.6	55.41
789.8	55.92
790.0	54.65
790.2	54.03
790.4	52.76
790.6	53.12
790.8	51.85
791.0	51.93
791.2	52.39
791.4	52.13
791.6	51.36
791.8	51.35
792.0	51.24
792.2	51.40
792.4	51.91
792.6	50.73
792.8	49.96
793.0	50.38
793.2	50.90
793.4	50.56
793.6	50.81
793.8	49.24
794.0	48.26
794.2	48.29
794.4	48.42
794.6	48.54
794.8	49.21
795.0	48.39
795.2	48.22
795.4	48.19
795.6	49.15
795.8	48.49
796.0	48.88
796.2	47.69
796.4	47.65
796.6	46.24
796.8	46.28
797.0	43.95
797.2	44.75
797.4	43.59
797.6	44.93
797.8	44.29
798.0	45.25
798.2	45.37
798.4	45.96
798.6	44.72
798.8	45.01
799.0	44.13
799.2	44.36
799.4	44.09
799.6	43.37
799.8	43.38
800.0	44.85

