Sample:	'20211010A(EM)
File name:	R-CDs 2 200uM.FDS
Run date:	'15:44:45, 06/09/2023
Operator:	Administrator
Comment:	'

Instrument
Model:	F-4700 FL Spectrophotometer
Serial number:	2019-001
ROM Version:	5J24010 00

Instrument parameters
Measurement type:	Wavelength scan
Scan mode:	Emission
Data mode:	Fluorescence
EX WL:	520.0 nm
EM  Start WL:	540.0 nm
EM  End WL:	800.0 nm
Scan speed:	1200 nm/min
Delay:	0.0 s
EX Slit:	10.0 nm
EM Slit:	10.0 nm
PMT Voltage:	650 V
Response:	0.002 s
Corrected spectra:	Off
Shutter control:	On

Processing performed
Savitsky-Golay smoothed
Smoothing order:	3
Number of points:	7
Number of times:	1

Peak integration
Integration method:	Rectangular
Sensitivity:	1
Threshold:	1.000

Peaks
No.	Start(nm)	Apex(nm)	End(nm)	Height(Data)	Valley(nm)	Valley(Data)
1	540.0	586.6	587.4	2445	587.4	2431
2	587.4	590.8	592.0	2504	592.0	2482
3	592.0	593.2	594.0	2509	594.0	2488
4	594.0	594.4	596.0	2510	596.0	2494
5	596.0	597.2	597.8	2529	597.8	2493
6	597.8	600.0	602.2	2526	602.2	2476
7	602.2	603.6	737.4	2496	737.4	105.8
8	737.4	737.8	744.4	110.0	744.4	83.14
9	744.4	745.2	753.8	88.11	753.8	62.60
10	753.8	754.8	757.6	65.36	757.6	55.13
11	757.6	758.8	760.6	57.74	760.6	48.61
12	760.6	761.2	764.6	52.75	764.6	42.81
13	764.6	765.2	767.2	46.07	767.2	40.81
14	767.2	767.6	771.8	42.54	771.8	33.15
15	771.8	773.6	777.6	37.60	777.6	29.05
16	777.6	778.2	778.8	31.91	778.8	28.54
17	778.8	780.0	781.6	31.98	781.6	26.35
18	781.6	782.4	786.6	28.60	786.6	21.53
19	786.6	788.4	791.4	26.76	791.4	21.72
20	791.4	793.4	794.2	23.73	794.2	20.92
21	794.2	795.2	795.8	22.64	795.8	20.67
22	795.8	798.0	800.0	22.21	800.0	19.46

Data points
nm	Data
540.0	254.6
540.2	261.7
540.4	261.7
540.6	258.1
540.8	254.3
541.0	253.8
541.2	260.9
541.4	266.2
541.6	265.8
541.8	267.8
542.0	269.5
542.2	264.3
542.4	269.0
542.6	276.5
542.8	278.9
543.0	282.9
543.2	287.9
543.4	281.8
543.6	284.1
543.8	283.8
544.0	290.3
544.2	294.8
544.4	299.5
544.6	298.3
544.8	301.0
545.0	300.1
545.2	306.3
545.4	311.1
545.6	316.8
545.8	318.7
546.0	318.6
546.2	321.4
546.4	321.2
546.6	321.5
546.8	325.5
547.0	326.5
547.2	325.7
547.4	327.5
547.6	329.5
547.8	334.0
548.0	342.1
548.2	348.3
548.4	353.7
548.6	352.6
548.8	351.8
549.0	352.5
549.2	355.3
549.4	359.9
549.6	367.0
549.8	369.9
550.0	373.6
550.2	375.2
550.4	372.8
550.6	374.4
550.8	378.9
551.0	385.8
551.2	389.9
551.4	396.7
551.6	402.4
551.8	409.9
552.0	416.5
552.2	419.6
552.4	415.7
552.6	419.8
552.8	426.8
553.0	439.9
553.2	449.9
553.4	459.0
553.6	462.4
553.8	467.4
554.0	470.4
554.2	475.6
554.4	477.2
554.6	483.3
554.8	490.3
555.0	500.6
555.2	508.6
555.4	518.1
555.6	525.3
555.8	535.6
556.0	542.2
556.2	547.8
556.4	554.9
556.6	560.6
556.8	566.9
557.0	575.6
557.2	587.1
557.4	597.4
557.6	611.1
557.8	617.4
558.0	623.0
558.2	627.6
558.4	639.3
558.6	654.4
558.8	669.9
559.0	681.0
559.2	686.9
559.4	693.8
559.6	698.9
559.8	711.3
560.0	724.1
560.2	741.8
560.4	755.8
560.6	768.2
560.8	779.6
561.0	788.2
561.2	799.5
561.4	821.1
561.6	834.4
561.8	842.0
562.0	851.8
562.2	859.4
562.4	873.7
562.6	894.0
562.8	909.8
563.0	923.6
563.2	936.3
563.4	949.4
563.6	959.3
563.8	974.5
564.0	991.2
564.2	1006
564.4	1020
564.6	1029
564.8	1040
565.0	1063
565.2	1088
565.4	1109
565.6	1121
565.8	1125
566.0	1135
566.2	1154
566.4	1169
566.6	1180
566.8	1191
567.0	1208
567.2	1229
567.4	1254
567.6	1268
567.8	1280
568.0	1295
568.2	1316
568.4	1333
568.6	1345
568.8	1361
569.0	1368
569.2	1383
569.4	1417
569.6	1435
569.8	1453
570.0	1479
570.2	1492
570.4	1507
570.6	1534
570.8	1547
571.0	1564
571.2	1583
571.4	1602
571.6	1611
571.8	1630
572.0	1649
572.2	1668
572.4	1689
572.6	1708
572.8	1721
573.0	1740
573.2	1755
573.4	1775
573.6	1794
573.8	1813
574.0	1826
574.2	1854
574.4	1874
574.6	1888
574.8	1907
575.0	1916
575.2	1918
575.4	1931
575.6	1947
575.8	1962
576.0	1997
576.2	2030
576.4	2045
576.6	2052
576.8	2053
577.0	2053
577.2	2056
577.4	2074
577.6	2084
577.8	2106
578.0	2122
578.2	2141
578.4	2155
578.6	2164
578.8	2164
579.0	2177
579.2	2184
579.4	2194
579.6	2212
579.8	2219
580.0	2238
580.2	2255
580.4	2264
580.6	2271
580.8	2279
581.0	2288
581.2	2307
581.4	2312
581.6	2313
581.8	2317
582.0	2322
582.2	2317
582.4	2327
582.6	2345
582.8	2355
583.0	2360
583.2	2369
583.4	2360
583.6	2353
583.8	2363
584.0	2373
584.2	2378
584.4	2405
584.6	2411
584.8	2407
585.0	2413
585.2	2417
585.4	2420
585.6	2432
585.8	2433
586.0	2433
586.2	2434
586.4	2439
586.6	2445
586.8	2445
587.0	2444
587.2	2432
587.4	2431
587.6	2439
587.8	2452
588.0	2458
588.2	2464
588.4	2458
588.6	2463
588.8	2463
589.0	2468
589.2	2472
589.4	2481
589.6	2473
589.8	2471
590.0	2474
590.2	2477
590.4	2485
590.6	2503
590.8	2504
591.0	2500
591.2	2500
591.4	2493
591.6	2483
591.8	2485
592.0	2482
592.2	2483
592.4	2486
592.6	2498
592.8	2497
593.0	2508
593.2	2509
593.4	2502
593.6	2495
593.8	2496
594.0	2488
594.2	2495
594.4	2510
594.6	2509
594.8	2505
595.0	2509
595.2	2501
595.4	2502
595.6	2504
595.8	2499
596.0	2494
596.2	2504
596.4	2514
596.6	2523
596.8	2526
597.0	2527
597.2	2529
597.4	2523
597.6	2511
597.8	2493
598.0	2495
598.2	2499
598.4	2506
598.6	2505
598.8	2504
599.0	2495
599.2	2503
599.4	2505
599.6	2515
599.8	2524
600.0	2526
600.2	2515
600.4	2503
600.6	2491
600.8	2500
601.0	2512
601.2	2522
601.4	2514
601.6	2505
601.8	2490
602.0	2478
602.2	2476
602.4	2481
602.6	2481
602.8	2494
603.0	2487
603.2	2484
603.4	2490
603.6	2496
603.8	2493
604.0	2489
604.2	2468
604.4	2463
604.6	2460
604.8	2455
605.0	2450
605.2	2449
605.4	2449
605.6	2452
605.8	2452
606.0	2453
606.2	2445
606.4	2449
606.6	2442
606.8	2432
607.0	2430
607.2	2425
607.4	2416
607.6	2418
607.8	2407
608.0	2408
608.2	2408
608.4	2405
608.6	2405
608.8	2408
609.0	2403
609.2	2400
609.4	2392
609.6	2390
609.8	2394
610.0	2388
610.2	2386
610.4	2376
610.6	2368
610.8	2372
611.0	2373
611.2	2360
611.4	2359
611.6	2352
611.8	2348
612.0	2352
612.2	2349
612.4	2344
612.6	2340
612.8	2329
613.0	2317
613.2	2319
613.4	2322
613.6	2317
613.8	2305
614.0	2297
614.2	2304
614.4	2318
614.6	2310
614.8	2289
615.0	2260
615.2	2246
615.4	2250
615.6	2268
615.8	2267
616.0	2267
616.2	2251
616.4	2238
616.6	2227
616.8	2232
617.0	2241
617.2	2246
617.4	2234
617.6	2222
617.8	2211
618.0	2210
618.2	2211
618.4	2208
618.6	2190
618.8	2186
619.0	2179
619.2	2174
619.4	2171
619.6	2174
619.8	2167
620.0	2162
620.2	2153
620.4	2136
620.6	2136
620.8	2137
621.0	2147
621.2	2142
621.4	2136
621.6	2124
621.8	2110
622.0	2099
622.2	2100
622.4	2088
622.6	2090
622.8	2082
623.0	2077
623.2	2075
623.4	2070
623.6	2061
623.8	2057
624.0	2047
624.2	2044
624.4	2042
624.6	2035
624.8	2022
625.0	2019
625.2	2020
625.4	2023
625.6	2023
625.8	2006
626.0	1991
626.2	1994
626.4	1992
626.6	1994
626.8	1999
627.0	1989
627.2	1973
627.4	1967
627.6	1960
627.8	1950
628.0	1950
628.2	1940
628.4	1932
628.6	1933
628.8	1940
629.0	1936
629.2	1929
629.4	1917
629.6	1908
629.8	1899
630.0	1897
630.2	1902
630.4	1895
630.6	1884
630.8	1881
631.0	1878
631.2	1872
631.4	1868
631.6	1859
631.8	1848
632.0	1850
632.2	1853
632.4	1843
632.6	1831
632.8	1820
633.0	1808
633.2	1797
633.4	1793
633.6	1784
633.8	1781
634.0	1776
634.2	1776
634.4	1768
634.6	1761
634.8	1753
635.0	1746
635.2	1745
635.4	1746
635.6	1745
635.8	1749
636.0	1743
636.2	1729
636.4	1718
636.6	1703
636.8	1695
637.0	1693
637.2	1685
637.4	1671
637.6	1666
637.8	1659
638.0	1658
638.2	1656
638.4	1649
638.6	1637
638.8	1628
639.0	1622
639.2	1620
639.4	1616
639.6	1607
639.8	1596
640.0	1596
640.2	1590
640.4	1589
640.6	1582
640.8	1583
641.0	1577
641.2	1577
641.4	1567
641.6	1563
641.8	1542
642.0	1539
642.2	1525
642.4	1516
642.6	1513
642.8	1510
643.0	1497
643.2	1496
643.4	1489
643.6	1489
643.8	1478
644.0	1461
644.2	1448
644.4	1439
644.6	1429
644.8	1427
645.0	1426
645.2	1419
645.4	1426
645.6	1425
645.8	1415
646.0	1411
646.2	1408
646.4	1403
646.6	1408
646.8	1399
647.0	1383
647.2	1373
647.4	1363
647.6	1353
647.8	1353
648.0	1350
648.2	1340
648.4	1342
648.6	1341
648.8	1338
649.0	1338
649.2	1331
649.4	1307
649.6	1297
649.8	1290
650.0	1294
650.2	1299
650.4	1297
650.6	1284
650.8	1272
651.0	1265
651.2	1263
651.4	1264
651.6	1264
651.8	1261
652.0	1252
652.2	1239
652.4	1226
652.6	1221
652.8	1215
653.0	1210
653.2	1203
653.4	1186
653.6	1179
653.8	1182
654.0	1184
654.2	1187
654.4	1190
654.6	1178
654.8	1171
655.0	1169
655.2	1163
655.4	1153
655.6	1145
655.8	1131
656.0	1123
656.2	1123
656.4	1122
656.6	1117
656.8	1110
657.0	1105
657.2	1100
657.4	1094
657.6	1086
657.8	1075
658.0	1071
658.2	1069
658.4	1065
658.6	1062
658.8	1054
659.0	1049
659.2	1048
659.4	1043
659.6	1036
659.8	1037
660.0	1029
660.2	1022
660.4	1020
660.6	1019
660.8	1017
661.0	1022
661.2	1009
661.4	991.5
661.6	977.6
661.8	966.5
662.0	966.5
662.2	966.2
662.4	963.9
662.6	957.7
662.8	951.1
663.0	948.6
663.2	947.1
663.4	936.5
663.6	929.9
663.8	916.6
664.0	915.5
664.2	905.2
664.4	906.7
664.6	904.7
664.8	903.9
665.0	901.9
665.2	894.1
665.4	876.0
665.6	871.5
665.8	869.3
666.0	869.8
666.2	871.3
666.4	865.0
666.6	859.3
666.8	860.0
667.0	852.0
667.2	843.4
667.4	839.6
667.6	832.7
667.8	827.8
668.0	826.8
668.2	821.7
668.4	823.7
668.6	825.8
668.8	820.3
669.0	809.6
669.2	794.9
669.4	786.5
669.6	787.3
669.8	787.3
670.0	790.5
670.2	785.3
670.4	777.0
670.6	767.1
670.8	763.2
671.0	754.6
671.2	753.9
671.4	753.0
671.6	755.8
671.8	759.1
672.0	757.3
672.2	745.5
672.4	735.3
672.6	728.4
672.8	723.1
673.0	726.0
673.2	722.3
673.4	717.1
673.6	712.5
673.8	709.3
674.0	703.5
674.2	700.5
674.4	698.7
674.6	690.8
674.8	689.9
675.0	692.4
675.2	691.4
675.4	682.3
675.6	680.6
675.8	669.4
676.0	662.5
676.2	660.8
676.4	663.4
676.6	655.3
676.8	657.2
677.0	654.8
677.2	644.5
677.4	640.5
677.6	642.1
677.8	632.2
678.0	631.6
678.2	627.2
678.4	625.4
678.6	622.5
678.8	623.9
679.0	617.7
679.2	611.1
679.4	604.9
679.6	601.3
679.8	594.0
680.0	594.6
680.2	590.3
680.4	588.5
680.6	586.9
680.8	580.7
681.0	577.9
681.2	577.2
681.4	574.5
681.6	576.3
681.8	567.7
682.0	559.7
682.2	556.8
682.4	552.4
682.6	553.5
682.8	551.9
683.0	542.4
683.2	536.3
683.4	533.0
683.6	529.5
683.8	531.5
684.0	537.3
684.2	534.3
684.4	526.1
684.6	520.6
684.8	515.6
685.0	510.7
685.2	512.5
685.4	510.8
685.6	501.7
685.8	500.4
686.0	499.2
686.2	498.5
686.4	496.0
686.6	498.1
686.8	493.7
687.0	488.4
687.2	482.1
687.4	480.2
687.6	478.5
687.8	481.3
688.0	479.5
688.2	477.4
688.4	472.6
688.6	472.2
688.8	468.9
689.0	463.2
689.2	454.6
689.4	450.8
689.6	450.1
689.8	452.0
690.0	450.9
690.2	445.0
690.4	436.3
690.6	430.2
690.8	431.4
691.0	431.1
691.2	433.1
691.4	430.9
691.6	423.2
691.8	416.3
692.0	414.4
692.2	411.9
692.4	414.7
692.6	414.3
692.8	412.9
693.0	410.3
693.2	408.9
693.4	405.4
693.6	404.5
693.8	399.4
694.0	395.3
694.2	394.6
694.4	396.4
694.6	393.9
694.8	395.0
695.0	391.9
695.2	386.7
695.4	385.6
695.6	389.1
695.8	388.6
696.0	389.8
696.2	387.7
696.4	382.3
696.6	371.7
696.8	366.6
697.0	364.4
697.2	363.6
697.4	369.3
697.6	367.8
697.8	361.9
698.0	362.3
698.2	361.7
698.4	359.4
698.6	362.8
698.8	356.3
699.0	351.9
699.2	351.0
699.4	351.4
699.6	347.7
699.8	346.9
700.0	342.4
700.2	338.8
700.4	338.0
700.6	341.5
700.8	338.8
701.0	336.6
701.2	332.1
701.4	328.3
701.6	323.6
701.8	322.0
702.0	319.8
702.2	320.3
702.4	317.8
702.6	317.6
702.8	312.8
703.0	314.6
703.2	315.8
703.4	315.0
703.6	312.3
703.8	307.1
704.0	304.9
704.2	306.5
704.4	308.3
704.6	308.9
704.8	306.9
705.0	300.1
705.2	296.1
705.4	294.1
705.6	295.5
705.8	294.2
706.0	290.9
706.2	287.3
706.4	285.0
706.6	288.9
706.8	288.7
707.0	282.5
707.2	279.8
707.4	276.3
707.6	278.0
707.8	279.2
708.0	278.2
708.2	280.1
708.4	281.9
708.6	278.2
708.8	275.4
709.0	270.2
709.2	267.7
709.4	269.3
709.6	268.2
709.8	265.1
710.0	260.7
710.2	258.9
710.4	255.7
710.6	252.8
710.8	253.7
711.0	254.4
711.2	256.3
711.4	251.8
711.6	250.3
711.8	246.6
712.0	246.0
712.2	242.0
712.4	240.9
712.6	240.2
712.8	245.2
713.0	243.0
713.2	240.6
713.4	237.4
713.6	235.0
713.8	237.8
714.0	239.2
714.2	233.2
714.4	228.8
714.6	227.0
714.8	225.1
715.0	220.4
715.2	224.7
715.4	224.3
715.6	222.6
715.8	221.0
716.0	217.4
716.2	214.9
716.4	218.7
716.6	218.5
716.8	215.2
717.0	213.5
717.2	211.5
717.4	213.4
717.6	211.5
717.8	209.7
718.0	206.0
718.2	201.6
718.4	199.6
718.6	195.2
718.8	194.0
719.0	193.7
719.2	195.1
719.4	193.6
719.6	193.8
719.8	190.4
720.0	190.6
720.2	188.1
720.4	187.4
720.6	187.9
720.8	187.5
721.0	187.7
721.2	182.8
721.4	178.4
721.6	178.4
721.8	180.1
722.0	178.0
722.2	176.3
722.4	173.4
722.6	174.5
722.8	175.6
723.0	176.8
723.2	174.0
723.4	170.2
723.6	169.2
723.8	169.1
724.0	168.3
724.2	168.2
724.4	169.7
724.6	169.4
724.8	167.0
725.0	165.3
725.2	163.3
725.4	159.2
725.6	159.1
725.8	156.8
726.0	158.4
726.2	159.0
726.4	155.8
726.6	155.5
726.8	155.2
727.0	155.1
727.2	156.0
727.4	155.0
727.6	152.2
727.8	151.4
728.0	149.7
728.2	147.7
728.4	142.7
728.6	142.2
728.8	145.1
729.0	143.8
729.2	144.5
729.4	142.5
729.6	141.2
729.8	139.9
730.0	140.2
730.2	136.1
730.4	135.8
730.6	134.2
730.8	133.7
731.0	135.0
731.2	133.3
731.4	132.6
731.6	130.5
731.8	129.1
732.0	128.2
732.2	129.0
732.4	127.7
732.6	128.2
732.8	127.0
733.0	126.8
733.2	126.7
733.4	124.3
733.6	121.1
733.8	120.1
734.0	119.1
734.2	119.1
734.4	118.6
734.6	118.6
734.8	115.9
735.0	116.3
735.2	115.0
735.4	115.8
735.6	113.9
735.8	114.4
736.0	113.8
736.2	114.0
736.4	114.4
736.6	114.2
736.8	110.8
737.0	107.2
737.2	105.9
737.4	105.8
737.6	108.1
737.8	110.0
738.0	109.8
738.2	108.7
738.4	107.9
738.6	107.6
738.8	107.7
739.0	106.5
739.2	103.7
739.4	102.0
739.6	100.9
739.8	101.3
740.0	102.1
740.2	100.6
740.4	97.98
740.6	97.79
740.8	97.54
741.0	96.91
741.2	96.41
741.4	94.90
741.6	94.36
741.8	95.06
742.0	95.63
742.2	95.24
742.4	95.84
742.6	95.65
742.8	94.22
743.0	93.27
743.2	92.62
743.4	90.85
743.6	90.78
743.8	87.62
744.0	84.80
744.2	83.90
744.4	83.14
744.6	83.28
744.8	86.78
745.0	87.50
745.2	88.11
745.4	87.70
745.6	84.40
745.8	82.43
746.0	81.68
746.2	81.92
746.4	82.20
746.6	81.59
746.8	80.33
747.0	79.36
747.2	77.95
747.4	77.10
747.6	76.90
747.8	77.66
748.0	77.51
748.2	77.30
748.4	78.27
748.6	77.64
748.8	76.26
749.0	76.07
749.2	74.02
749.4	72.88
749.6	73.32
749.8	74.36
750.0	73.73
750.2	73.03
750.4	72.29
750.6	69.25
750.8	68.65
751.0	69.30
751.2	69.12
751.4	68.87
751.6	69.19
751.8	68.07
752.0	68.03
752.2	67.07
752.4	66.05
752.6	64.53
752.8	65.29
753.0	66.01
753.2	66.52
753.4	64.69
753.6	64.70
753.8	62.60
754.0	62.74
754.2	62.99
754.4	63.82
754.6	63.62
754.8	65.36
755.0	63.55
755.2	63.35
755.4	62.32
755.6	61.63
755.8	61.47
756.0	62.21
756.2	60.72
756.4	60.06
756.6	59.92
756.8	57.64
757.0	57.51
757.2	56.35
757.4	55.73
757.6	55.13
757.8	55.62
758.0	55.76
758.2	56.68
758.4	56.06
758.6	57.72
758.8	57.74
759.0	56.56
759.2	55.44
759.4	51.99
759.6	51.79
759.8	52.50
760.0	53.05
760.2	52.43
760.4	50.51
760.6	48.61
760.8	50.08
761.0	50.52
761.2	52.75
761.4	52.03
761.6	51.62
761.8	50.87
762.0	52.07
762.2	52.28
762.4	52.09
762.6	49.30
762.8	46.61
763.0	45.91
763.2	48.16
763.4	48.85
763.6	48.96
763.8	47.66
764.0	44.94
764.2	44.11
764.4	43.49
764.6	42.81
764.8	44.57
765.0	45.46
765.2	46.07
765.4	45.82
765.6	43.85
765.8	42.65
766.0	42.85
766.2	43.18
766.4	43.84
766.6	42.65
766.8	41.60
767.0	41.06
767.2	40.81
767.4	41.85
767.6	42.54
767.8	41.71
768.0	41.61
768.2	41.09
768.4	41.38
768.6	42.40
768.8	42.41
769.0	40.42
769.2	40.98
769.4	40.06
769.6	40.75
769.8	41.25
770.0	40.65
770.2	38.97
770.4	38.57
770.6	36.55
770.8	36.99
771.0	36.47
771.2	35.73
771.4	34.62
771.6	33.25
771.8	33.15
772.0	35.40
772.2	35.94
772.4	35.87
772.6	34.71
772.8	33.12
773.0	34.13
773.2	35.42
773.4	36.85
773.6	37.60
773.8	36.85
774.0	35.43
774.2	35.42
774.4	34.47
774.6	34.47
774.8	34.48
775.0	35.23
775.2	35.03
775.4	34.18
775.6	32.18
775.8	31.58
776.0	30.35
776.2	31.77
776.4	30.66
776.6	30.78
776.8	29.77
777.0	30.70
777.2	30.44
777.4	30.53
777.6	29.05
777.8	30.52
778.0	31.43
778.2	31.91
778.4	31.59
778.6	29.61
778.8	28.54
779.0	28.95
779.2	29.78
779.4	29.40
779.6	29.62
779.8	30.22
780.0	31.98
780.2	31.53
780.4	31.68
780.6	30.75
780.8	30.11
781.0	28.95
781.2	28.98
781.4	26.90
781.6	26.35
781.8	26.70
782.0	26.77
782.2	27.74
782.4	28.60
782.6	27.94
782.8	27.38
783.0	27.52
783.2	26.71
783.4	27.41
783.6	26.99
783.8	27.46
784.0	27.46
784.2	27.18
784.4	26.54
784.6	26.54
784.8	26.43
785.0	27.04
785.2	26.81
785.4	26.45
785.6	26.74
785.8	26.38
786.0	25.59
786.2	23.93
786.4	22.58
786.6	21.53
786.8	22.90
787.0	23.48
787.2	25.12
787.4	24.89
787.6	24.76
787.8	24.73
788.0	25.22
788.2	25.14
788.4	26.76
788.6	26.35
788.8	25.03
789.0	24.62
789.2	24.84
789.4	25.05
789.6	26.39
789.8	25.81
790.0	23.47
790.2	22.32
790.4	22.42
790.6	22.42
790.8	23.05
791.0	23.02
791.2	22.31
791.4	21.72
791.6	22.21
791.8	22.74
792.0	23.12
792.2	23.22
792.4	22.38
792.6	21.64
792.8	22.15
793.0	23.05
793.2	23.59
793.4	23.73
793.6	23.21
793.8	22.06
794.0	21.06
794.2	20.92
794.4	21.10
794.6	21.37
794.8	22.18
795.0	22.46
795.2	22.64
795.4	22.41
795.6	22.13
795.8	20.67
796.0	21.00
796.2	20.95
796.4	21.34
796.6	21.03
796.8	22.00
797.0	21.41
797.2	22.02
797.4	21.29
797.6	21.98
797.8	21.56
798.0	22.21
798.2	21.32
798.4	21.13
798.6	20.27
798.8	20.96
799.0	20.84
799.2	21.08
799.4	20.46
799.6	20.11
799.8	19.77
800.0	19.46

