Sample:	'20211010A(EM)
File name:	R-CDs 3 300uM.FDS
Run date:	'15:50:36, 06/09/2023
Operator:	Administrator
Comment:	'

Instrument
Model:	F-4700 FL Spectrophotometer
Serial number:	2019-001
ROM Version:	5J24010 00

Instrument parameters
Measurement type:	Wavelength scan
Scan mode:	Emission
Data mode:	Fluorescence
EX WL:	520.0 nm
EM  Start WL:	540.0 nm
EM  End WL:	800.0 nm
Scan speed:	1200 nm/min
Delay:	0.0 s
EX Slit:	10.0 nm
EM Slit:	10.0 nm
PMT Voltage:	650 V
Response:	0.002 s
Corrected spectra:	Off
Shutter control:	On

Processing performed
Savitsky-Golay smoothed
Smoothing order:	3
Number of points:	7
Number of times:	1

Peak integration
Integration method:	Rectangular
Sensitivity:	1
Threshold:	1.000

Peaks
No.	Start(nm)	Apex(nm)	End(nm)	Height(Data)	Valley(nm)	Valley(Data)
1	540.0	587.8	588.6	2446	588.6	2407
2	588.6	590.6	591.0	2460	591.0	2445
3	591.0	593.2	593.8	2482	593.8	2447
4	593.8	596.4	597.2	2499	597.2	2457
5	597.2	599.8	601.0	2475	601.0	2431
6	601.0	601.6	610.2	2455	610.2	2302
7	610.2	611.0	613.0	2320	613.0	2259
8	613.0	613.4	618.0	2280	618.0	2148
9	618.0	618.6	737.0	2160	737.0	104.1
10	737.0	737.6	749.0	111.1	749.0	72.13
11	749.0	749.8	753.4	76.67	753.4	61.82
12	753.4	754.4	763.4	70.45	763.4	44.10
13	763.4	764.2	765.0	47.95	765.0	41.69
14	765.0	766.0	770.2	46.80	770.2	37.53
15	770.2	770.6	773.0	39.71	773.0	33.63
16	773.0	775.0	777.2	36.32	777.2	29.28
17	777.2	778.4	780.0	32.90	780.0	29.64
18	780.0	780.6	783.8	30.93	783.8	23.85
19	783.8	785.6	786.6	28.90	786.6	26.16
20	786.6	787.2	789.0	27.59	789.0	22.65
21	789.0	789.6	790.6	24.58	790.6	21.50
22	790.6	791.6	794.2	24.41	794.2	20.38
23	794.2	795.0	796.0	22.00	796.0	19.29
24	796.0	797.8	800.0	22.44	800.0	20.17

Data points
nm	Data
540.0	289.5
540.2	284.4
540.4	283.6
540.6	285.1
540.8	285.4
541.0	286.9
541.2	288.0
541.4	291.8
541.6	294.2
541.8	298.8
542.0	301.6
542.2	306.0
542.4	306.0
542.6	307.5
542.8	308.9
543.0	310.2
543.2	312.8
543.4	314.9
543.6	314.3
543.8	312.5
544.0	316.1
544.2	321.4
544.4	324.5
544.6	326.6
544.8	326.1
545.0	326.9
545.2	330.5
545.4	337.1
545.6	337.8
545.8	342.0
546.0	340.8
546.2	343.5
546.4	342.3
546.6	342.3
546.8	340.1
547.0	346.7
547.2	350.7
547.4	360.7
547.6	367.1
547.8	368.0
548.0	367.4
548.2	372.3
548.4	370.1
548.6	372.6
548.8	372.8
549.0	374.8
549.2	376.9
549.4	384.8
549.6	381.6
549.8	381.7
550.0	383.6
550.2	393.8
550.4	403.7
550.6	412.3
550.8	415.3
551.0	419.0
551.2	420.3
551.4	426.1
551.6	429.9
551.8	426.3
552.0	430.2
552.2	432.9
552.4	435.7
552.6	443.6
552.8	450.6
553.0	448.1
553.2	454.9
553.4	458.4
553.6	460.3
553.8	466.3
554.0	482.1
554.2	488.2
554.4	501.7
554.6	509.1
554.8	511.1
555.0	510.6
555.2	525.3
555.4	527.1
555.6	537.5
555.8	546.7
556.0	553.4
556.2	562.1
556.4	575.0
556.6	580.1
556.8	591.4
557.0	595.4
557.2	603.5
557.4	615.7
557.6	624.5
557.8	635.0
558.0	648.9
558.2	657.8
558.4	664.5
558.6	673.0
558.8	683.5
559.0	698.5
559.2	714.0
559.4	721.0
559.6	725.3
559.8	729.9
560.0	738.3
560.2	754.8
560.4	771.0
560.6	792.8
560.8	805.5
561.0	817.8
561.2	831.3
561.4	841.2
561.6	853.3
561.8	864.3
562.0	863.7
562.2	875.2
562.4	886.7
562.6	900.6
562.8	922.0
563.0	932.3
563.2	944.3
563.4	957.7
563.6	968.8
563.8	981.8
564.0	1007
564.2	1025
564.4	1038
564.6	1046
564.8	1061
565.0	1077
565.2	1094
565.4	1107
565.6	1121
565.8	1134
566.0	1157
566.2	1186
566.4	1198
566.6	1210
566.8	1221
567.0	1231
567.2	1248
567.4	1267
567.6	1277
567.8	1294
568.0	1317
568.2	1342
568.4	1360
568.6	1372
568.8	1377
569.0	1388
569.2	1412
569.4	1428
569.6	1438
569.8	1455
570.0	1477
570.2	1508
570.4	1536
570.6	1553
570.8	1560
571.0	1577
571.2	1603
571.4	1627
571.6	1639
571.8	1646
572.0	1649
572.2	1666
572.4	1694
572.6	1716
572.8	1729
573.0	1743
573.2	1768
573.4	1792
573.6	1818
573.8	1831
574.0	1833
574.2	1840
574.4	1860
574.6	1872
574.8	1888
575.0	1910
575.2	1927
575.4	1951
575.6	1971
575.8	1968
576.0	1979
576.2	2003
576.4	2016
576.6	2041
576.8	2053
577.0	2048
577.2	2060
577.4	2081
577.6	2097
577.8	2119
578.0	2138
578.2	2143
578.4	2147
578.6	2153
578.8	2159
579.0	2164
579.2	2185
579.4	2209
579.6	2215
579.8	2226
580.0	2233
580.2	2234
580.4	2247
580.6	2267
580.8	2264
581.0	2271
581.2	2273
581.4	2279
581.6	2284
581.8	2293
582.0	2306
582.2	2314
582.4	2321
582.6	2328
582.8	2326
583.0	2333
583.2	2350
583.4	2360
583.6	2365
583.8	2362
584.0	2364
584.2	2369
584.4	2370
584.6	2369
584.8	2369
585.0	2371
585.2	2391
585.4	2391
585.6	2390
585.8	2395
586.0	2395
586.2	2395
586.4	2411
586.6	2420
586.8	2417
587.0	2420
587.2	2412
587.4	2419
587.6	2429
587.8	2446
588.0	2438
588.2	2424
588.4	2409
588.6	2407
588.8	2416
589.0	2433
589.2	2445
589.4	2451
589.6	2456
589.8	2450
590.0	2456
590.2	2452
590.4	2456
590.6	2460
590.8	2451
591.0	2445
591.2	2452
591.4	2455
591.6	2463
591.8	2466
592.0	2455
592.2	2444
592.4	2449
592.6	2463
592.8	2468
593.0	2474
593.2	2482
593.4	2472
593.6	2455
593.8	2447
594.0	2448
594.2	2453
594.4	2472
594.6	2481
594.8	2475
595.0	2463
595.2	2459
595.4	2463
595.6	2468
595.8	2473
596.0	2487
596.2	2496
596.4	2499
596.6	2494
596.8	2488
597.0	2470
597.2	2457
597.4	2460
597.6	2461
597.8	2459
598.0	2468
598.2	2462
598.4	2457
598.6	2463
598.8	2466
599.0	2469
599.2	2465
599.4	2468
599.6	2471
599.8	2475
600.0	2471
600.2	2463
600.4	2458
600.6	2444
600.8	2437
601.0	2431
601.2	2432
601.4	2437
601.6	2455
601.8	2452
602.0	2452
602.2	2446
602.4	2448
602.6	2447
602.8	2439
603.0	2428
603.2	2434
603.4	2433
603.6	2441
603.8	2432
604.0	2423
604.2	2415
604.4	2417
604.6	2424
604.8	2436
605.0	2432
605.2	2423
605.4	2405
605.6	2389
605.8	2378
606.0	2386
606.2	2388
606.4	2386
606.6	2380
606.8	2387
607.0	2388
607.2	2392
607.4	2383
607.6	2374
607.8	2360
608.0	2363
608.2	2370
608.4	2368
608.6	2358
608.8	2348
609.0	2343
609.2	2347
609.4	2341
609.6	2327
609.8	2313
610.0	2304
610.2	2302
610.4	2307
610.6	2311
610.8	2314
611.0	2320
611.2	2309
611.4	2303
611.6	2292
611.8	2288
612.0	2285
612.2	2282
612.4	2263
612.6	2263
612.8	2262
613.0	2259
613.2	2272
613.4	2280
613.6	2268
613.8	2273
614.0	2265
614.2	2254
614.4	2245
614.6	2235
614.8	2224
615.0	2234
615.2	2225
615.4	2215
615.6	2203
615.8	2200
616.0	2207
616.2	2220
616.4	2214
616.6	2200
616.8	2185
617.0	2168
617.2	2159
617.4	2155
617.6	2155
617.8	2148
618.0	2148
618.2	2151
618.4	2155
618.6	2160
618.8	2159
619.0	2153
619.2	2148
619.4	2137
619.6	2132
619.8	2129
620.0	2113
620.2	2105
620.4	2102
620.6	2098
620.8	2095
621.0	2102
621.2	2094
621.4	2082
621.6	2081
621.8	2075
622.0	2064
622.2	2060
622.4	2057
622.6	2055
622.8	2054
623.0	2050
623.2	2039
623.4	2025
623.6	2022
623.8	2018
624.0	2018
624.2	2004
624.4	1996
624.6	1983
624.8	1978
625.0	1980
625.2	1992
625.4	1990
625.6	1988
625.8	1979
626.0	1966
626.2	1961
626.4	1953
626.6	1944
626.8	1937
627.0	1934
627.2	1935
627.4	1933
627.6	1923
627.8	1927
628.0	1910
628.2	1897
628.4	1890
628.6	1879
628.8	1879
629.0	1886
629.2	1870
629.4	1867
629.6	1869
629.8	1876
630.0	1872
630.2	1863
630.4	1856
630.6	1845
630.8	1841
631.0	1834
631.2	1819
631.4	1807
631.6	1801
631.8	1800
632.0	1791
632.2	1779
632.4	1781
632.6	1778
632.8	1776
633.0	1783
633.2	1769
633.4	1758
633.6	1760
633.8	1755
634.0	1754
634.2	1744
634.4	1728
634.6	1717
634.8	1708
635.0	1695
635.2	1697
635.4	1695
635.6	1702
635.8	1701
636.0	1690
636.2	1672
636.4	1660
636.6	1657
636.8	1660
637.0	1653
637.2	1646
637.4	1645
637.6	1642
637.8	1637
638.0	1630
638.2	1613
638.4	1607
638.6	1604
638.8	1597
639.0	1581
639.2	1579
639.4	1571
639.6	1570
639.8	1570
640.0	1574
640.2	1567
640.4	1560
640.6	1550
640.8	1540
641.0	1536
641.2	1531
641.4	1528
641.6	1514
641.8	1508
642.0	1502
642.2	1500
642.4	1500
642.6	1502
642.8	1498
643.0	1490
643.2	1480
643.4	1467
643.6	1458
643.8	1451
644.0	1442
644.2	1433
644.4	1430
644.6	1426
644.8	1413
645.0	1408
645.2	1398
645.4	1395
645.6	1390
645.8	1393
646.0	1384
646.2	1373
646.4	1368
646.6	1367
646.8	1360
647.0	1359
647.2	1351
647.4	1337
647.6	1333
647.8	1334
648.0	1330
648.2	1326
648.4	1323
648.6	1316
648.8	1302
649.0	1296
649.2	1293
649.4	1287
649.6	1279
649.8	1270
650.0	1250
650.2	1246
650.4	1257
650.6	1262
650.8	1261
651.0	1258
651.2	1241
651.4	1234
651.6	1232
651.8	1226
652.0	1217
652.2	1207
652.4	1196
652.6	1191
652.8	1193
653.0	1196
653.2	1193
653.4	1181
653.6	1170
653.8	1164
654.0	1152
654.2	1149
654.4	1147
654.6	1141
654.8	1136
655.0	1135
655.2	1119
655.4	1118
655.6	1115
655.8	1111
656.0	1102
656.2	1095
656.4	1087
656.6	1084
656.8	1080
657.0	1077
657.2	1070
657.4	1072
657.6	1072
657.8	1059
658.0	1047
658.2	1038
658.4	1034
658.6	1030
658.8	1032
659.0	1030
659.2	1027
659.4	1017
659.6	1005
659.8	995.7
660.0	994.0
660.2	994.4
660.4	992.2
660.6	981.4
660.8	978.2
661.0	979.8
661.2	977.1
661.4	970.8
661.6	962.3
661.8	956.5
662.0	954.5
662.2	953.4
662.4	950.8
662.6	941.8
662.8	931.7
663.0	929.0
663.2	921.5
663.4	926.1
663.6	925.1
663.8	919.6
664.0	907.9
664.2	894.3
664.4	882.9
664.6	885.0
664.8	876.7
665.0	875.1
665.2	875.4
665.4	870.1
665.6	867.6
665.8	867.3
666.0	848.0
666.2	845.5
666.4	846.6
666.6	852.4
666.8	852.7
667.0	851.2
667.2	842.7
667.4	837.0
667.6	832.9
667.8	831.9
668.0	823.3
668.2	819.7
668.4	812.8
668.6	798.9
668.8	792.1
669.0	789.5
669.2	780.7
669.4	784.6
669.6	775.8
669.8	766.8
670.0	764.5
670.2	764.8
670.4	761.3
670.6	763.9
670.8	758.2
671.0	751.2
671.2	750.4
671.4	748.0
671.6	746.1
671.8	738.0
672.0	732.5
672.2	728.6
672.4	728.3
672.6	726.9
672.8	725.3
673.0	715.9
673.2	711.2
673.4	708.5
673.6	700.8
673.8	694.2
674.0	686.3
674.2	682.4
674.4	683.1
674.6	684.0
674.8	679.4
675.0	678.0
675.2	671.9
675.4	671.6
675.6	671.2
675.8	668.6
676.0	667.2
676.2	662.2
676.4	652.6
676.6	644.2
676.8	637.1
677.0	636.6
677.2	638.2
677.4	636.2
677.6	626.7
677.8	617.5
678.0	607.3
678.2	601.8
678.4	601.5
678.6	605.7
678.8	607.9
679.0	607.3
679.2	604.5
679.4	596.4
679.6	592.9
679.8	588.3
680.0	588.2
680.2	585.8
680.4	581.7
680.6	571.3
680.8	570.5
681.0	570.7
681.2	570.7
681.4	568.6
681.6	562.4
681.8	556.2
682.0	558.2
682.2	557.7
682.4	548.3
682.6	539.6
682.8	530.5
683.0	525.5
683.2	529.7
683.4	530.0
683.6	525.9
683.8	526.5
684.0	524.4
684.2	515.1
684.4	509.7
684.6	503.4
684.8	499.2
685.0	497.2
685.2	495.5
685.4	492.2
685.6	491.5
685.8	493.0
686.0	496.7
686.2	492.9
686.4	486.4
686.6	480.2
686.8	474.9
687.0	471.4
687.2	469.1
687.4	470.1
687.6	470.4
687.8	465.9
688.0	465.7
688.2	463.4
688.4	462.4
688.6	459.5
688.8	453.2
689.0	447.9
689.2	447.5
689.4	443.9
689.6	443.2
689.8	445.0
690.0	444.1
690.2	443.6
690.4	439.7
690.6	431.6
690.8	423.4
691.0	427.4
691.2	427.4
691.4	426.9
691.6	425.8
691.8	420.7
692.0	416.9
692.2	411.3
692.4	408.4
692.6	406.9
692.8	402.8
693.0	399.1
693.2	401.2
693.4	401.8
693.6	400.3
693.8	401.2
694.0	394.2
694.2	388.6
694.4	388.2
694.6	390.9
694.8	387.8
695.0	385.8
695.2	381.3
695.4	374.2
695.6	369.4
695.8	368.5
696.0	364.6
696.2	363.3
696.4	364.9
696.6	362.4
696.8	362.7
697.0	360.0
697.2	359.4
697.4	359.8
697.6	358.3
697.8	350.8
698.0	350.8
698.2	347.2
698.4	348.8
698.6	346.4
698.8	345.5
699.0	343.2
699.2	343.1
699.4	341.4
699.6	342.0
699.8	343.5
700.0	343.8
700.2	344.0
700.4	337.2
700.6	330.3
700.8	328.3
701.0	326.5
701.2	326.0
701.4	329.6
701.6	328.8
701.8	327.4
702.0	327.1
702.2	320.0
702.4	317.8
702.6	315.8
702.8	310.8
703.0	306.4
703.2	305.1
703.4	304.9
703.6	306.6
703.8	309.0
704.0	309.9
704.2	308.3
704.4	304.1
704.6	301.2
704.8	298.3
705.0	297.4
705.2	296.0
705.4	294.2
705.6	290.1
705.8	286.1
706.0	284.5
706.2	286.3
706.4	284.4
706.6	283.0
706.8	282.8
707.0	277.3
707.2	274.3
707.4	277.8
707.6	276.4
707.8	276.0
708.0	279.4
708.2	277.1
708.4	275.5
708.6	275.6
708.8	270.7
709.0	263.7
709.2	262.7
709.4	261.6
709.6	261.1
709.8	259.8
710.0	258.9
710.2	253.8
710.4	251.3
710.6	251.0
710.8	252.6
711.0	251.5
711.2	251.6
711.4	247.7
711.6	245.9
711.8	245.3
712.0	247.7
712.2	245.6
712.4	242.7
712.6	238.4
712.8	239.7
713.0	236.8
713.2	237.2
713.4	235.7
713.6	232.3
713.8	228.6
714.0	228.8
714.2	225.7
714.4	226.3
714.6	226.3
714.8	224.8
715.0	222.8
715.2	219.8
715.4	217.2
715.6	216.7
715.8	215.3
716.0	214.6
716.2	214.0
716.4	209.3
716.6	207.6
716.8	211.3
717.0	213.4
717.2	211.2
717.4	207.9
717.6	203.6
717.8	197.0
718.0	198.0
718.2	199.5
718.4	198.8
718.6	201.5
718.8	204.6
719.0	200.7
719.2	195.6
719.4	191.6
719.6	187.3
719.8	184.2
720.0	184.1
720.2	186.6
720.4	186.7
720.6	186.2
720.8	185.7
721.0	181.3
721.2	179.2
721.4	180.0
721.6	181.1
721.8	178.9
722.0	176.0
722.2	172.5
722.4	171.9
722.6	169.4
722.8	170.5
723.0	167.7
723.2	166.6
723.4	168.5
723.6	169.7
723.8	169.5
724.0	168.6
724.2	162.4
724.4	164.0
724.6	163.1
724.8	160.7
725.0	162.2
725.2	161.5
725.4	159.9
725.6	160.9
725.8	159.7
726.0	157.8
726.2	155.4
726.4	152.1
726.6	149.5
726.8	147.2
727.0	149.7
727.2	150.2
727.4	149.7
727.6	150.2
727.8	148.8
728.0	149.1
728.2	149.3
728.4	149.2
728.6	148.0
728.8	148.2
729.0	144.5
729.2	141.0
729.4	137.2
729.6	138.3
729.8	140.1
730.0	139.9
730.2	138.9
730.4	136.0
730.6	133.2
730.8	132.6
731.0	132.4
731.2	128.9
731.4	128.4
731.6	127.9
731.8	126.1
732.0	125.3
732.2	125.6
732.4	126.1
732.6	127.1
732.8	127.0
733.0	124.3
733.2	121.8
733.4	121.5
733.6	121.6
733.8	121.6
734.0	122.1
734.2	121.7
734.4	123.6
734.6	120.6
734.8	118.7
735.0	117.0
735.2	115.8
735.4	114.5
735.6	114.8
735.8	111.5
736.0	114.3
736.2	115.4
736.4	113.3
736.6	109.4
736.8	105.9
737.0	104.1
737.2	106.5
737.4	110.3
737.6	111.1
737.8	110.3
738.0	110.5
738.2	107.9
738.4	104.3
738.6	103.9
738.8	101.3
739.0	99.86
739.2	100.8
739.4	101.4
739.6	101.4
739.8	102.2
740.0	100.8
740.2	99.40
740.4	98.47
740.6	97.33
740.8	97.36
741.0	97.74
741.2	96.87
741.4	94.74
741.6	92.99
741.8	91.73
742.0	92.59
742.2	93.76
742.4	92.85
742.6	90.92
742.8	90.80
743.0	89.43
743.2	88.51
743.4	87.09
743.6	87.40
743.8	87.81
744.0	89.28
744.2	87.79
744.4	85.71
744.6	82.90
744.8	84.35
745.0	83.18
745.2	83.80
745.4	85.10
745.6	84.10
745.8	81.23
746.0	82.10
746.2	79.97
746.4	79.05
746.6	79.13
746.8	79.06
747.0	77.40
747.2	78.18
747.4	79.81
747.6	78.40
747.8	76.05
748.0	76.97
748.2	75.19
748.4	73.19
748.6	74.51
748.8	72.85
749.0	72.13
749.2	74.84
749.4	75.95
749.6	76.20
749.8	76.67
750.0	74.98
750.2	73.21
750.4	72.33
750.6	73.33
750.8	72.66
751.0	71.58
751.2	71.34
751.4	69.48
751.6	68.45
751.8	68.16
752.0	66.44
752.2	64.38
752.4	65.08
752.6	63.89
752.8	62.85
753.0	62.43
753.2	62.30
753.4	61.82
753.6	64.26
753.8	66.88
754.0	68.22
754.2	70.24
754.4	70.45
754.6	67.60
754.8	65.68
755.0	63.26
755.2	61.79
755.4	61.95
755.6	62.64
755.8	62.14
756.0	61.42
756.2	59.79
756.4	60.12
756.6	60.24
756.8	59.85
757.0	59.56
757.2	56.81
757.4	55.60
757.6	55.54
757.8	55.44
758.0	54.74
758.2	55.96
758.4	55.44
758.6	54.54
758.8	53.42
759.0	52.94
759.2	52.07
759.4	54.35
759.6	53.60
759.8	53.52
760.0	52.50
760.2	53.29
760.4	51.94
760.6	52.01
760.8	50.42
761.0	50.98
761.2	49.63
761.4	51.40
761.6	51.18
761.8	51.53
762.0	51.39
762.2	50.34
762.4	48.49
762.6	47.74
762.8	45.97
763.0	45.38
763.2	44.38
763.4	44.10
763.6	45.02
763.8	46.55
764.0	47.33
764.2	47.95
764.4	46.76
764.6	44.87
764.8	42.79
765.0	41.69
765.2	42.75
765.4	44.87
765.6	46.65
765.8	46.54
766.0	46.80
766.2	45.52
766.4	44.48
766.6	43.76
766.8	43.47
767.0	42.40
767.2	43.65
767.4	42.81
767.6	41.58
767.8	41.82
768.0	41.11
768.2	41.14
768.4	41.73
768.6	40.92
768.8	40.00
769.0	38.64
769.2	37.54
769.4	38.61
769.6	38.85
769.8	38.24
770.0	37.96
770.2	37.53
770.4	38.67
770.6	39.71
770.8	39.60
771.0	38.57
771.2	37.72
771.4	37.71
771.6	37.45
771.8	36.71
772.0	37.63
772.2	36.78
772.4	35.50
772.6	35.04
772.8	34.19
773.0	33.63
773.2	35.42
773.4	34.86
773.6	34.27
773.8	34.94
774.0	34.82
774.2	34.36
774.4	35.23
774.6	35.27
774.8	35.45
775.0	36.32
775.2	35.92
775.4	35.05
775.6	34.86
775.8	33.61
776.0	32.36
776.2	32.06
776.4	31.09
776.6	30.97
776.8	30.71
777.0	29.89
777.2	29.28
777.4	30.19
777.6	31.51
777.8	31.97
778.0	32.27
778.2	32.54
778.4	32.90
778.6	31.91
778.8	31.48
779.0	29.89
779.2	29.89
779.4	30.85
779.6	31.43
779.8	30.52
780.0	29.64
780.2	30.22
780.4	30.27
780.6	30.93
780.8	30.76
781.0	30.75
781.2	29.55
781.4	30.06
781.6	28.80
781.8	27.77
782.0	27.99
782.2	29.22
782.4	28.40
782.6	28.42
782.8	27.27
783.0	26.88
783.2	26.97
783.4	27.22
783.6	24.72
783.8	23.85
784.0	24.10
784.2	24.91
784.4	25.93
784.6	27.23
784.8	25.78
785.0	26.69
785.2	28.43
785.4	28.59
785.6	28.90
785.8	28.80
786.0	26.84
786.2	26.75
786.4	26.90
786.6	26.16
786.8	26.31
787.0	26.51
787.2	27.59
787.4	27.24
787.6	27.20
787.8	25.73
788.0	24.67
788.2	24.15
788.4	24.39
788.6	23.36
788.8	23.14
789.0	22.65
789.2	23.34
789.4	24.56
789.6	24.58
789.8	24.44
790.0	23.49
790.2	22.26
790.4	21.94
790.6	21.50
790.8	21.56
791.0	22.96
791.2	23.46
791.4	24.38
791.6	24.41
791.8	23.18
792.0	22.31
792.2	22.26
792.4	21.94
792.6	22.16
792.8	22.01
793.0	21.42
793.2	21.11
793.4	20.57
793.6	20.93
793.8	20.60
794.0	20.56
794.2	20.38
794.4	20.66
794.6	20.99
794.8	21.50
795.0	22.00
795.2	21.98
795.4	21.06
795.6	20.23
795.8	19.96
796.0	19.29
796.2	20.12
796.4	20.63
796.6	21.15
796.8	21.03
797.0	21.57
797.2	21.42
797.4	22.11
797.6	22.27
797.8	22.44
798.0	21.21
798.2	20.52
798.4	19.95
798.6	20.29
798.8	19.49
799.0	19.42
799.2	19.02
799.4	19.17
799.6	20.39
799.8	21.03
800.0	20.17

