Sample:	'20211010A(EM)
File name:	R-CDs 9.FDS
Run date:	'16:12:52, 06/09/2023
Operator:	Administrator
Comment:	'

Instrument
Model:	F-4700 FL Spectrophotometer
Serial number:	2019-001
ROM Version:	5J24010 00

Instrument parameters
Measurement type:	Wavelength scan
Scan mode:	Emission
Data mode:	Fluorescence
EX WL:	520.0 nm
EM  Start WL:	540.0 nm
EM  End WL:	800.0 nm
Scan speed:	1200 nm/min
Delay:	0.0 s
EX Slit:	10.0 nm
EM Slit:	10.0 nm
PMT Voltage:	615 V
Response:	0.002 s
Corrected spectra:	Off
Shutter control:	On

Processing performed
Savitsky-Golay smoothed
Smoothing order:	3
Number of points:	7
Number of times:	1

Peak integration
Integration method:	Rectangular
Sensitivity:	1
Threshold:	1.000

Peaks
No.	Start(nm)	Apex(nm)	End(nm)	Height(Data)	Valley(nm)	Valley(Data)
1	540.0	605.8	608.0	8535	608.0	8462
2	608.0	608.6	770.6	8512	770.6	85.50
3	770.6	771.2	781.4	89.66	781.4	58.02
4	781.4	782.2	788.0	62.29	788.0	48.50
5	788.0	788.8	790.2	52.86	790.2	46.57
6	790.2	790.8	792.8	50.74	792.8	42.68
7	792.8	793.6	795.0	46.62	795.0	42.47
8	795.0	795.8	798.2	46.11	798.2	40.12
9	798.2	798.6	800.0	42.93	800.0	39.78

Data points
nm	Data
540.0	715.1
540.2	729.5
540.4	740.6
540.6	749.8
540.8	759.9
541.0	767.7
541.2	774.5
541.4	780.6
541.6	796.5
541.8	809.6
542.0	826.3
542.2	837.5
542.4	846.6
542.6	853.7
542.8	869.7
543.0	876.6
543.2	888.6
543.4	896.5
543.6	902.4
543.8	909.1
544.0	926.1
544.2	943.3
544.4	962.6
544.6	979.0
544.8	987.9
545.0	995.3
545.2	1008
545.4	1020
545.6	1031
545.8	1053
546.0	1059
546.2	1071
546.4	1090
546.6	1099
546.8	1112
547.0	1126
547.2	1133
547.4	1151
547.6	1173
547.8	1197
548.0	1219
548.2	1229
548.4	1249
548.6	1253
548.8	1262
549.0	1275
549.2	1293
549.4	1308
549.6	1331
549.8	1347
550.0	1364
550.2	1370
550.4	1385
550.6	1404
550.8	1428
551.0	1459
551.2	1485
551.4	1504
551.6	1515
551.8	1535
552.0	1555
552.2	1574
552.4	1598
552.6	1617
552.8	1629
553.0	1646
553.2	1664
553.4	1682
553.6	1706
553.8	1731
554.0	1756
554.2	1775
554.4	1790
554.6	1801
554.8	1811
555.0	1840
555.2	1868
555.4	1888
555.6	1919
555.8	1938
556.0	1965
556.2	1991
556.4	2015
556.6	2036
556.8	2066
557.0	2086
557.2	2113
557.4	2133
557.6	2159
557.8	2190
558.0	2216
558.2	2241
558.4	2255
558.6	2278
558.8	2307
559.0	2337
559.2	2365
559.4	2398
559.6	2416
559.8	2446
560.0	2479
560.2	2504
560.4	2529
560.6	2563
560.8	2589
561.0	2624
561.2	2650
561.4	2678
561.6	2703
561.8	2736
562.0	2765
562.2	2805
562.4	2829
562.6	2862
562.8	2894
563.0	2921
563.2	2953
563.4	2994
563.6	3018
563.8	3045
564.0	3070
564.2	3100
564.4	3139
564.6	3199
564.8	3234
565.0	3265
565.2	3295
565.4	3327
565.6	3353
565.8	3392
566.0	3427
566.2	3450
566.4	3489
566.6	3533
566.8	3565
567.0	3602
567.2	3655
567.4	3678
567.6	3707
567.8	3739
568.0	3767
568.2	3809
568.4	3856
568.6	3881
568.8	3915
569.0	3953
569.2	3999
569.4	4035
569.6	4070
569.8	4105
570.0	4136
570.2	4180
570.4	4224
570.6	4260
570.8	4297
571.0	4341
571.2	4372
571.4	4405
571.6	4436
571.8	4463
572.0	4504
572.2	4557
572.4	4601
572.6	4649
572.8	4692
573.0	4719
573.2	4757
573.4	4804
573.6	4834
573.8	4874
574.0	4898
574.2	4939
574.4	4977
574.6	5020
574.8	5066
575.0	5110
575.2	5150
575.4	5193
575.6	5224
575.8	5253
576.0	5302
576.2	5354
576.4	5404
576.6	5429
576.8	5465
577.0	5501
577.2	5537
577.4	5572
577.6	5606
577.8	5636
578.0	5672
578.2	5714
578.4	5754
578.6	5813
578.8	5849
579.0	5873
579.2	5905
579.4	5934
579.6	5972
579.8	6032
580.0	6064
580.2	6090
580.4	6121
580.6	6153
580.8	6186
581.0	6230
581.2	6277
581.4	6330
581.6	6350
581.8	6385
582.0	6406
582.2	6449
582.4	6498
582.6	6546
582.8	6572
583.0	6585
583.2	6588
583.4	6614
583.6	6650
583.8	6690
584.0	6740
584.2	6770
584.4	6804
584.6	6830
584.8	6869
585.0	6893
585.2	6920
585.4	6950
585.6	6978
585.8	7005
586.0	7061
586.2	7089
586.4	7121
586.6	7141
586.8	7149
587.0	7157
587.2	7183
587.4	7212
587.6	7245
587.8	7276
588.0	7308
588.2	7336
588.4	7371
588.6	7415
588.8	7446
589.0	7466
589.2	7484
589.4	7506
589.6	7525
589.8	7565
590.0	7603
590.2	7617
590.4	7625
590.6	7631
590.8	7650
591.0	7681
591.2	7722
591.4	7746
591.6	7756
591.8	7768
592.0	7780
592.2	7797
592.4	7821
592.6	7845
592.8	7878
593.0	7909
593.2	7920
593.4	7935
593.6	7958
593.8	7966
594.0	7989
594.2	8006
594.4	8041
594.6	8063
594.8	8067
595.0	8068
595.2	8064
595.4	8071
595.6	8104
595.8	8127
596.0	8143
596.2	8169
596.4	8183
596.6	8191
596.8	8208
597.0	8225
597.2	8240
597.4	8256
597.6	8272
597.8	8270
598.0	8282
598.2	8298
598.4	8309
598.6	8328
598.8	8347
599.0	8362
599.2	8368
599.4	8387
599.6	8394
599.8	8392
600.0	8400
600.2	8409
600.4	8415
600.6	8415
600.8	8427
601.0	8426
601.2	8436
601.4	8455
601.6	8470
601.8	8459
602.0	8466
602.2	8455
602.4	8462
602.6	8475
602.8	8478
603.0	8476
603.2	8478
603.4	8472
603.6	8483
603.8	8492
604.0	8507
604.2	8510
604.4	8520
604.6	8517
604.8	8509
605.0	8500
605.2	8516
605.4	8515
605.6	8524
605.8	8535
606.0	8534
606.2	8508
606.4	8500
606.6	8505
606.8	8505
607.0	8527
607.2	8529
607.4	8508
607.6	8477
607.8	8467
608.0	8462
608.2	8485
608.4	8492
608.6	8512
608.8	8502
609.0	8487
609.2	8475
609.4	8482
609.6	8475
609.8	8459
610.0	8451
610.2	8432
610.4	8419
610.6	8425
610.8	8421
611.0	8398
611.2	8407
611.4	8408
611.6	8412
611.8	8416
612.0	8417
612.2	8398
612.4	8386
612.6	8383
612.8	8390
613.0	8385
613.2	8371
613.4	8351
613.6	8306
613.8	8293
614.0	8287
614.2	8271
614.4	8272
614.6	8283
614.8	8257
615.0	8253
615.2	8235
615.4	8209
615.6	8205
615.8	8207
616.0	8193
616.2	8186
616.4	8178
616.6	8153
616.8	8142
617.0	8124
617.2	8105
617.4	8103
617.6	8100
617.8	8073
618.0	8038
618.2	8005
618.4	7988
618.6	7990
618.8	7990
619.0	7970
619.2	7944
619.4	7924
619.6	7912
619.8	7899
620.0	7883
620.2	7859
620.4	7836
620.6	7814
620.8	7793
621.0	7773
621.2	7749
621.4	7733
621.6	7722
621.8	7706
622.0	7693
622.2	7674
622.4	7644
622.6	7639
622.8	7637
623.0	7630
623.2	7625
623.4	7598
623.6	7572
623.8	7546
624.0	7513
624.2	7498
624.4	7475
624.6	7446
624.8	7430
625.0	7410
625.2	7390
625.4	7374
625.6	7336
625.8	7305
626.0	7276
626.2	7262
626.4	7252
626.6	7245
626.8	7222
627.0	7201
627.2	7174
627.4	7136
627.6	7112
627.8	7084
628.0	7046
628.2	7016
628.4	6997
628.6	6991
628.8	6981
629.0	6967
629.2	6944
629.4	6916
629.6	6886
629.8	6865
630.0	6823
630.2	6820
630.4	6813
630.6	6807
630.8	6787
631.0	6743
631.2	6710
631.4	6692
631.6	6660
631.8	6657
632.0	6647
632.2	6627
632.4	6606
632.6	6576
632.8	6529
633.0	6502
633.2	6481
633.4	6456
633.6	6435
633.8	6420
634.0	6394
634.2	6388
634.4	6360
634.6	6320
634.8	6288
635.0	6261
635.2	6236
635.4	6226
635.6	6199
635.8	6179
636.0	6152
636.2	6125
636.4	6095
636.6	6077
636.8	6063
637.0	6051
637.2	6032
637.4	5997
637.6	5962
637.8	5935
638.0	5910
638.2	5883
638.4	5862
638.6	5834
638.8	5825
639.0	5807
639.2	5788
639.4	5756
639.6	5736
639.8	5712
640.0	5682
640.2	5647
640.4	5614
640.6	5581
640.8	5583
641.0	5566
641.2	5537
641.4	5499
641.6	5467
641.8	5440
642.0	5430
642.2	5409
642.4	5385
642.6	5351
642.8	5331
643.0	5319
643.2	5298
643.4	5265
643.6	5234
643.8	5203
644.0	5179
644.2	5162
644.4	5143
644.6	5124
644.8	5111
645.0	5082
645.2	5045
645.4	5010
645.6	4982
645.8	4969
646.0	4961
646.2	4938
646.4	4911
646.6	4889
646.8	4848
647.0	4827
647.2	4809
647.4	4790
647.6	4776
647.8	4767
648.0	4729
648.2	4708
648.4	4679
648.6	4655
648.8	4637
649.0	4616
649.2	4581
649.4	4548
649.6	4526
649.8	4512
650.0	4493
650.2	4467
650.4	4448
650.6	4430
650.8	4425
651.0	4420
651.2	4387
651.4	4357
651.6	4332
651.8	4296
652.0	4277
652.2	4260
652.4	4232
652.6	4207
652.8	4193
653.0	4161
653.2	4151
653.4	4149
653.6	4133
653.8	4120
654.0	4104
654.2	4069
654.4	4045
654.6	4011
654.8	3980
655.0	3963
655.2	3950
655.4	3933
655.6	3922
655.8	3889
656.0	3859
656.2	3836
656.4	3818
656.6	3806
656.8	3802
657.0	3771
657.2	3741
657.4	3721
657.6	3698
657.8	3686
658.0	3672
658.2	3648
658.4	3630
658.6	3615
658.8	3600
659.0	3577
659.2	3561
659.4	3536
659.6	3511
659.8	3490
660.0	3481
660.2	3466
660.4	3462
660.6	3435
660.8	3405
661.0	3369
661.2	3361
661.4	3335
661.6	3327
661.8	3312
662.0	3302
662.2	3285
662.4	3263
662.6	3225
662.8	3207
663.0	3183
663.2	3174
663.4	3167
663.6	3151
663.8	3132
664.0	3118
664.2	3097
664.4	3085
664.6	3071
664.8	3062
665.0	3038
665.2	3010
665.4	2987
665.6	2969
665.8	2947
666.0	2937
666.2	2916
666.4	2904
666.6	2894
666.8	2882
667.0	2872
667.2	2856
667.4	2833
667.6	2811
667.8	2789
668.0	2778
668.2	2768
668.4	2748
668.6	2741
668.8	2723
669.0	2690
669.2	2683
669.4	2667
669.6	2649
669.8	2643
670.0	2625
670.2	2595
670.4	2579
670.6	2566
670.8	2546
671.0	2536
671.2	2529
671.4	2521
671.6	2511
671.8	2505
672.0	2476
672.2	2459
672.4	2443
672.6	2424
672.8	2413
673.0	2403
673.2	2388
673.4	2375
673.6	2361
673.8	2345
674.0	2328
674.2	2312
674.4	2302
674.6	2287
674.8	2274
675.0	2262
675.2	2246
675.4	2228
675.6	2213
675.8	2201
676.0	2201
676.2	2187
676.4	2180
676.6	2164
676.8	2139
677.0	2128
677.2	2121
677.4	2109
677.6	2113
677.8	2100
678.0	2074
678.2	2063
678.4	2035
678.6	2020
678.8	2015
679.0	2004
679.2	1995
679.4	1988
679.6	1965
679.8	1954
680.0	1947
680.2	1942
680.4	1932
680.6	1913
680.8	1893
681.0	1877
681.2	1859
681.4	1852
681.6	1842
681.8	1832
682.0	1827
682.2	1816
682.4	1803
682.6	1805
682.8	1793
683.0	1781
683.2	1763
683.4	1753
683.6	1735
683.8	1730
684.0	1712
684.2	1698
684.4	1680
684.6	1680
684.8	1669
685.0	1664
685.2	1656
685.4	1644
685.6	1632
685.8	1628
686.0	1618
686.2	1606
686.4	1596
686.6	1587
686.8	1572
687.0	1552
687.2	1538
687.4	1521
687.6	1511
687.8	1515
688.0	1514
688.2	1503
688.4	1501
688.6	1490
688.8	1476
689.0	1468
689.2	1457
689.4	1446
689.6	1437
689.8	1432
690.0	1428
690.2	1429
690.4	1418
690.6	1406
690.8	1390
691.0	1375
691.2	1368
691.4	1362
691.6	1351
691.8	1344
692.0	1337
692.2	1326
692.4	1319
692.6	1306
692.8	1298
693.0	1297
693.2	1302
693.4	1295
693.6	1287
693.8	1272
694.0	1263
694.2	1248
694.4	1242
694.6	1231
694.8	1226
695.0	1223
695.2	1229
695.4	1215
695.6	1207
695.8	1199
696.0	1185
696.2	1176
696.4	1173
696.6	1173
696.8	1173
697.0	1164
697.2	1149
697.4	1137
697.6	1135
697.8	1134
698.0	1132
698.2	1122
698.4	1113
698.6	1105
698.8	1098
699.0	1092
699.2	1094
699.4	1085
699.6	1075
699.8	1060
700.0	1044
700.2	1043
700.4	1044
700.6	1043
700.8	1045
701.0	1035
701.2	1024
701.4	1012
701.6	1007
701.8	1003
702.0	1007
702.2	1002
702.4	1000
702.6	987.6
702.8	979.4
703.0	966.9
703.2	966.8
703.4	961.9
703.6	962.5
703.8	952.2
704.0	944.4
704.2	939.4
704.4	936.7
704.6	930.2
704.8	927.0
705.0	918.0
705.2	915.0
705.4	910.6
705.6	898.2
705.8	892.1
706.0	889.3
706.2	885.3
706.4	883.7
706.6	884.3
706.8	874.2
707.0	864.2
707.2	857.6
707.4	858.2
707.6	856.1
707.8	856.2
708.0	848.9
708.2	836.1
708.4	827.3
708.6	826.5
708.8	820.3
709.0	810.3
709.2	801.5
709.4	796.5
709.6	794.5
709.8	795.2
710.0	797.2
710.2	795.0
710.4	789.0
710.6	785.5
710.8	777.2
711.0	763.6
711.2	757.1
711.4	753.4
711.6	746.0
711.8	744.2
712.0	739.6
712.2	730.5
712.4	728.6
712.6	723.9
712.8	715.7
713.0	712.9
713.2	706.2
713.4	703.7
713.6	696.4
713.8	691.7
714.0	689.4
714.2	685.9
714.4	681.5
714.6	681.3
714.8	674.6
715.0	672.0
715.2	668.6
715.4	665.1
715.6	660.4
715.8	654.0
716.0	642.2
716.2	632.3
716.4	627.1
716.6	627.5
716.8	628.3
717.0	633.5
717.2	629.4
717.4	621.6
717.6	617.2
717.8	610.6
718.0	602.6
718.2	602.1
718.4	600.1
718.6	595.8
718.8	595.2
719.0	592.5
719.2	581.0
719.4	574.8
719.6	570.7
719.8	567.1
720.0	566.9
720.2	565.5
720.4	556.1
720.6	550.7
720.8	546.0
721.0	544.3
721.2	547.3
721.4	548.7
721.6	545.2
721.8	539.1
722.0	529.1
722.2	522.1
722.4	515.5
722.6	512.3
722.8	508.9
723.0	506.9
723.2	502.3
723.4	498.6
723.6	493.9
723.8	486.4
724.0	483.5
724.2	480.4
724.4	479.4
724.6	476.3
724.8	474.9
725.0	471.2
725.2	470.3
725.4	468.6
725.6	464.3
725.8	458.6
726.0	454.3
726.2	453.6
726.4	450.1
726.6	449.8
726.8	443.7
727.0	439.9
727.2	433.1
727.4	430.6
727.6	427.9
727.8	424.3
728.0	420.6
728.2	416.8
728.4	412.7
728.6	411.2
728.8	411.6
729.0	409.7
729.2	406.8
729.4	400.6
729.6	399.2
729.8	397.4
730.0	391.5
730.2	388.7
730.4	383.8
730.6	378.9
730.8	377.5
731.0	378.8
731.2	374.1
731.4	371.2
731.6	367.0
731.8	360.3
732.0	354.0
732.2	357.2
732.4	355.9
732.6	356.9
732.8	355.4
733.0	351.5
733.2	346.6
733.4	347.2
733.6	343.5
733.8	341.0
734.0	336.8
734.2	334.8
734.4	331.6
734.6	329.9
734.8	325.2
735.0	324.1
735.2	323.2
735.4	321.6
735.6	317.0
735.8	309.1
736.0	304.9
736.2	306.6
736.4	306.7
736.6	305.5
736.8	303.2
737.0	298.0
737.2	297.3
737.4	295.1
737.6	293.0
737.8	293.5
738.0	292.9
738.2	288.7
738.4	282.9
738.6	276.9
738.8	274.3
739.0	273.7
739.2	273.5
739.4	270.8
739.6	270.3
739.8	271.0
740.0	271.7
740.2	268.4
740.4	265.2
740.6	259.0
740.8	258.1
741.0	259.8
741.2	259.3
741.4	255.4
741.6	251.1
741.8	243.7
742.0	241.4
742.2	243.8
742.4	243.6
742.6	240.4
742.8	240.2
743.0	237.1
743.2	235.2
743.4	234.3
743.6	232.8
743.8	229.3
744.0	230.3
744.2	231.2
744.4	232.6
744.6	230.5
744.8	229.2
745.0	223.8
745.2	218.9
745.4	213.9
745.6	213.7
745.8	211.6
746.0	214.4
746.2	214.6
746.4	211.6
746.6	208.1
746.8	207.2
747.0	206.1
747.2	208.8
747.4	206.7
747.6	201.9
747.8	198.9
748.0	196.0
748.2	192.4
748.4	193.2
748.6	192.4
748.8	191.2
749.0	191.0
749.2	190.9
749.4	188.2
749.6	189.4
749.8	192.5
750.0	190.1
750.2	186.7
750.4	181.2
750.6	179.9
750.8	179.5
751.0	181.9
751.2	180.4
751.4	177.6
751.6	173.2
751.8	172.4
752.0	170.7
752.2	169.2
752.4	166.6
752.6	165.4
752.8	164.1
753.0	160.5
753.2	157.9
753.4	157.3
753.6	158.5
753.8	161.4
754.0	162.5
754.2	160.9
754.4	158.2
754.6	154.9
754.8	153.7
755.0	152.8
755.2	152.4
755.4	153.9
755.6	153.4
755.8	151.8
756.0	149.5
756.2	147.0
756.4	145.3
756.6	145.7
756.8	146.1
757.0	146.0
757.2	144.6
757.4	144.3
757.6	142.0
757.8	140.3
758.0	139.7
758.2	139.4
758.4	140.4
758.6	140.1
758.8	137.9
759.0	135.6
759.2	132.8
759.4	131.1
759.6	131.0
759.8	130.0
760.0	129.3
760.2	127.1
760.4	125.7
760.6	125.5
760.8	125.4
761.0	124.8
761.2	122.6
761.4	120.5
761.6	118.9
761.8	120.0
762.0	118.7
762.2	117.3
762.4	115.8
762.6	116.4
762.8	115.6
763.0	115.1
763.2	114.2
763.4	113.5
763.6	112.0
763.8	111.8
764.0	111.9
764.2	110.7
764.4	110.9
764.6	110.0
764.8	109.0
765.0	108.0
765.2	106.1
765.4	103.3
765.6	102.8
765.8	102.5
766.0	103.1
766.2	103.3
766.4	102.8
766.6	103.3
766.8	102.4
767.0	101.5
767.2	100.5
767.4	97.87
767.6	97.43
767.8	97.60
768.0	95.39
768.2	96.11
768.4	96.16
768.6	93.85
768.8	93.49
769.0	92.48
769.2	90.13
769.4	89.92
769.6	89.08
769.8	88.12
770.0	88.42
770.2	88.19
770.4	86.94
770.6	85.50
770.8	86.31
771.0	88.75
771.2	89.66
771.4	89.27
771.6	85.02
771.8	81.02
772.0	80.25
772.2	81.76
772.4	81.65
772.6	82.81
772.8	80.21
773.0	79.31
773.2	78.15
773.4	78.72
773.6	77.36
773.8	78.21
774.0	77.57
774.2	77.71
774.4	76.82
774.6	76.84
774.8	75.44
775.0	75.48
775.2	75.10
775.4	76.03
775.6	76.36
775.8	74.34
776.0	72.61
776.2	71.39
776.4	70.66
776.6	71.21
776.8	71.86
777.0	70.01
777.2	69.88
777.4	70.40
777.6	69.65
777.8	69.31
778.0	69.80
778.2	67.68
778.4	66.76
778.6	67.02
778.8	64.97
779.0	64.76
779.2	66.18
779.4	65.60
779.6	65.06
779.8	65.51
780.0	62.66
780.2	60.97
780.4	61.01
780.6	60.91
780.8	60.79
781.0	61.00
781.2	58.74
781.4	58.02
781.6	58.90
781.8	60.32
782.0	61.39
782.2	62.29
782.4	61.30
782.6	59.40
782.8	58.91
783.0	59.06
783.2	58.78
783.4	59.32
783.6	58.37
783.8	57.32
784.0	57.56
784.2	56.61
784.4	56.13
784.6	54.62
784.8	53.36
785.0	53.36
785.2	54.21
785.4	54.06
785.6	55.19
785.8	54.32
786.0	53.71
786.2	52.90
786.4	53.72
786.6	54.09
786.8	53.71
787.0	53.26
787.2	52.04
787.4	50.41
787.6	49.75
787.8	49.67
788.0	48.50
788.2	50.64
788.4	52.10
788.6	52.32
788.8	52.86
789.0	52.46
789.2	50.68
789.4	50.72
789.6	49.44
789.8	47.06
790.0	46.63
790.2	46.57
790.4	47.60
790.6	49.51
790.8	50.74
791.0	48.76
791.2	47.34
791.4	46.66
791.6	46.53
791.8	46.62
792.0	47.05
792.2	45.18
792.4	43.79
792.6	42.77
792.8	42.68
793.0	43.46
793.2	44.35
793.4	45.89
793.6	46.62
793.8	45.58
794.0	45.24
794.2	44.72
794.4	44.13
794.6	44.36
794.8	43.44
795.0	42.47
795.2	42.51
795.4	43.19
795.6	44.74
795.8	46.11
796.0	45.58
796.2	45.04
796.4	43.26
796.6	42.64
796.8	41.86
797.0	41.26
797.2	40.90
797.4	41.84
797.6	41.64
797.8	42.17
798.0	41.19
798.2	40.12
798.4	41.72
798.6	42.93
798.8	42.80
799.0	41.49
799.2	40.22
799.4	37.88
799.6	38.18
799.8	39.00
800.0	39.78

