Sample:	'20211010A(EM)
File name:	R-CDs 2.FDS
Run date:	'15:42:58, 06/09/2023
Operator:	Administrator
Comment:	'

Instrument
Model:	F-4700 FL Spectrophotometer
Serial number:	2019-001
ROM Version:	5J24010 00

Instrument parameters
Measurement type:	Wavelength scan
Scan mode:	Emission
Data mode:	Fluorescence
EX WL:	520.0 nm
EM  Start WL:	540.0 nm
EM  End WL:	800.0 nm
Scan speed:	1200 nm/min
Delay:	0.0 s
EX Slit:	10.0 nm
EM Slit:	10.0 nm
PMT Voltage:	650 V
Response:	0.002 s
Corrected spectra:	Off
Shutter control:	On

Processing performed
Savitsky-Golay smoothed
Smoothing order:	3
Number of points:	7
Number of times:	1

Peak integration
Integration method:	Rectangular
Sensitivity:	1
Threshold:	1.000

Peaks
No.	Start(nm)	Apex(nm)	End(nm)	Height(Data)	Valley(nm)	Valley(Data)
1	540.0	604.2	605.8	9595	605.8	9550
2	605.8	607.0	610.0	9588	610.0	9455
3	610.0	611.0	767.8	9473	767.8	108.8
4	767.8	768.6	780.0	114.6	780.0	71.39
5	780.0	780.8	782.8	73.04	782.8	65.17
6	782.8	783.8	785.6	68.51	785.6	62.54
7	785.6	786.6	788.2	64.86	788.2	55.93
8	788.2	789.6	793.4	60.18	793.4	50.29
9	793.4	795.0	797.8	53.48	797.8	46.76

Data points
nm	Data
540.0	890.9
540.2	883.1
540.4	892.2
540.6	910.6
540.8	925.7
541.0	945.9
541.2	955.4
541.4	963.4
541.6	969.4
541.8	982.6
542.0	995.7
542.2	1014
542.4	1027
542.6	1040
542.8	1053
543.0	1069
543.2	1090
543.4	1095
543.6	1105
543.8	1118
544.0	1122
544.2	1139
544.4	1161
544.6	1180
544.8	1195
545.0	1212
545.2	1224
545.4	1237
545.6	1250
545.8	1266
546.0	1277
546.2	1295
546.4	1309
546.6	1313
546.8	1324
547.0	1338
547.2	1359
547.4	1390
547.6	1413
547.8	1421
548.0	1442
548.2	1453
548.4	1460
548.6	1477
548.8	1498
549.0	1518
549.2	1545
549.4	1560
549.6	1574
549.8	1598
550.0	1621
550.2	1640
550.4	1666
550.6	1679
550.8	1698
551.0	1729
551.2	1745
551.4	1751
551.6	1773
551.8	1777
552.0	1797
552.2	1829
552.4	1857
552.6	1876
552.8	1901
553.0	1925
553.2	1940
553.4	1966
553.6	1984
553.8	2010
554.0	2036
554.2	2070
554.4	2094
554.6	2119
554.8	2128
555.0	2155
555.2	2166
555.4	2188
555.6	2213
555.8	2238
556.0	2260
556.2	2293
556.4	2311
556.6	2348
556.8	2379
557.0	2397
557.2	2420
557.4	2456
557.6	2483
557.8	2530
558.0	2563
558.2	2579
558.4	2597
558.6	2622
558.8	2653
559.0	2693
559.2	2716
559.4	2736
559.6	2762
559.8	2799
560.0	2848
560.2	2886
560.4	2908
560.6	2924
560.8	2943
561.0	2974
561.2	3021
561.4	3063
561.6	3105
561.8	3150
562.0	3173
562.2	3207
562.4	3238
562.6	3264
562.8	3287
563.0	3317
563.2	3345
563.4	3384
563.6	3417
563.8	3472
564.0	3521
564.2	3550
564.4	3579
564.6	3602
564.8	3646
565.0	3706
565.2	3754
565.4	3786
565.6	3821
565.8	3850
566.0	3902
566.2	3937
566.4	3968
566.6	4012
566.8	4060
567.0	4115
567.2	4170
567.4	4206
567.6	4241
567.8	4279
568.0	4304
568.2	4336
568.4	4377
568.6	4438
568.8	4495
569.0	4554
569.2	4595
569.4	4623
569.6	4661
569.8	4719
570.0	4758
570.2	4798
570.4	4842
570.6	4886
570.8	4914
571.0	4970
571.2	5011
571.4	5049
571.6	5100
571.8	5156
572.0	5190
572.2	5231
572.4	5292
572.6	5346
572.8	5411
573.0	5467
573.2	5508
573.4	5529
573.6	5567
573.8	5608
574.0	5649
574.2	5691
574.4	5738
574.6	5775
574.8	5813
575.0	5881
575.2	5925
575.4	5973
575.6	6021
575.8	6051
576.0	6073
576.2	6114
576.4	6151
576.6	6198
576.8	6271
577.0	6344
577.2	6390
577.4	6410
577.6	6444
577.8	6467
578.0	6513
578.2	6576
578.4	6636
578.6	6667
578.8	6715
579.0	6773
579.2	6815
579.4	6874
579.6	6907
579.8	6930
580.0	6940
580.2	6968
580.4	6981
580.6	7024
580.8	7067
581.0	7139
581.2	7197
581.4	7250
581.6	7277
581.8	7313
582.0	7349
582.2	7389
582.4	7412
582.6	7462
582.8	7501
583.0	7547
583.2	7587
583.4	7631
583.6	7652
583.8	7681
584.0	7717
584.2	7743
584.4	7781
584.6	7825
584.8	7852
585.0	7864
585.2	7908
585.4	7934
585.6	7961
585.8	7995
586.0	8038
586.2	8054
586.4	8103
586.6	8154
586.8	8185
587.0	8207
587.2	8247
587.4	8266
587.6	8301
587.8	8344
588.0	8377
588.2	8397
588.4	8417
588.6	8439
588.8	8449
589.0	8466
589.2	8487
589.4	8519
589.6	8550
589.8	8590
590.0	8643
590.2	8698
590.4	8709
590.6	8728
590.8	8732
591.0	8753
591.2	8782
591.4	8810
591.6	8815
591.8	8825
592.0	8832
592.2	8861
592.4	8895
592.6	8925
592.8	8929
593.0	8940
593.2	8970
593.4	9018
593.6	9081
593.8	9101
594.0	9098
594.2	9113
594.4	9126
594.6	9143
594.8	9178
595.0	9194
595.2	9217
595.4	9227
595.6	9225
595.8	9216
596.0	9220
596.2	9236
596.4	9242
596.6	9259
596.8	9280
597.0	9292
597.2	9337
597.4	9383
597.6	9396
597.8	9411
598.0	9400
598.2	9368
598.4	9349
598.6	9360
598.8	9385
599.0	9422
599.2	9443
599.4	9434
599.6	9401
599.8	9394
600.0	9413
600.2	9442
600.4	9452
600.6	9465
600.8	9471
601.0	9493
601.2	9519
601.4	9531
601.6	9526
601.8	9513
602.0	9493
602.2	9500
602.4	9529
602.6	9559
602.8	9582
603.0	9585
603.2	9565
603.4	9548
603.6	9563
603.8	9561
604.0	9563
604.2	9595
604.4	9590
604.6	9576
604.8	9579
605.0	9562
605.2	9555
605.4	9572
605.6	9557
605.8	9550
606.0	9554
606.2	9569
606.4	9567
606.6	9560
606.8	9584
607.0	9588
607.2	9568
607.4	9570
607.6	9550
607.8	9549
608.0	9563
608.2	9554
608.4	9534
608.6	9530
608.8	9519
609.0	9534
609.2	9519
609.4	9516
609.6	9509
609.8	9486
610.0	9455
610.2	9460
610.4	9463
610.6	9461
610.8	9472
611.0	9473
611.2	9457
611.4	9468
611.6	9468
611.8	9448
612.0	9427
612.2	9396
612.4	9357
612.6	9362
612.8	9368
613.0	9379
613.2	9362
613.4	9332
613.6	9303
613.8	9291
614.0	9269
614.2	9263
614.4	9241
614.6	9236
614.8	9229
615.0	9228
615.2	9211
615.4	9208
615.6	9174
615.8	9163
616.0	9155
616.2	9151
616.4	9158
616.6	9136
616.8	9098
617.0	9070
617.2	9053
617.4	9049
617.6	9059
617.8	9036
618.0	9019
618.2	8992
618.4	8967
618.6	8953
618.8	8923
619.0	8898
619.2	8883
619.4	8873
619.6	8860
619.8	8836
620.0	8798
620.2	8779
620.4	8764
620.6	8747
620.8	8733
621.0	8717
621.2	8690
621.4	8667
621.6	8624
621.8	8604
622.0	8584
622.2	8580
622.4	8554
622.6	8536
622.8	8522
623.0	8516
623.2	8481
623.4	8458
623.6	8410
623.8	8394
624.0	8385
624.2	8372
624.4	8324
624.6	8309
624.8	8273
625.0	8251
625.2	8226
625.4	8210
625.6	8152
625.8	8116
626.0	8093
626.2	8077
626.4	8056
626.6	8035
626.8	8012
627.0	7975
627.2	7964
627.4	7936
627.6	7900
627.8	7871
628.0	7869
628.2	7860
628.4	7838
628.6	7802
628.8	7793
629.0	7773
629.2	7764
629.4	7741
629.6	7686
629.8	7650
630.0	7619
630.2	7573
630.4	7567
630.6	7546
630.8	7533
631.0	7505
631.2	7477
631.4	7445
631.6	7408
631.8	7375
632.0	7368
632.2	7332
632.4	7321
632.6	7297
632.8	7247
633.0	7215
633.2	7195
633.4	7161
633.6	7136
633.8	7111
634.0	7074
634.2	7051
634.4	7027
634.6	6981
634.8	6941
635.0	6940
635.2	6928
635.4	6916
635.6	6893
635.8	6857
636.0	6811
636.2	6776
636.4	6744
636.6	6719
636.8	6710
637.0	6696
637.2	6667
637.4	6645
637.6	6610
637.8	6591
638.0	6575
638.2	6546
638.4	6508
638.6	6495
638.8	6452
639.0	6408
639.2	6377
639.4	6351
639.6	6329
639.8	6318
640.0	6283
640.2	6241
640.4	6217
640.6	6177
640.8	6152
641.0	6137
641.2	6107
641.4	6096
641.6	6080
641.8	6050
642.0	6023
642.2	5999
642.4	5969
642.6	5949
642.8	5910
643.0	5877
643.2	5854
643.4	5817
643.6	5791
643.8	5766
644.0	5746
644.2	5722
644.4	5686
644.6	5654
644.8	5634
645.0	5601
645.2	5599
645.4	5586
645.6	5557
645.8	5540
646.0	5514
646.2	5454
646.4	5436
646.6	5406
646.8	5378
647.0	5350
647.2	5332
647.4	5303
647.6	5297
647.8	5264
648.0	5236
648.2	5195
648.4	5168
648.6	5158
648.8	5154
649.0	5135
649.2	5128
649.4	5092
649.6	5056
649.8	5039
650.0	5008
650.2	4973
650.4	4938
650.6	4902
650.8	4884
651.0	4887
651.2	4862
651.4	4844
651.6	4811
651.8	4774
652.0	4752
652.2	4738
652.4	4703
652.6	4678
652.8	4652
653.0	4615
653.2	4592
653.4	4571
653.6	4558
653.8	4536
654.0	4516
654.2	4478
654.4	4450
654.6	4432
654.8	4422
655.0	4398
655.2	4382
655.4	4340
655.6	4324
655.8	4305
656.0	4273
656.2	4246
656.4	4229
656.6	4216
656.8	4220
657.0	4195
657.2	4172
657.4	4140
657.6	4114
657.8	4100
658.0	4099
658.2	4068
658.4	4049
658.6	4013
658.8	3973
659.0	3948
659.2	3945
659.4	3915
659.6	3893
659.8	3883
660.0	3867
660.2	3851
660.4	3824
660.6	3783
660.8	3747
661.0	3734
661.2	3718
661.4	3696
661.6	3673
661.8	3652
662.0	3632
662.2	3620
662.4	3607
662.6	3594
662.8	3586
663.0	3574
663.2	3546
663.4	3514
663.6	3493
663.8	3476
664.0	3460
664.2	3446
664.4	3417
664.6	3387
664.8	3362
665.0	3350
665.2	3339
665.4	3335
665.6	3319
665.8	3294
666.0	3257
666.2	3222
666.4	3202
666.6	3190
666.8	3187
667.0	3174
667.2	3167
667.4	3142
667.6	3121
667.8	3099
668.0	3076
668.2	3057
668.4	3045
668.6	3023
668.8	3010
669.0	2988
669.2	2962
669.4	2958
669.6	2944
669.8	2929
670.0	2909
670.2	2873
670.4	2862
670.6	2865
670.8	2857
671.0	2852
671.2	2828
671.4	2795
671.6	2775
671.8	2759
672.0	2744
672.2	2738
672.4	2728
672.6	2706
672.8	2675
673.0	2643
673.2	2635
673.4	2625
673.6	2619
673.8	2604
674.0	2591
674.2	2573
674.4	2568
674.6	2549
674.8	2531
675.0	2495
675.2	2479
675.4	2468
675.6	2462
675.8	2451
676.0	2441
676.2	2412
676.4	2394
676.6	2378
676.8	2380
677.0	2378
677.2	2361
677.4	2343
677.6	2321
677.8	2298
678.0	2293
678.2	2281
678.4	2278
678.6	2273
678.8	2251
679.0	2224
679.2	2206
679.4	2192
679.6	2189
679.8	2177
680.0	2158
680.2	2140
680.4	2134
680.6	2130
680.8	2117
681.0	2100
681.2	2076
681.4	2049
681.6	2044
681.8	2045
682.0	2038
682.2	2035
682.4	2008
682.6	1977
682.8	1964
683.0	1959
683.2	1952
683.4	1949
683.6	1937
683.8	1920
684.0	1900
684.2	1881
684.4	1874
684.6	1867
684.8	1870
685.0	1857
685.2	1840
685.4	1823
685.6	1818
685.8	1808
686.0	1795
686.2	1778
686.4	1756
686.6	1737
686.8	1736
687.0	1726
687.2	1714
687.4	1704
687.6	1688
687.8	1665
688.0	1657
688.2	1647
688.4	1644
688.6	1644
688.8	1643
689.0	1638
689.2	1631
689.4	1626
689.6	1609
689.8	1596
690.0	1573
690.2	1565
690.4	1561
690.6	1556
690.8	1547
691.0	1539
691.2	1514
691.4	1505
691.6	1500
691.8	1489
692.0	1481
692.2	1468
692.4	1440
692.6	1433
692.8	1427
693.0	1427
693.2	1426
693.4	1423
693.6	1415
693.8	1404
694.0	1392
694.2	1379
694.4	1371
694.6	1359
694.8	1358
695.0	1356
695.2	1358
695.4	1346
695.6	1337
695.8	1318
696.0	1313
696.2	1309
696.4	1305
696.6	1296
696.8	1287
697.0	1278
697.2	1275
697.4	1269
697.6	1256
697.8	1245
698.0	1239
698.2	1237
698.4	1232
698.6	1225
698.8	1209
699.0	1206
699.2	1198
699.4	1195
699.6	1195
699.8	1191
700.0	1182
700.2	1179
700.4	1166
700.6	1154
700.8	1147
701.0	1145
701.2	1142
701.4	1138
701.6	1131
701.8	1127
702.0	1121
702.2	1108
702.4	1098
702.6	1088
702.8	1075
703.0	1080
703.2	1084
703.4	1074
703.6	1065
703.8	1054
704.0	1038
704.2	1036
704.4	1036
704.6	1029
704.8	1026
705.0	1018
705.2	1014
705.4	1011
705.6	1005
705.8	1002
706.0	993.7
706.2	981.4
706.4	974.8
706.6	969.7
706.8	970.9
707.0	978.2
707.2	969.0
707.4	954.5
707.6	939.2
707.8	931.4
708.0	929.1
708.2	927.9
708.4	925.2
708.6	914.9
708.8	912.1
709.0	911.2
709.2	908.5
709.4	902.6
709.6	896.6
709.8	889.2
710.0	878.1
710.2	874.2
710.4	867.1
710.6	860.3
710.8	854.5
711.0	851.9
711.2	839.6
711.4	834.6
711.6	831.5
711.8	830.2
712.0	833.5
712.2	834.7
712.4	826.2
712.6	814.4
712.8	800.9
713.0	791.4
713.2	784.8
713.4	777.4
713.6	776.4
713.8	767.7
714.0	759.0
714.2	758.6
714.4	756.1
714.6	757.6
714.8	762.7
715.0	759.8
715.2	752.6
715.4	745.5
715.6	736.3
715.8	727.5
716.0	723.4
716.2	715.0
716.4	710.9
716.6	705.2
716.8	707.3
717.0	711.1
717.2	710.9
717.4	702.2
717.6	697.1
717.8	682.5
718.0	676.7
718.2	671.7
718.4	664.5
718.6	663.4
718.8	654.9
719.0	646.7
719.2	639.6
719.4	632.1
719.6	631.8
719.8	636.2
720.0	626.3
720.2	621.0
720.4	616.5
720.6	613.2
720.8	613.3
721.0	615.1
721.2	604.4
721.4	595.8
721.6	587.1
721.8	588.4
722.0	585.5
722.2	582.9
722.4	577.0
722.6	570.5
722.8	565.4
723.0	568.5
723.2	566.0
723.4	560.9
723.6	557.4
723.8	554.4
724.0	548.1
724.2	546.3
724.4	545.8
724.6	542.7
724.8	535.1
725.0	536.0
725.2	526.0
725.4	520.4
725.6	515.7
725.8	511.2
726.0	507.2
726.2	509.3
726.4	505.2
726.6	501.6
726.8	494.0
727.0	481.3
727.2	473.0
727.4	470.7
727.6	470.8
727.8	471.2
728.0	469.6
728.2	462.9
728.4	457.1
728.6	459.3
728.8	457.9
729.0	452.8
729.2	450.6
729.4	449.4
729.6	446.4
729.8	444.5
730.0	438.7
730.2	431.1
730.4	428.1
730.6	425.6
730.8	421.2
731.0	418.3
731.2	415.4
731.4	415.0
731.6	418.2
731.8	415.1
732.0	411.0
732.2	404.9
732.4	398.7
732.6	393.9
732.8	391.1
733.0	391.1
733.2	389.3
733.4	383.9
733.6	381.2
733.8	377.3
734.0	369.8
734.2	372.1
734.4	368.6
734.6	363.6
734.8	360.3
735.0	359.4
735.2	356.3
735.4	358.6
735.6	357.9
735.8	352.5
736.0	345.4
736.2	341.1
736.4	337.2
736.6	341.0
736.8	342.3
737.0	341.6
737.2	338.4
737.4	336.4
737.6	327.4
737.8	322.9
738.0	320.8
738.2	321.6
738.4	319.1
738.6	321.1
738.8	319.4
739.0	316.7
739.2	317.6
739.4	315.9
739.6	309.2
739.8	302.7
740.0	301.0
740.2	297.4
740.4	298.0
740.6	295.0
740.8	294.6
741.0	290.3
741.2	287.8
741.4	286.4
741.6	288.7
741.8	283.5
742.0	283.0
742.2	277.3
742.4	272.7
742.6	268.4
742.8	267.5
743.0	264.2
743.2	265.3
743.4	266.7
743.6	266.4
743.8	259.9
744.0	255.2
744.2	252.9
744.4	250.5
744.6	251.6
744.8	252.3
745.0	252.7
745.2	250.6
745.4	247.4
745.6	240.9
745.8	233.9
746.0	231.4
746.2	233.9
746.4	234.7
746.6	231.9
746.8	230.0
747.0	230.0
747.2	227.2
747.4	225.5
747.6	221.2
747.8	218.4
748.0	213.8
748.2	214.2
748.4	212.1
748.6	212.1
748.8	215.5
749.0	218.6
749.2	213.6
749.4	208.4
749.6	204.4
749.8	205.3
750.0	210.4
750.2	210.4
750.4	207.4
750.6	201.6
750.8	197.7
751.0	198.2
751.2	201.2
751.4	200.7
751.6	199.1
751.8	195.1
752.0	194.0
752.2	190.6
752.4	189.6
752.6	189.2
752.8	188.5
753.0	187.4
753.2	184.9
753.4	180.9
753.6	178.4
753.8	175.3
754.0	173.6
754.2	174.0
754.4	172.5
754.6	171.8
754.8	169.5
755.0	167.7
755.2	168.3
755.4	171.5
755.6	171.6
755.8	169.7
756.0	166.8
756.2	168.1
756.4	168.3
756.6	168.3
756.8	162.9
757.0	157.0
757.2	155.0
757.4	154.6
757.6	155.3
757.8	156.7
758.0	154.5
758.2	152.8
758.4	154.3
758.6	155.1
758.8	154.4
759.0	152.8
759.2	150.5
759.4	148.4
759.6	147.2
759.8	146.8
760.0	142.6
760.2	139.4
760.4	139.8
760.6	139.6
760.8	140.4
761.0	141.3
761.2	140.8
761.4	139.0
761.6	137.9
761.8	137.5
762.0	137.3
762.2	138.1
762.4	137.3
762.6	132.8
762.8	129.1
763.0	125.0
763.2	121.2
763.4	123.9
763.6	125.7
763.8	125.4
764.0	126.9
764.2	124.4
764.4	121.5
764.6	122.5
764.8	121.8
765.0	121.1
765.2	121.0
765.4	121.9
765.6	122.8
765.8	122.3
766.0	119.6
766.2	118.1
766.4	113.8
766.6	112.0
766.8	113.0
767.0	112.8
767.2	112.0
767.4	111.7
767.6	109.8
767.8	108.8
768.0	111.5
768.2	112.5
768.4	114.5
768.6	114.6
768.8	111.6
769.0	110.4
769.2	106.6
769.4	104.8
769.6	104.5
769.8	105.7
770.0	103.2
770.2	102.1
770.4	97.64
770.6	98.58
770.8	98.52
771.0	101.7
771.2	100.7
771.4	99.61
771.6	96.77
771.8	96.46
772.0	94.67
772.2	95.14
772.4	95.02
772.6	93.83
772.8	91.43
773.0	89.56
773.2	90.68
773.4	91.20
773.6	91.59
773.8	90.76
774.0	90.47
774.2	88.92
774.4	89.59
774.6	85.77
774.8	84.38
775.0	81.93
775.2	84.36
775.4	85.44
775.6	83.67
775.8	82.45
776.0	82.29
776.2	80.22
776.4	81.40
776.6	83.23
776.8	81.80
777.0	80.41
777.2	79.18
777.4	77.61
777.6	74.95
777.8	76.50
778.0	76.04
778.2	76.18
778.4	75.65
778.6	76.31
778.8	76.00
779.0	76.12
779.2	75.53
779.4	74.19
779.6	71.70
779.8	72.08
780.0	71.39
780.2	71.82
780.4	72.25
780.6	71.99
780.8	73.04
781.0	72.10
781.2	72.17
781.4	72.33
781.6	71.19
781.8	72.80
782.0	73.01
782.2	69.30
782.4	68.05
782.6	66.91
782.8	65.17
783.0	66.94
783.2	67.36
783.4	66.60
783.6	67.21
783.8	68.51
784.0	67.35
784.2	67.46
784.4	64.88
784.6	64.76
784.8	64.54
785.0	63.92
785.2	63.81
785.4	64.35
785.6	62.54
785.8	63.01
786.0	63.45
786.2	63.15
786.4	64.28
786.6	64.86
786.8	63.19
787.0	61.88
787.2	60.81
787.4	59.72
787.6	59.88
787.8	59.25
788.0	58.11
788.2	55.93
788.4	57.00
788.6	57.81
788.8	59.50
789.0	59.40
789.2	59.60
789.4	58.59
789.6	60.18
789.8	58.42
790.0	57.30
790.2	55.70
790.4	56.26
790.6	57.35
790.8	57.75
791.0	56.97
791.2	56.21
791.4	55.14
791.6	55.49
791.8	55.71
792.0	54.72
792.2	52.97
792.4	53.16
792.6	52.99
792.8	52.18
793.0	52.13
793.2	50.84
793.4	50.29
793.6	51.07
793.8	52.27
794.0	51.66
794.2	51.27
794.4	51.37
794.6	52.03
794.8	52.32
795.0	53.48
795.2	52.46
795.4	52.94
795.6	53.36
795.8	53.36
796.0	53.41
796.2	52.25
796.4	49.82
796.6	49.83
796.8	49.75
797.0	48.86
797.2	48.44
797.4	48.29
797.6	47.38
797.8	46.76
798.0	47.72
798.2	47.17
798.4	48.06
798.6	48.21
798.8	48.51
799.0	47.20
799.2	48.13
799.4	48.21
799.6	48.43
799.8	47.63
800.0	45.10

