Sample:	'20211010A(EM)
File name:	R-CDs 6 600uM.FDS
Run date:	'16:03:34, 06/09/2023
Operator:	Administrator
Comment:	'

Instrument
Model:	F-4700 FL Spectrophotometer
Serial number:	2019-001
ROM Version:	5J24010 00

Instrument parameters
Measurement type:	Wavelength scan
Scan mode:	Emission
Data mode:	Fluorescence
EX WL:	520.0 nm
EM  Start WL:	540.0 nm
EM  End WL:	800.0 nm
Scan speed:	1200 nm/min
Delay:	0.0 s
EX Slit:	10.0 nm
EM Slit:	10.0 nm
PMT Voltage:	615 V
Response:	0.002 s
Corrected spectra:	Off
Shutter control:	On

Processing performed
Savitsky-Golay smoothed
Smoothing order:	3
Number of points:	7
Number of times:	1

Peak integration
Integration method:	Rectangular
Sensitivity:	1
Threshold:	1.000

Peaks
No.	Start(nm)	Apex(nm)	End(nm)	Height(Data)	Valley(nm)	Valley(Data)
1	540.0	598.2	599.0	1409	599.0	1393
2	599.0	601.8	602.2	1422	602.2	1405
3	602.2	603.0	603.8	1427	603.8	1409
4	603.8	605.4	606.0	1437	606.0	1418
5	606.0	607.2	608.8	1450	608.8	1414
6	608.8	609.8	612.2	1433	612.2	1402
7	612.2	613.0	613.8	1424	613.8	1401
8	613.8	615.4	617.6	1417	617.6	1372
9	617.6	618.6	638.2	1387	638.2	1114
10	638.2	639.0	709.8	1129	709.8	186.8
11	709.8	710.6	720.8	191.2	720.8	132.1
12	720.8	721.6	756.4	137.3	756.4	39.92
13	756.4	756.8	763.6	43.50	763.6	31.34
14	763.6	764.6	766.0	33.89	766.0	28.00
15	766.0	767.0	769.2	31.70	769.2	26.82
16	769.2	770.2	775.6	28.21	775.6	20.99
17	775.6	776.4	778.8	23.18	778.8	19.28
18	778.8	779.6	781.8	21.33	781.8	17.91
19	781.8	784.2	786.0	19.95	786.0	16.36
20	786.0	787.4	789.8	18.04	789.8	14.78
21	789.8	790.8	794.0	17.09	794.0	14.08
22	794.0	796.0	798.2	15.48	798.2	13.33

Data points
nm	Data
540.0	172.4
540.2	171.0
540.4	171.9
540.6	174.1
540.8	175.5
541.0	177.5
541.2	177.0
541.4	177.6
541.6	178.7
541.8	177.6
542.0	177.3
542.2	176.5
542.4	176.5
542.6	179.2
542.8	181.1
543.0	180.1
543.2	181.3
543.4	180.3
543.6	184.0
543.8	189.0
544.0	190.6
544.2	190.8
544.4	191.5
544.6	190.6
544.8	192.5
545.0	191.6
545.2	189.0
545.4	191.0
545.6	192.5
545.8	196.4
546.0	200.5
546.2	201.3
546.4	205.4
546.6	206.3
546.8	203.2
547.0	202.7
547.2	202.6
547.4	204.1
547.6	211.7
547.8	214.6
548.0	215.0
548.2	215.3
548.4	212.9
548.6	212.8
548.8	215.9
549.0	220.1
549.2	221.7
549.4	225.1
549.6	227.9
549.8	229.8
550.0	229.9
550.2	233.8
550.4	233.5
550.6	233.9
550.8	236.8
551.0	237.9
551.2	240.8
551.4	246.1
551.6	248.0
551.8	245.5
552.0	245.3
552.2	246.0
552.4	248.6
552.6	251.6
552.8	252.9
553.0	253.4
553.2	256.3
553.4	260.4
553.6	262.5
553.8	266.0
554.0	266.9
554.2	271.1
554.4	276.4
554.6	280.0
554.8	282.3
555.0	283.3
555.2	282.4
555.4	287.1
555.6	294.2
555.8	296.9
556.0	301.5
556.2	306.1
556.4	309.1
556.6	315.0
556.8	318.4
557.0	318.0
557.2	321.4
557.4	326.3
557.6	329.5
557.8	332.8
558.0	334.4
558.2	339.3
558.4	348.1
558.6	352.9
558.8	354.7
559.0	353.9
559.2	357.2
559.4	359.6
559.6	366.4
559.8	370.0
560.0	377.4
560.2	384.2
560.4	391.3
560.6	391.9
560.8	396.0
561.0	398.9
561.2	404.2
561.4	407.7
561.6	413.3
561.8	416.1
562.0	423.9
562.2	432.0
562.4	436.3
562.6	437.7
562.8	443.2
563.0	446.2
563.2	450.4
563.4	457.3
563.6	467.0
563.8	473.2
564.0	483.7
564.2	491.0
564.4	494.9
564.6	503.1
564.8	509.9
565.0	510.4
565.2	518.0
565.4	525.8
565.6	530.9
565.8	541.2
566.0	547.7
566.2	551.0
566.4	554.9
566.6	561.1
566.8	565.4
567.0	572.9
567.2	579.8
567.4	590.7
567.6	593.1
567.8	599.4
568.0	610.8
568.2	617.5
568.4	626.2
568.6	637.8
568.8	643.9
569.0	648.4
569.2	657.9
569.4	664.1
569.6	672.1
569.8	685.5
570.0	694.2
570.2	697.3
570.4	706.2
570.6	714.2
570.8	724.8
571.0	739.1
571.2	742.3
571.4	748.1
571.6	757.2
571.8	763.2
572.0	769.0
572.2	772.0
572.4	777.7
572.6	789.0
572.8	802.2
573.0	813.6
573.2	815.5
573.4	822.3
573.6	830.2
573.8	842.2
574.0	855.9
574.2	863.5
574.4	869.3
574.6	876.4
574.8	878.7
575.0	886.7
575.2	893.0
575.4	898.8
575.6	908.1
575.8	919.9
576.0	927.7
576.2	935.4
576.4	940.4
576.6	950.3
576.8	956.0
577.0	961.6
577.2	966.7
577.4	972.8
577.6	986.0
577.8	997.8
578.0	1010
578.2	1014
578.4	1015
578.6	1023
578.8	1037
579.0	1043
579.2	1049
579.4	1050
579.6	1050
579.8	1059
580.0	1071
580.2	1084
580.4	1085
580.6	1088
580.8	1094
581.0	1095
581.2	1100
581.4	1111
581.6	1115
581.8	1121
582.0	1125
582.2	1127
582.4	1137
582.6	1142
582.8	1146
583.0	1148
583.2	1153
583.4	1162
583.6	1177
583.8	1185
584.0	1193
584.2	1193
584.4	1198
584.6	1197
584.8	1196
585.0	1202
585.2	1213
585.4	1217
585.6	1222
585.8	1217
586.0	1218
586.2	1227
586.4	1234
586.6	1241
586.8	1237
587.0	1235
587.2	1234
587.4	1242
587.6	1249
587.8	1258
588.0	1258
588.2	1258
588.4	1253
588.6	1267
588.8	1278
589.0	1283
589.2	1283
589.4	1282
589.6	1280
589.8	1288
590.0	1296
590.2	1300
590.4	1303
590.6	1309
590.8	1313
591.0	1312
591.2	1318
591.4	1324
591.6	1322
591.8	1324
592.0	1326
592.2	1330
592.4	1325
592.6	1329
592.8	1324
593.0	1329
593.2	1337
593.4	1346
593.6	1338
593.8	1335
594.0	1337
594.2	1343
594.4	1347
594.6	1352
594.8	1349
595.0	1349
595.2	1366
595.4	1375
595.6	1376
595.8	1379
596.0	1376
596.2	1378
596.4	1385
596.6	1388
596.8	1384
597.0	1388
597.2	1391
597.4	1395
597.6	1398
597.8	1400
598.0	1406
598.2	1409
598.4	1407
598.6	1402
598.8	1399
599.0	1393
599.2	1396
599.4	1393
599.6	1395
599.8	1395
600.0	1403
600.2	1406
600.4	1415
600.6	1421
600.8	1420
601.0	1413
601.2	1413
601.4	1412
601.6	1418
601.8	1422
602.0	1414
602.2	1405
602.4	1409
602.6	1411
602.8	1424
603.0	1427
603.2	1424
603.4	1414
603.6	1415
603.8	1409
604.0	1419
604.2	1422
604.4	1419
604.6	1416
604.8	1421
605.0	1427
605.2	1434
605.4	1437
605.6	1428
605.8	1422
606.0	1418
606.2	1420
606.4	1423
606.6	1433
606.8	1441
607.0	1447
607.2	1450
607.4	1446
607.6	1433
607.8	1425
608.0	1422
608.2	1423
608.4	1422
608.6	1418
608.8	1414
609.0	1417
609.2	1424
609.4	1431
609.6	1432
609.8	1433
610.0	1432
610.2	1423
610.4	1419
610.6	1414
610.8	1413
611.0	1412
611.2	1412
611.4	1413
611.6	1413
611.8	1411
612.0	1407
612.2	1402
612.4	1404
612.6	1409
612.8	1421
613.0	1424
613.2	1423
613.4	1411
613.6	1405
613.8	1401
614.0	1409
614.2	1410
614.4	1409
614.6	1403
614.8	1401
615.0	1409
615.2	1415
615.4	1417
615.6	1412
615.8	1409
616.0	1404
616.2	1398
616.4	1393
616.6	1391
616.8	1392
617.0	1387
617.2	1385
617.4	1379
617.6	1372
617.8	1375
618.0	1383
618.2	1384
618.4	1385
618.6	1387
618.8	1378
619.0	1375
619.2	1372
619.4	1372
619.6	1371
619.8	1367
620.0	1359
620.2	1356
620.4	1356
620.6	1358
620.8	1358
621.0	1356
621.2	1352
621.4	1353
621.6	1354
621.8	1349
622.0	1344
622.2	1343
622.4	1341
622.6	1347
622.8	1350
623.0	1347
623.2	1341
623.4	1341
623.6	1335
623.8	1333
624.0	1335
624.2	1331
624.4	1328
624.6	1325
624.8	1319
625.0	1316
625.2	1318
625.4	1316
625.6	1322
625.8	1316
626.0	1304
626.2	1292
626.4	1285
626.6	1286
626.8	1291
627.0	1292
627.2	1292
627.4	1286
627.6	1286
627.8	1282
628.0	1276
628.2	1273
628.4	1274
628.6	1268
628.8	1264
629.0	1259
629.2	1256
629.4	1254
629.6	1253
629.8	1246
630.0	1240
630.2	1238
630.4	1240
630.6	1243
630.8	1243
631.0	1238
631.2	1234
631.4	1230
631.6	1227
631.8	1227
632.0	1228
632.2	1229
632.4	1229
632.6	1218
632.8	1210
633.0	1202
633.2	1197
633.4	1195
633.6	1195
633.8	1197
634.0	1199
634.2	1191
634.4	1182
634.6	1173
634.8	1176
635.0	1181
635.2	1184
635.4	1184
635.6	1176
635.8	1162
636.0	1153
636.2	1147
636.4	1145
636.6	1145
636.8	1144
637.0	1142
637.2	1141
637.4	1133
637.6	1124
637.8	1118
638.0	1117
638.2	1114
638.4	1123
638.6	1124
638.8	1126
639.0	1129
639.2	1120
639.4	1101
639.6	1095
639.8	1089
640.0	1089
640.2	1090
640.4	1089
640.6	1083
640.8	1074
641.0	1069
641.2	1066
641.4	1066
641.6	1066
641.8	1063
642.0	1052
642.2	1049
642.4	1045
642.6	1044
642.8	1036
643.0	1036
643.2	1031
643.4	1028
643.6	1026
643.8	1022
644.0	1012
644.2	1009
644.4	1006
644.6	997.6
644.8	1001
645.0	998.3
645.2	998.1
645.4	995.7
645.6	993.5
645.8	985.0
646.0	983.5
646.2	977.1
646.4	971.4
646.6	966.7
646.8	960.9
647.0	955.9
647.2	950.4
647.4	950.8
647.6	947.6
647.8	947.8
648.0	946.9
648.2	940.0
648.4	931.6
648.6	927.8
648.8	928.3
649.0	927.9
649.2	932.2
649.4	922.7
649.6	916.1
649.8	907.2
650.0	901.6
650.2	896.5
650.4	893.4
650.6	891.0
650.8	891.1
651.0	886.3
651.2	873.9
651.4	866.5
651.6	863.0
651.8	868.1
652.0	868.3
652.2	864.0
652.4	852.8
652.6	849.1
652.8	847.9
653.0	849.1
653.2	848.0
653.4	843.8
653.6	839.9
653.8	839.1
654.0	831.2
654.2	826.9
654.4	823.3
654.6	818.5
654.8	815.4
655.0	813.7
655.2	811.2
655.4	807.7
655.6	805.1
655.8	796.6
656.0	784.5
656.2	774.5
656.4	777.3
656.6	778.5
656.8	779.1
657.0	778.3
657.2	772.3
657.4	767.5
657.6	769.7
657.8	766.9
658.0	760.5
658.2	754.8
658.4	750.3
658.6	746.8
658.8	741.3
659.0	737.9
659.2	733.2
659.4	734.0
659.6	732.8
659.8	730.3
660.0	728.3
660.2	725.9
660.4	718.4
660.6	712.9
660.8	705.3
661.0	699.2
661.2	695.1
661.4	690.4
661.6	689.7
661.8	690.8
662.0	692.1
662.2	694.2
662.4	687.4
662.6	682.1
662.8	676.8
663.0	673.7
663.2	665.4
663.4	663.5
663.6	655.5
663.8	651.1
664.0	649.7
664.2	651.7
664.4	651.0
664.6	652.0
664.8	651.5
665.0	644.5
665.2	638.5
665.4	636.3
665.6	636.1
665.8	633.1
666.0	633.6
666.2	627.6
666.4	615.6
666.6	612.9
666.8	611.5
667.0	606.8
667.2	609.0
667.4	607.8
667.6	598.9
667.8	602.7
668.0	597.2
668.2	593.5
668.4	592.6
668.6	588.1
668.8	581.0
669.0	579.4
669.2	571.6
669.4	571.1
669.6	571.7
669.8	570.1
670.0	565.5
670.2	559.9
670.4	552.8
670.6	549.8
670.8	550.5
671.0	549.7
671.2	548.5
671.4	548.0
671.6	542.5
671.8	538.1
672.0	534.6
672.2	526.4
672.4	522.5
672.6	518.6
672.8	518.3
673.0	522.8
673.2	524.5
673.4	522.2
673.6	517.0
673.8	513.6
674.0	514.5
674.2	513.7
674.4	511.3
674.6	504.7
674.8	495.6
675.0	489.1
675.2	487.3
675.4	484.3
675.6	483.9
675.8	485.1
676.0	483.1
676.2	477.4
676.4	478.0
676.6	476.9
676.8	471.9
677.0	471.0
677.2	461.0
677.4	453.1
677.6	452.5
677.8	450.0
678.0	447.7
678.2	444.8
678.4	442.8
678.6	441.9
678.8	444.1
679.0	446.4
679.2	445.1
679.4	440.2
679.6	434.9
679.8	426.9
680.0	422.9
680.2	420.5
680.4	415.6
680.6	415.7
680.8	413.9
681.0	416.1
681.2	415.3
681.4	413.8
681.6	411.0
681.8	408.8
682.0	408.1
682.2	405.7
682.4	403.2
682.6	400.4
682.8	395.8
683.0	392.9
683.2	392.6
683.4	390.0
683.6	389.8
683.8	385.4
684.0	382.3
684.2	382.2
684.4	381.0
684.6	380.3
684.8	377.2
685.0	373.9
685.2	371.0
685.4	369.6
685.6	366.6
685.8	362.4
686.0	359.9
686.2	356.7
686.4	356.3
686.6	356.9
686.8	360.8
687.0	361.0
687.2	359.3
687.4	353.7
687.6	348.8
687.8	342.8
688.0	341.0
688.2	337.7
688.4	336.2
688.6	333.6
688.8	329.3
689.0	326.9
689.2	325.4
689.4	326.3
689.6	328.8
689.8	328.8
690.0	327.7
690.2	324.9
690.4	318.9
690.6	313.9
690.8	312.1
691.0	311.6
691.2	312.5
691.4	309.8
691.6	308.0
691.8	305.5
692.0	303.3
692.2	302.1
692.4	303.3
692.6	300.8
692.8	302.4
693.0	303.0
693.2	299.9
693.4	296.1
693.6	293.8
693.8	290.8
694.0	288.8
694.2	288.0
694.4	285.5
694.6	284.4
694.8	284.1
695.0	282.8
695.2	280.9
695.4	278.7
695.6	279.0
695.8	278.2
696.0	278.8
696.2	275.2
696.4	273.6
696.6	273.5
696.8	273.0
697.0	272.4
697.2	272.5
697.4	268.0
697.6	267.1
697.8	265.9
698.0	260.2
698.2	258.7
698.4	257.5
698.6	255.0
698.8	252.5
699.0	250.2
699.2	247.0
699.4	246.8
699.6	248.3
699.8	249.7
700.0	247.1
700.2	246.2
700.4	243.9
700.6	243.2
700.8	241.7
701.0	240.7
701.2	242.2
701.4	241.4
701.6	239.4
701.8	238.3
702.0	234.2
702.2	230.3
702.4	233.5
702.6	230.8
702.8	229.8
703.0	229.2
703.2	226.4
703.4	226.5
703.6	230.2
703.8	229.0
704.0	227.1
704.2	227.2
704.4	223.0
704.6	222.6
704.8	222.9
705.0	220.6
705.2	218.7
705.4	219.6
705.6	214.1
705.8	212.8
706.0	211.9
706.2	210.6
706.4	209.3
706.6	206.6
706.8	201.8
707.0	201.9
707.2	200.3
707.4	201.0
707.6	203.2
707.8	201.8
708.0	199.9
708.2	198.8
708.4	197.7
708.6	197.6
708.8	197.0
709.0	195.0
709.2	191.5
709.4	188.0
709.6	188.9
709.8	186.8
710.0	188.5
710.2	190.6
710.4	191.1
710.6	191.2
710.8	190.1
711.0	187.2
711.2	187.9
711.4	185.2
711.6	184.5
711.8	182.7
712.0	178.4
712.2	176.8
712.4	175.2
712.6	172.6
712.8	171.5
713.0	170.3
713.2	169.1
713.4	168.8
713.6	169.2
713.8	168.9
714.0	169.6
714.2	168.4
714.4	167.6
714.6	166.0
714.8	163.9
715.0	161.0
715.2	161.0
715.4	160.6
715.6	158.5
715.8	158.5
716.0	158.9
716.2	157.2
716.4	159.2
716.6	159.9
716.8	159.0
717.0	157.5
717.2	154.8
717.4	150.3
717.6	150.8
717.8	151.2
718.0	151.4
718.2	150.1
718.4	146.3
718.6	144.7
718.8	145.2
719.0	145.6
719.2	143.9
719.4	144.6
719.6	142.4
719.8	143.5
720.0	140.7
720.2	137.0
720.4	134.5
720.6	133.9
720.8	132.1
721.0	133.8
721.2	135.3
721.4	137.0
721.6	137.3
721.8	134.1
722.0	131.6
722.2	129.5
722.4	129.6
722.6	130.3
722.8	129.5
723.0	127.6
723.2	128.4
723.4	126.4
723.6	127.5
723.8	126.0
724.0	123.5
724.2	121.5
724.4	122.7
724.6	123.4
724.8	126.2
725.0	126.1
725.2	122.7
725.4	119.4
725.6	115.1
725.8	112.0
726.0	110.3
726.2	112.8
726.4	113.9
726.6	115.7
726.8	113.9
727.0	112.4
727.2	110.7
727.4	109.8
727.6	108.9
727.8	108.2
728.0	107.7
728.2	107.5
728.4	107.5
728.6	108.3
728.8	107.9
729.0	106.0
729.2	104.4
729.4	103.7
729.6	102.1
729.8	101.6
730.0	100.5
730.2	98.06
730.4	96.00
730.6	96.48
730.8	95.05
731.0	94.93
731.2	96.93
731.4	98.28
731.6	96.96
731.8	94.78
732.0	92.78
732.2	90.53
732.4	91.33
732.6	93.35
732.8	92.37
733.0	90.87
733.2	89.97
733.4	87.12
733.6	86.39
733.8	86.75
734.0	86.78
734.2	87.34
734.4	88.45
734.6	87.00
734.8	85.60
735.0	84.47
735.2	83.65
735.4	82.94
735.6	83.67
735.8	82.33
736.0	81.68
736.2	81.13
736.4	81.61
736.6	80.55
736.8	79.99
737.0	78.82
737.2	77.50
737.4	77.65
737.6	79.18
737.8	78.59
738.0	78.67
738.2	77.77
738.4	76.23
738.6	75.96
738.8	74.99
739.0	72.35
739.2	71.50
739.4	72.16
739.6	72.89
739.8	73.58
740.0	73.42
740.2	71.91
740.4	71.87
740.6	71.73
740.8	69.81
741.0	68.87
741.2	68.95
741.4	68.76
741.6	68.84
741.8	68.31
742.0	66.59
742.2	66.40
742.4	67.33
742.6	67.00
742.8	65.90
743.0	65.32
743.2	63.36
743.4	64.05
743.6	64.12
743.8	63.77
744.0	63.63
744.2	63.10
744.4	63.01
744.6	63.61
744.8	63.08
745.0	62.12
745.2	61.16
745.4	59.76
745.6	59.20
745.8	57.95
746.0	57.81
746.2	57.53
746.4	56.92
746.6	56.57
746.8	56.89
747.0	57.81
747.2	58.73
747.4	57.68
747.6	55.55
747.8	53.50
748.0	52.45
748.2	52.85
748.4	54.01
748.6	53.29
748.8	53.48
749.0	52.52
749.2	51.64
749.4	51.73
749.6	51.90
749.8	51.15
750.0	51.49
750.2	51.90
750.4	51.65
750.6	51.97
750.8	51.65
751.0	50.69
751.2	50.11
751.4	50.97
751.6	50.37
751.8	49.34
752.0	48.11
752.2	46.34
752.4	45.77
752.6	45.83
752.8	45.83
753.0	45.38
753.2	44.03
753.4	44.47
753.6	45.40
753.8	46.26
754.0	45.56
754.2	45.64
754.4	43.81
754.6	43.44
754.8	42.60
755.0	41.83
755.2	40.74
755.4	41.63
755.6	42.16
755.8	41.51
756.0	41.41
756.2	40.34
756.4	39.92
756.6	41.61
756.8	43.50
757.0	42.56
757.2	42.06
757.4	40.35
757.6	39.15
757.8	39.96
758.0	40.57
758.2	38.75
758.4	37.54
758.6	36.99
758.8	37.05
759.0	37.31
759.2	37.90
759.4	37.62
759.6	36.91
759.8	36.39
760.0	36.59
760.2	36.55
760.4	36.59
760.6	36.47
760.8	35.59
761.0	35.16
761.2	35.67
761.4	35.81
761.6	35.72
761.8	35.64
762.0	34.92
762.2	34.96
762.4	34.08
762.6	33.88
762.8	33.28
763.0	33.31
763.2	33.10
763.4	32.79
763.6	31.34
763.8	31.98
764.0	31.68
764.2	32.18
764.4	33.43
764.6	33.89
764.8	33.29
765.0	33.55
765.2	32.00
765.4	30.80
765.6	29.51
765.8	28.95
766.0	28.00
766.2	28.39
766.4	29.00
766.6	30.23
766.8	30.74
767.0	31.70
767.2	30.78
767.4	30.07
767.6	29.96
767.8	30.20
768.0	29.83
768.2	30.01
768.4	29.21
768.6	27.63
768.8	27.51
769.0	27.59
769.2	26.82
769.4	27.05
769.6	27.87
769.8	28.16
770.0	28.13
770.2	28.21
770.4	27.22
770.6	27.18
770.8	26.65
771.0	25.98
771.2	26.26
771.4	26.15
771.6	26.02
771.8	25.91
772.0	25.33
772.2	24.64
772.4	25.55
772.6	24.64
772.8	24.41
773.0	24.28
773.2	24.89
773.4	24.88
773.6	24.67
773.8	23.98
774.0	23.84
774.2	24.02
774.4	23.69
774.6	24.23
774.8	23.73
775.0	23.19
775.2	23.06
775.4	22.35
775.6	20.99
775.8	22.27
776.0	22.69
776.2	22.91
776.4	23.18
776.6	22.80
776.8	21.46
777.0	20.87
777.2	20.62
777.4	19.76
777.6	20.00
777.8	20.70
778.0	21.01
778.2	20.41
778.4	20.37
778.6	19.31
778.8	19.28
779.0	19.91
779.2	20.27
779.4	20.88
779.6	21.33
779.8	20.54
780.0	20.11
780.2	20.06
780.4	19.98
780.6	19.92
780.8	19.85
781.0	18.85
781.2	18.00
781.4	17.92
781.6	18.01
781.8	17.91
782.0	18.96
782.2	18.93
782.4	18.33
782.6	18.42
782.8	18.07
783.0	18.23
783.2	18.25
783.4	18.18
783.6	18.36
783.8	18.62
784.0	19.47
784.2	19.95
784.4	18.86
784.6	18.58
784.8	18.12
785.0	17.71
785.2	17.78
785.4	17.31
785.6	16.57
785.8	16.54
786.0	16.36
786.2	17.01
786.4	17.06
786.6	16.86
786.8	16.90
787.0	17.47
787.2	17.56
787.4	18.04
787.6	17.80
787.8	17.59
788.0	17.30
788.2	16.94
788.4	16.57
788.6	16.51
788.8	16.06
789.0	16.23
789.2	16.05
789.4	15.33
789.6	15.61
789.8	14.78
790.0	15.26
790.2	15.96
790.4	16.65
790.6	16.63
790.8	17.09
791.0	15.50
791.2	16.08
791.4	15.52
791.6	15.27
791.8	15.69
792.0	16.15
792.2	15.90
792.4	15.56
792.6	14.66
792.8	14.39
793.0	15.35
793.2	16.12
793.4	16.06
793.6	14.37
793.8	14.31
794.0	14.08
794.2	14.09
794.4	14.73
794.6	14.74
794.8	14.55
795.0	14.82
795.2	14.96
795.4	14.77
795.6	14.75
795.8	15.01
796.0	15.48
796.2	14.85
796.4	15.33
796.6	15.34
796.8	14.80
797.0	14.96
797.2	14.85
797.4	14.36
797.6	14.30
797.8	13.80
798.0	13.39
798.2	13.33
798.4	13.84
798.6	14.16
798.8	14.24
799.0	14.53
799.2	15.18
799.4	14.15
799.6	13.76
799.8	13.98
800.0	15.23

