Sample:	'20211010A(EM)
File name:	R-CDs 4 400uM.FDS
Run date:	'15:57:00, 06/09/2023
Operator:	Administrator
Comment:	'

Instrument
Model:	F-4700 FL Spectrophotometer
Serial number:	2019-001
ROM Version:	5J24010 00

Instrument parameters
Measurement type:	Wavelength scan
Scan mode:	Emission
Data mode:	Fluorescence
EX WL:	520.0 nm
EM  Start WL:	540.0 nm
EM  End WL:	800.0 nm
Scan speed:	1200 nm/min
Delay:	0.0 s
EX Slit:	10.0 nm
EM Slit:	10.0 nm
PMT Voltage:	615 V
Response:	0.002 s
Corrected spectra:	Off
Shutter control:	On

Processing performed
Savitsky-Golay smoothed
Smoothing order:	3
Number of points:	7
Number of times:	1

Peak integration
Integration method:	Rectangular
Sensitivity:	1
Threshold:	1.000

Peaks
No.	Start(nm)	Apex(nm)	End(nm)	Height(Data)	Valley(nm)	Valley(Data)
1	540.0	602.2	602.8	2208	602.8	2190
2	602.8	606.0	606.8	2240	606.8	2230
3	606.8	609.0	610.6	2266	610.6	2241
4	610.6	611.6	614.2	2263	614.2	2233
5	614.2	614.8	615.2	2241	615.2	2226
6	615.2	615.8	741.4	2241	741.4	101.2
7	741.4	742.0	748.2	104.6	748.2	80.24
8	748.2	749.0	756.4	85.43	756.4	61.36
9	756.4	757.0	760.2	64.83	760.2	54.58
10	760.2	760.8	766.6	57.40	766.6	42.93
11	766.6	767.0	772.2	45.10	772.2	36.85
12	772.2	773.0	776.6	38.02	776.6	31.67
13	776.6	778.0	784.8	32.93	784.8	24.75
14	784.8	785.4	786.8	26.50	786.8	23.91
15	786.8	788.2	792.2	25.37	792.2	20.97
16	792.2	793.0	793.8	23.41	793.8	20.97
17	793.8	794.8	800.0	22.87	800.0	20.19

Data points
nm	Data
540.0	251.9
540.2	251.4
540.4	251.0
540.6	250.9
540.8	251.5
541.0	251.0
541.2	255.5
541.4	259.1
541.6	261.4
541.8	263.2
542.0	262.8
542.2	262.1
542.4	261.0
542.6	265.7
542.8	270.6
543.0	274.6
543.2	278.6
543.4	280.7
543.6	280.7
543.8	283.2
544.0	282.9
544.2	284.5
544.4	285.6
544.6	287.7
544.8	287.3
545.0	287.6
545.2	289.2
545.4	292.1
545.6	296.5
545.8	301.4
546.0	302.6
546.2	302.0
546.4	305.3
546.6	304.6
546.8	305.1
547.0	307.3
547.2	309.1
547.4	311.6
547.6	316.9
547.8	321.6
548.0	326.8
548.2	329.9
548.4	330.3
548.6	328.2
548.8	325.8
549.0	329.5
549.2	335.5
549.4	341.1
549.6	345.9
549.8	346.2
550.0	346.5
550.2	349.2
550.4	352.6
550.6	358.0
550.8	361.6
551.0	361.0
551.2	361.2
551.4	362.9
551.6	367.7
551.8	375.4
552.0	380.7
552.2	381.5
552.4	382.1
552.6	383.4
552.8	390.0
553.0	395.0
553.2	398.6
553.4	397.5
553.6	397.9
553.8	399.7
554.0	407.1
554.2	414.1
554.4	422.6
554.6	426.7
554.8	429.9
555.0	428.1
555.2	430.4
555.4	430.3
555.6	435.6
555.8	443.1
556.0	451.3
556.2	457.9
556.4	464.0
556.6	467.8
556.8	470.9
557.0	472.5
557.2	475.3
557.4	480.2
557.6	482.5
557.8	490.4
558.0	495.6
558.2	499.5
558.4	506.2
558.6	511.5
558.8	516.8
559.0	525.0
559.2	530.9
559.4	536.3
559.6	542.5
559.8	545.9
560.0	551.5
560.2	558.1
560.4	561.7
560.6	570.0
560.8	574.1
561.0	577.0
561.2	580.7
561.4	585.5
561.6	592.3
561.8	604.1
562.0	612.5
562.2	618.8
562.4	624.7
562.6	630.6
562.8	640.9
563.0	648.6
563.2	659.5
563.4	669.3
563.6	675.5
563.8	680.9
564.0	688.9
564.2	694.1
564.4	705.7
564.6	713.5
564.8	721.5
565.0	723.4
565.2	729.5
565.4	734.5
565.6	747.0
565.8	755.9
566.0	766.8
566.2	770.7
566.4	779.3
566.6	788.0
566.8	800.2
567.0	811.0
567.2	821.8
567.4	833.0
567.6	844.1
567.8	857.0
568.0	867.9
568.2	874.4
568.4	877.2
568.6	887.1
568.8	896.2
569.0	904.2
569.2	912.6
569.4	915.8
569.6	916.0
569.8	930.3
570.0	945.1
570.2	952.1
570.4	966.5
570.6	974.7
570.8	985.1
571.0	1002
571.2	1016
571.4	1022
571.6	1036
571.8	1046
572.0	1060
572.2	1070
572.4	1077
572.6	1084
572.8	1094
573.0	1108
573.2	1123
573.4	1133
573.6	1147
573.8	1161
574.0	1171
574.2	1188
574.4	1195
574.6	1198
574.8	1214
575.0	1223
575.2	1230
575.4	1242
575.6	1253
575.8	1262
576.0	1279
576.2	1282
576.4	1292
576.6	1302
576.8	1315
577.0	1331
577.2	1339
577.4	1337
577.6	1353
577.8	1368
578.0	1384
578.2	1400
578.4	1409
578.6	1423
578.8	1441
579.0	1446
579.2	1450
579.4	1448
579.6	1456
579.8	1474
580.0	1487
580.2	1500
580.4	1511
580.6	1514
580.8	1524
581.0	1524
581.2	1526
581.4	1539
581.6	1557
581.8	1573
582.0	1592
582.2	1599
582.4	1611
582.6	1623
582.8	1629
583.0	1630
583.2	1632
583.4	1630
583.6	1641
583.8	1660
584.0	1680
584.2	1689
584.4	1696
584.6	1700
584.8	1706
585.0	1725
585.2	1738
585.4	1744
585.6	1744
585.8	1748
586.0	1757
586.2	1763
586.4	1766
586.6	1778
586.8	1784
587.0	1793
587.2	1798
587.4	1799
587.6	1807
587.8	1818
588.0	1827
588.2	1832
588.4	1843
588.6	1856
588.8	1861
589.0	1871
589.2	1883
589.4	1887
589.6	1902
589.8	1909
590.0	1902
590.2	1905
590.4	1908
590.6	1921
590.8	1932
591.0	1947
591.2	1952
591.4	1961
591.6	1956
591.8	1962
592.0	1967
592.2	1977
592.4	1984
592.6	1993
592.8	1988
593.0	1987
593.2	1994
593.4	2001
593.6	2012
593.8	2022
594.0	2029
594.2	2028
594.4	2033
594.6	2040
594.8	2051
595.0	2055
595.2	2052
595.4	2048
595.6	2054
595.8	2064
596.0	2079
596.2	2086
596.4	2087
596.6	2096
596.8	2097
597.0	2097
597.2	2105
597.4	2108
597.6	2114
597.8	2121
598.0	2123
598.2	2132
598.4	2136
598.6	2133
598.8	2130
599.0	2130
599.2	2141
599.4	2151
599.6	2154
599.8	2156
600.0	2151
600.2	2147
600.4	2150
600.6	2155
600.8	2156
601.0	2167
601.2	2169
601.4	2173
601.6	2182
601.8	2195
602.0	2198
602.2	2208
602.4	2204
602.6	2197
602.8	2190
603.0	2191
603.2	2193
603.4	2197
603.6	2204
603.8	2209
604.0	2216
604.2	2216
604.4	2205
604.6	2200
604.8	2205
605.0	2210
605.2	2222
605.4	2228
605.6	2227
605.8	2236
606.0	2240
606.2	2239
606.4	2238
606.6	2236
606.8	2230
607.0	2231
607.2	2233
607.4	2238
607.6	2243
607.8	2246
608.0	2243
608.2	2248
608.4	2257
608.6	2262
608.8	2265
609.0	2266
609.2	2255
609.4	2246
609.6	2242
609.8	2247
610.0	2255
610.2	2254
610.4	2248
610.6	2241
610.8	2242
611.0	2250
611.2	2260
611.4	2255
611.6	2263
611.8	2257
612.0	2250
612.2	2246
612.4	2243
612.6	2239
612.8	2246
613.0	2238
613.2	2238
613.4	2237
613.6	2238
613.8	2236
614.0	2235
614.2	2233
614.4	2239
614.6	2240
614.8	2241
615.0	2233
615.2	2226
615.4	2227
615.6	2231
615.8	2241
616.0	2237
616.2	2235
616.4	2227
616.6	2236
616.8	2238
617.0	2238
617.2	2235
617.4	2232
617.6	2222
617.8	2224
618.0	2218
618.2	2215
618.4	2219
618.6	2218
618.8	2219
619.0	2221
619.2	2215
619.4	2206
619.6	2197
619.8	2186
620.0	2182
620.2	2184
620.4	2193
620.6	2198
620.8	2199
621.0	2191
621.2	2180
621.4	2173
621.6	2175
621.8	2171
622.0	2168
622.2	2163
622.4	2166
622.6	2170
622.8	2166
623.0	2152
623.2	2145
623.4	2136
623.6	2139
623.8	2145
624.0	2139
624.2	2135
624.4	2139
624.6	2141
624.8	2143
625.0	2138
625.2	2125
625.4	2114
625.6	2105
625.8	2101
626.0	2097
626.2	2099
626.4	2103
626.6	2105
626.8	2101
627.0	2099
627.2	2092
627.4	2096
627.6	2087
627.8	2079
628.0	2068
628.2	2064
628.4	2058
628.6	2057
628.8	2054
629.0	2049
629.2	2045
629.4	2052
629.6	2046
629.8	2033
630.0	2030
630.2	2022
630.4	2020
630.6	2017
630.8	2009
631.0	2000
631.2	1991
631.4	1985
631.6	1976
631.8	1970
632.0	1965
632.2	1972
632.4	1970
632.6	1971
632.8	1960
633.0	1953
633.2	1938
633.4	1935
633.6	1925
633.8	1925
634.0	1919
634.2	1924
634.4	1922
634.6	1916
634.8	1909
635.0	1901
635.2	1892
635.4	1887
635.6	1878
635.8	1877
636.0	1883
636.2	1878
636.4	1869
636.6	1850
636.8	1831
637.0	1834
637.2	1836
637.4	1838
637.6	1839
637.8	1833
638.0	1824
638.2	1819
638.4	1811
638.6	1797
638.8	1794
639.0	1787
639.2	1788
639.4	1782
639.6	1775
639.8	1764
640.0	1762
640.2	1759
640.4	1759
640.6	1752
640.8	1740
641.0	1731
641.2	1729
641.4	1727
641.6	1728
641.8	1723
642.0	1709
642.2	1693
642.4	1687
642.6	1675
642.8	1667
643.0	1667
643.2	1673
643.4	1669
643.6	1666
643.8	1653
644.0	1634
644.2	1627
644.4	1624
644.6	1621
644.8	1618
645.0	1615
645.2	1614
645.4	1613
645.6	1605
645.8	1600
646.0	1592
646.2	1588
646.4	1576
646.6	1574
646.8	1568
647.0	1559
647.2	1548
647.4	1542
647.6	1528
647.8	1522
648.0	1513
648.2	1505
648.4	1508
648.6	1505
648.8	1498
649.0	1492
649.2	1480
649.4	1472
649.6	1478
649.8	1471
650.0	1467
650.2	1458
650.4	1448
650.6	1438
650.8	1438
651.0	1426
651.2	1418
651.4	1408
651.6	1408
651.8	1409
652.0	1406
652.2	1398
652.4	1389
652.6	1379
652.8	1371
653.0	1364
653.2	1350
653.4	1352
653.6	1354
653.8	1352
654.0	1342
654.2	1328
654.4	1314
654.6	1312
654.8	1309
655.0	1312
655.2	1313
655.4	1307
655.6	1300
655.8	1295
656.0	1281
656.2	1281
656.4	1277
656.6	1268
656.8	1257
657.0	1250
657.2	1240
657.4	1243
657.6	1241
657.8	1235
658.0	1232
658.2	1227
658.4	1214
658.6	1204
658.8	1200
659.0	1192
659.2	1193
659.4	1185
659.6	1182
659.8	1177
660.0	1176
660.2	1167
660.4	1158
660.6	1146
660.8	1144
661.0	1135
661.2	1130
661.4	1124
661.6	1123
661.8	1121
662.0	1120
662.2	1115
662.4	1113
662.6	1106
662.8	1104
663.0	1095
663.2	1088
663.4	1084
663.6	1072
663.8	1058
664.0	1050
664.2	1046
664.4	1044
664.6	1040
664.8	1031
665.0	1023
665.2	1012
665.4	1012
665.6	1011
665.8	1008
666.0	1004
666.2	998.7
666.4	988.6
666.6	986.0
666.8	981.5
667.0	976.0
667.2	972.0
667.4	964.8
667.6	962.7
667.8	960.9
668.0	958.0
668.2	957.6
668.4	951.7
668.6	946.0
668.8	942.2
669.0	935.8
669.2	934.5
669.4	934.2
669.6	922.1
669.8	909.5
670.0	898.9
670.2	884.2
670.4	878.1
670.6	879.4
670.8	876.4
671.0	873.7
671.2	877.2
671.4	867.8
671.6	865.7
671.8	859.9
672.0	851.5
672.2	846.0
672.4	845.9
672.6	845.3
672.8	843.9
673.0	838.3
673.2	833.0
673.4	825.5
673.6	820.2
673.8	820.3
674.0	815.9
674.2	811.5
674.4	805.0
674.6	793.7
674.8	788.9
675.0	786.6
675.2	786.5
675.4	784.1
675.6	780.7
675.8	772.6
676.0	767.8
676.2	764.8
676.4	762.6
676.6	761.5
676.8	753.3
677.0	748.5
677.2	741.1
677.4	738.3
677.6	734.7
677.8	732.1
678.0	726.9
678.2	724.5
678.4	719.2
678.6	710.9
678.8	706.9
679.0	703.0
679.2	704.6
679.4	702.8
679.6	697.5
679.8	691.4
680.0	690.9
680.2	685.3
680.4	685.6
680.6	679.2
680.8	672.6
681.0	666.6
681.2	662.2
681.4	660.6
681.6	658.3
681.8	653.3
682.0	652.4
682.2	647.0
682.4	645.8
682.6	646.2
682.8	642.1
683.0	637.6
683.2	631.6
683.4	630.0
683.6	626.8
683.8	623.1
684.0	624.9
684.2	619.4
684.4	612.8
684.6	612.8
684.8	605.4
685.0	599.9
685.2	597.4
685.4	590.6
685.6	588.3
685.8	588.2
686.0	584.4
686.2	583.3
686.4	576.5
686.6	567.9
686.8	559.2
687.0	554.9
687.2	555.7
687.4	561.8
687.6	562.9
687.8	560.4
688.0	552.9
688.2	547.5
688.4	546.6
688.6	545.0
688.8	543.1
689.0	537.3
689.2	533.1
689.4	530.0
689.6	528.6
689.8	524.0
690.0	519.5
690.2	511.2
690.4	507.8
690.6	505.2
690.8	502.4
691.0	500.0
691.2	501.0
691.4	499.9
691.6	497.2
691.8	493.1
692.0	487.5
692.2	484.1
692.4	482.7
692.6	480.3
692.8	476.3
693.0	476.4
693.2	477.4
693.4	472.7
693.6	466.1
693.8	463.4
694.0	461.9
694.2	462.1
694.4	460.5
694.6	453.8
694.8	453.1
695.0	455.7
695.2	453.8
695.4	449.8
695.6	444.9
695.8	440.1
696.0	440.6
696.2	440.3
696.4	437.9
696.6	435.2
696.8	433.5
697.0	430.6
697.2	425.6
697.4	424.0
697.6	422.8
697.8	418.6
698.0	415.0
698.2	416.4
698.4	411.9
698.6	409.8
698.8	407.3
699.0	404.9
699.2	402.4
699.4	402.0
699.6	398.0
699.8	394.7
700.0	393.9
700.2	396.7
700.4	397.2
700.6	395.2
700.8	391.4
701.0	388.1
701.2	383.6
701.4	380.5
701.6	376.1
701.8	375.7
702.0	378.0
702.2	379.4
702.4	380.4
702.6	379.5
702.8	374.7
703.0	372.8
703.2	373.5
703.4	367.4
703.6	367.4
703.8	364.1
704.0	357.8
704.2	356.1
704.4	353.1
704.6	350.1
704.8	351.0
705.0	350.5
705.2	348.4
705.4	350.9
705.6	348.6
705.8	345.9
706.0	338.7
706.2	335.9
706.4	333.6
706.6	334.3
706.8	332.9
707.0	331.2
707.2	328.4
707.4	325.4
707.6	323.4
707.8	321.0
708.0	318.7
708.2	314.5
708.4	314.0
708.6	310.7
708.8	309.3
709.0	307.6
709.2	307.3
709.4	304.7
709.6	307.0
709.8	309.5
710.0	306.2
710.2	303.2
710.4	299.9
710.6	294.3
710.8	292.8
711.0	293.7
711.2	292.3
711.4	292.8
711.6	291.0
711.8	285.7
712.0	284.0
712.2	285.3
712.4	287.7
712.6	288.9
712.8	286.1
713.0	284.3
713.2	281.5
713.4	277.7
713.6	273.2
713.8	267.9
714.0	263.1
714.2	266.0
714.4	266.4
714.6	264.5
714.8	263.3
715.0	260.6
715.2	260.2
715.4	261.6
715.6	260.7
715.8	257.5
716.0	255.0
716.2	252.8
716.4	250.3
716.6	250.8
716.8	250.0
717.0	248.5
717.2	242.8
717.4	238.5
717.6	232.9
717.8	232.2
718.0	233.3
718.2	233.8
718.4	231.1
718.6	231.2
718.8	227.4
719.0	228.8
719.2	230.5
719.4	229.1
719.6	226.2
719.8	223.9
720.0	219.7
720.2	218.3
720.4	217.6
720.6	216.7
720.8	215.0
721.0	211.2
721.2	211.2
721.4	206.2
721.6	205.9
721.8	207.2
722.0	206.1
722.2	204.9
722.4	204.1
722.6	201.0
722.8	202.1
723.0	202.9
723.2	198.6
723.4	197.9
723.6	191.6
723.8	191.3
724.0	191.2
724.2	191.9
724.4	191.3
724.6	190.0
724.8	186.3
725.0	183.7
725.2	181.9
725.4	181.7
725.6	181.0
725.8	179.7
726.0	179.6
726.2	178.8
726.4	181.9
726.6	180.7
726.8	177.1
727.0	174.5
727.2	170.1
727.4	168.5
727.6	169.1
727.8	167.1
728.0	166.5
728.2	166.1
728.4	164.6
728.6	163.3
728.8	162.5
729.0	161.1
729.2	162.7
729.4	159.6
729.6	157.7
729.8	156.1
730.0	155.6
730.2	156.4
730.4	158.2
730.6	155.5
730.8	152.3
731.0	149.9
731.2	148.9
731.4	146.9
731.6	147.3
731.8	146.9
732.0	145.2
732.2	145.1
732.4	144.7
732.6	139.0
732.8	140.8
733.0	140.0
733.2	138.4
733.4	139.8
733.6	139.0
733.8	133.8
734.0	135.2
734.2	134.4
734.4	132.3
734.6	132.2
734.8	132.9
735.0	130.7
735.2	130.9
735.4	129.5
735.6	128.8
735.8	128.1
736.0	128.2
736.2	128.9
736.4	129.3
736.6	127.4
736.8	127.2
737.0	125.1
737.2	123.8
737.4	123.7
737.6	123.3
737.8	121.2
738.0	121.1
738.2	117.5
738.4	117.4
738.6	115.4
738.8	114.9
739.0	113.0
739.2	112.9
739.4	110.9
739.6	111.0
739.8	112.2
740.0	113.7
740.2	111.3
740.4	109.4
740.6	107.8
740.8	105.5
741.0	103.9
741.2	101.6
741.4	101.2
741.6	102.5
741.8	103.3
742.0	104.6
742.2	104.4
742.4	102.8
742.6	103.5
742.8	101.9
743.0	99.14
743.2	98.09
743.4	97.75
743.6	97.18
743.8	97.87
744.0	97.53
744.2	96.42
744.4	96.99
744.6	94.76
744.8	95.40
745.0	96.79
745.2	94.81
745.4	91.44
745.6	90.20
745.8	88.01
746.0	89.88
746.2	90.69
746.4	88.88
746.6	89.21
746.8	90.12
747.0	89.33
747.2	87.88
747.4	85.23
747.6	82.32
747.8	81.83
748.0	81.27
748.2	80.24
748.4	81.12
748.6	83.10
748.8	85.18
749.0	85.43
749.2	83.66
749.4	82.03
749.6	81.02
749.8	80.03
750.0	81.00
750.2	80.58
750.4	79.07
750.6	78.95
750.8	78.24
751.0	78.15
751.2	78.39
751.4	79.16
751.6	78.13
751.8	78.01
752.0	78.67
752.2	77.38
752.4	74.95
752.6	73.22
752.8	71.51
753.0	71.60
753.2	73.70
753.4	72.68
753.6	72.53
753.8	71.20
754.0	71.12
754.2	70.22
754.4	69.30
754.6	67.10
754.8	65.50
755.0	65.32
755.2	64.75
755.4	64.67
755.6	65.11
755.8	64.65
756.0	63.27
756.2	62.17
756.4	61.36
756.6	62.88
756.8	63.46
757.0	64.83
757.2	63.70
757.4	62.89
757.6	63.06
757.8	62.61
758.0	60.32
758.2	61.12
758.4	59.85
758.6	61.57
758.8	61.38
759.0	59.99
759.2	56.70
759.4	55.77
759.6	54.70
759.8	54.72
760.0	54.83
760.2	54.58
760.4	55.00
760.6	57.02
760.8	57.40
761.0	56.30
761.2	55.06
761.4	52.14
761.6	50.96
761.8	50.82
762.0	51.68
762.2	53.61
762.4	54.25
762.6	52.78
762.8	50.84
763.0	49.84
763.2	50.82
763.4	51.15
763.6	51.91
763.8	50.87
764.0	49.77
764.2	48.36
764.4	48.17
764.6	47.76
764.8	48.30
765.0	46.75
765.2	45.63
765.4	44.31
765.6	45.88
765.8	47.14
766.0	47.22
766.2	45.16
766.4	43.47
766.6	42.93
766.8	44.01
767.0	45.10
767.2	44.81
767.4	44.77
767.6	44.83
767.8	44.55
768.0	44.46
768.2	43.40
768.4	41.26
768.6	41.47
768.8	41.76
769.0	41.52
769.2	41.25
769.4	40.13
769.6	39.08
769.8	38.85
770.0	38.25
770.2	38.00
770.4	38.02
770.6	38.65
770.8	38.74
771.0	38.24
771.2	37.64
771.4	37.32
771.6	37.14
771.8	37.00
772.0	37.03
772.2	36.85
772.4	37.04
772.6	37.91
772.8	37.65
773.0	38.02
773.2	37.57
773.4	37.52
773.6	36.42
773.8	36.45
774.0	35.55
774.2	35.34
774.4	34.93
774.6	35.34
774.8	34.59
775.0	34.60
775.2	34.12
775.4	33.52
775.6	33.78
775.8	33.79
776.0	33.64
776.2	32.26
776.4	32.01
776.6	31.67
776.8	32.00
777.0	32.15
777.2	32.53
777.4	32.39
777.6	32.69
777.8	32.59
778.0	32.93
778.2	32.64
778.4	31.02
778.6	31.07
778.8	29.79
779.0	29.14
779.2	29.99
779.4	30.66
779.6	30.46
779.8	31.06
780.0	30.14
780.2	29.22
780.4	28.50
780.6	28.15
780.8	27.69
781.0	28.35
781.2	28.78
781.4	28.75
781.6	28.11
781.8	27.96
782.0	27.10
782.2	28.02
782.4	28.30
782.6	27.68
782.8	26.88
783.0	26.36
783.2	26.41
783.4	26.83
783.6	27.57
783.8	27.56
784.0	27.41
784.2	26.31
784.4	25.58
784.6	25.26
784.8	24.75
785.0	25.46
785.2	26.50
785.4	26.50
785.6	26.44
785.8	26.45
786.0	25.43
786.2	25.17
786.4	24.48
786.6	24.16
786.8	23.91
787.0	24.36
787.2	24.35
787.4	24.08
787.6	24.33
787.8	24.92
788.0	25.16
788.2	25.37
788.4	25.00
788.6	24.62
788.8	24.93
789.0	24.85
789.2	24.27
789.4	23.17
789.6	23.28
789.8	23.58
790.0	23.95
790.2	23.84
790.4	23.61
790.6	22.12
790.8	21.41
791.0	21.18
791.2	21.56
791.4	21.99
791.6	22.67
791.8	22.27
792.0	21.10
792.2	20.97
792.4	21.04
792.6	21.41
792.8	22.06
793.0	23.41
793.2	22.58
793.4	22.32
793.6	21.35
793.8	20.97
794.0	21.32
794.2	22.27
794.4	22.48
794.6	22.60
794.8	22.87
795.0	22.31
795.2	22.24
795.4	21.46
795.6	21.70
795.8	20.83
796.0	21.91
796.2	21.42
796.4	22.02
796.6	21.44
796.8	21.57
797.0	20.08
797.2	20.48
797.4	20.36
797.6	20.89
797.8	20.59
798.0	20.85
798.2	20.05
798.4	19.64
798.6	18.83
798.8	17.72
799.0	17.19
799.2	17.97
799.4	19.15
799.6	20.90
799.8	21.60
800.0	20.19

