Sample:	'20211010A(EM)
File name:	R-CDs 3.FDS
Run date:	'15:46:14, 06/09/2023
Operator:	Administrator
Comment:	'

Instrument
Model:	F-4700 FL Spectrophotometer
Serial number:	2019-001
ROM Version:	5J24010 00

Instrument parameters
Measurement type:	Wavelength scan
Scan mode:	Emission
Data mode:	Fluorescence
EX WL:	520.0 nm
EM  Start WL:	540.0 nm
EM  End WL:	800.0 nm
Scan speed:	1200 nm/min
Delay:	0.0 s
EX Slit:	10.0 nm
EM Slit:	10.0 nm
PMT Voltage:	650 V
Response:	0.002 s
Corrected spectra:	Off
Shutter control:	On

Processing performed
Savitsky-Golay smoothed
Smoothing order:	3
Number of points:	7
Number of times:	1

Peak integration
Integration method:	Rectangular
Sensitivity:	1
Threshold:	1.000

Peaks
No.	Start(nm)	Apex(nm)	End(nm)	Height(Data)	Valley(nm)	Valley(Data)
1	540.0	600.4	601.0	9774	601.0	9720
2	601.0	602.4	603.4	9805	603.4	9762
3	603.4	605.8	784.0	9808	784.0	66.30
4	784.0	784.4	788.2	69.29	788.2	56.94
5	788.2	789.2	791.0	61.98	791.0	54.48
6	791.0	791.8	794.6	57.31	794.6	52.18
7	794.6	795.0	800.0	55.19	800.0	52.60

Data points
nm	Data
540.0	961.1
540.2	964.6
540.4	972.2
540.6	982.2
540.8	987.0
541.0	1006
541.2	1023
541.4	1040
541.6	1042
541.8	1054
542.0	1057
542.2	1074
542.4	1084
542.6	1104
542.8	1118
543.0	1133
543.2	1147
543.4	1160
543.6	1171
543.8	1191
544.0	1208
544.2	1241
544.4	1261
544.6	1282
544.8	1291
545.0	1291
545.2	1295
545.4	1321
545.6	1342
545.8	1364
546.0	1379
546.2	1384
546.4	1393
546.6	1406
546.8	1430
547.0	1446
547.2	1464
547.4	1477
547.6	1494
547.8	1504
548.0	1523
548.2	1535
548.4	1549
548.6	1570
548.8	1594
549.0	1623
549.2	1650
549.4	1660
549.6	1677
549.8	1699
550.0	1703
550.2	1734
550.4	1759
550.6	1779
550.8	1807
551.0	1829
551.2	1833
551.4	1857
551.6	1873
551.8	1894
552.0	1912
552.2	1927
552.4	1945
552.6	1971
552.8	1991
553.0	2012
553.2	2044
553.4	2074
553.6	2104
553.8	2130
554.0	2143
554.2	2154
554.4	2183
554.6	2214
554.8	2245
555.0	2277
555.2	2295
555.4	2314
555.6	2340
555.8	2373
556.0	2390
556.2	2417
556.4	2440
556.6	2471
556.8	2501
557.0	2535
557.2	2554
557.4	2580
557.6	2604
557.8	2631
558.0	2658
558.2	2697
558.4	2737
558.6	2763
558.8	2781
559.0	2804
559.2	2835
559.4	2876
559.6	2918
559.8	2953
560.0	2976
560.2	3012
560.4	3045
560.6	3070
560.8	3103
561.0	3132
561.2	3156
561.4	3178
561.6	3210
561.8	3240
562.0	3276
562.2	3316
562.4	3357
562.6	3394
562.8	3438
563.0	3481
563.2	3513
563.4	3549
563.6	3585
563.8	3622
564.0	3657
564.2	3697
564.4	3735
564.6	3788
564.8	3838
565.0	3873
565.2	3906
565.4	3937
565.6	3971
565.8	4019
566.0	4070
566.2	4108
566.4	4142
566.6	4178
566.8	4220
567.0	4270
567.2	4312
567.4	4355
567.6	4380
567.8	4400
568.0	4450
568.2	4512
568.4	4563
568.6	4605
568.8	4639
569.0	4666
569.2	4709
569.4	4764
569.6	4814
569.8	4844
570.0	4897
570.2	4948
570.4	4996
570.6	5046
570.8	5099
571.0	5150
571.2	5201
571.4	5246
571.6	5277
571.8	5297
572.0	5334
572.2	5375
572.4	5425
572.6	5479
572.8	5530
573.0	5590
573.2	5663
573.4	5720
573.6	5764
573.8	5796
574.0	5835
574.2	5875
574.4	5927
574.6	5967
574.8	5996
575.0	6038
575.2	6102
575.4	6161
575.6	6210
575.8	6251
576.0	6287
576.2	6339
576.4	6397
576.6	6453
576.8	6501
577.0	6531
577.2	6573
577.4	6601
577.6	6612
577.8	6643
578.0	6695
578.2	6746
578.4	6819
578.6	6887
578.8	6912
579.0	6925
579.2	6947
579.4	6992
579.6	7042
579.8	7114
580.0	7165
580.2	7186
580.4	7209
580.6	7270
580.8	7311
581.0	7370
581.2	7404
581.4	7418
581.6	7443
581.8	7494
582.0	7532
582.2	7592
582.4	7611
582.6	7637
582.8	7665
583.0	7725
583.2	7768
583.4	7805
583.6	7846
583.8	7888
584.0	7901
584.2	7945
584.4	7977
584.6	7988
584.8	8049
585.0	8104
585.2	8125
585.4	8161
585.6	8207
585.8	8225
586.0	8266
586.2	8294
586.4	8290
586.6	8318
586.8	8377
587.0	8419
587.2	8460
587.4	8499
587.6	8495
587.8	8523
588.0	8563
588.2	8578
588.4	8595
588.6	8640
588.8	8665
589.0	8709
589.2	8754
589.4	8791
589.6	8807
589.8	8818
590.0	8837
590.2	8867
590.4	8899
590.6	8937
590.8	8963
591.0	8979
591.2	9017
591.4	9052
591.6	9051
591.8	9061
592.0	9074
592.2	9120
592.4	9159
592.6	9177
592.8	9167
593.0	9167
593.2	9177
593.4	9206
593.6	9243
593.8	9271
594.0	9287
594.2	9307
594.4	9320
594.6	9336
594.8	9373
595.0	9399
595.2	9431
595.4	9432
595.6	9439
595.8	9450
596.0	9470
596.2	9475
596.4	9501
596.6	9516
596.8	9546
597.0	9557
597.2	9555
597.4	9559
597.6	9571
597.8	9601
598.0	9632
598.2	9648
598.4	9636
598.6	9633
598.8	9636
599.0	9655
599.2	9694
599.4	9699
599.6	9684
599.8	9678
600.0	9702
600.2	9745
600.4	9774
600.6	9766
600.8	9738
601.0	9720
601.2	9724
601.4	9736
601.6	9739
601.8	9755
602.0	9783
602.2	9793
602.4	9805
602.6	9803
602.8	9784
603.0	9769
603.2	9774
603.4	9762
603.6	9768
603.8	9779
604.0	9784
604.2	9800
604.4	9803
604.6	9782
604.8	9779
605.0	9780
605.2	9786
605.4	9797
605.6	9807
605.8	9808
606.0	9804
606.2	9794
606.4	9796
606.6	9779
606.8	9782
607.0	9783
607.2	9786
607.4	9775
607.6	9775
607.8	9750
608.0	9747
608.2	9731
608.4	9738
608.6	9734
608.8	9742
609.0	9726
609.2	9736
609.4	9731
609.6	9717
609.8	9732
610.0	9736
610.2	9720
610.4	9714
610.6	9708
610.8	9666
611.0	9662
611.2	9641
611.4	9630
611.6	9620
611.8	9619
612.0	9611
612.2	9631
612.4	9632
612.6	9605
612.8	9562
613.0	9507
613.2	9472
613.4	9468
613.6	9497
613.8	9513
614.0	9512
614.2	9486
614.4	9467
614.6	9455
614.8	9460
615.0	9451
615.2	9439
615.4	9402
615.6	9381
615.8	9371
616.0	9351
616.2	9332
616.4	9342
616.6	9338
616.8	9317
617.0	9298
617.2	9268
617.4	9229
617.6	9212
617.8	9197
618.0	9187
618.2	9192
618.4	9192
618.6	9168
618.8	9152
619.0	9109
619.2	9076
619.4	9065
619.6	9053
619.8	9064
620.0	9070
620.2	9040
620.4	8998
620.6	8960
620.8	8930
621.0	8916
621.2	8880
621.4	8862
621.6	8829
621.8	8813
622.0	8801
622.2	8778
622.4	8754
622.6	8746
622.8	8702
623.0	8680
623.2	8661
623.4	8637
623.6	8628
623.8	8589
624.0	8531
624.2	8486
624.4	8486
624.6	8468
624.8	8467
625.0	8452
625.2	8438
625.4	8415
625.6	8375
625.8	8329
626.0	8287
626.2	8265
626.4	8251
626.6	8226
626.8	8184
627.0	8157
627.2	8129
627.4	8111
627.6	8073
627.8	8058
628.0	8057
628.2	8052
628.4	8043
628.6	8017
628.8	7963
629.0	7916
629.2	7888
629.4	7853
629.6	7834
629.8	7818
630.0	7807
630.2	7775
630.4	7747
630.6	7692
630.8	7670
631.0	7634
631.2	7596
631.4	7572
631.6	7534
631.8	7519
632.0	7528
632.2	7512
632.4	7474
632.6	7453
632.8	7392
633.0	7361
633.2	7336
633.4	7321
633.6	7296
633.8	7296
634.0	7274
634.2	7256
634.4	7219
634.6	7180
634.8	7123
635.0	7095
635.2	7067
635.4	7055
635.6	7027
635.8	7016
636.0	6982
636.2	6966
636.4	6932
636.6	6909
636.8	6863
637.0	6842
637.2	6799
637.4	6761
637.6	6732
637.8	6710
638.0	6691
638.2	6692
638.4	6662
638.6	6635
638.8	6602
639.0	6567
639.2	6543
639.4	6527
639.6	6501
639.8	6486
640.0	6451
640.2	6412
640.4	6366
640.6	6322
640.8	6296
641.0	6282
641.2	6257
641.4	6229
641.6	6204
641.8	6174
642.0	6151
642.2	6124
642.4	6089
642.6	6057
642.8	6031
643.0	5999
643.2	5975
643.4	5953
643.6	5940
643.8	5917
644.0	5889
644.2	5872
644.4	5857
644.6	5815
644.8	5778
645.0	5743
645.2	5711
645.4	5693
645.6	5678
645.8	5647
646.0	5619
646.2	5589
646.4	5561
646.6	5534
646.8	5508
647.0	5480
647.2	5477
647.4	5454
647.6	5439
647.8	5421
648.0	5385
648.2	5341
648.4	5319
648.6	5281
648.8	5260
649.0	5239
649.2	5209
649.4	5175
649.6	5135
649.8	5098
650.0	5082
650.2	5066
650.4	5048
650.6	5038
650.8	5013
651.0	4983
651.2	4946
651.4	4914
651.6	4877
651.8	4854
652.0	4830
652.2	4822
652.4	4811
652.6	4799
652.8	4765
653.0	4717
653.2	4686
653.4	4681
653.6	4684
653.8	4660
654.0	4611
654.2	4573
654.4	4544
654.6	4547
654.8	4540
655.0	4515
655.2	4473
655.4	4439
655.6	4413
655.8	4390
656.0	4363
656.2	4354
656.4	4346
656.6	4327
656.8	4307
657.0	4270
657.2	4221
657.4	4196
657.6	4177
657.8	4178
658.0	4158
658.2	4133
658.4	4111
658.6	4084
658.8	4068
659.0	4068
659.2	4056
659.4	4032
659.6	4017
659.8	3972
660.0	3939
660.2	3904
660.4	3881
660.6	3858
660.8	3839
661.0	3820
661.2	3806
661.4	3789
661.6	3776
661.8	3754
662.0	3727
662.2	3706
662.4	3686
662.6	3663
662.8	3648
663.0	3624
663.2	3595
663.4	3576
663.6	3567
663.8	3558
664.0	3550
664.2	3509
664.4	3492
664.6	3474
664.8	3461
665.0	3444
665.2	3409
665.4	3371
665.6	3351
665.8	3335
666.0	3328
666.2	3306
666.4	3283
666.6	3279
666.8	3264
667.0	3261
667.2	3249
667.4	3215
667.6	3197
667.8	3190
668.0	3177
668.2	3161
668.4	3136
668.6	3099
668.8	3070
669.0	3061
669.2	3032
669.4	3017
669.6	3007
669.8	2990
670.0	2973
670.2	2967
670.4	2947
670.6	2927
670.8	2907
671.0	2875
671.2	2853
671.4	2842
671.6	2836
671.8	2823
672.0	2810
672.2	2795
672.4	2782
672.6	2762
672.8	2750
673.0	2738
673.2	2718
673.4	2704
673.6	2688
673.8	2664
674.0	2643
674.2	2622
674.4	2601
674.6	2585
674.8	2583
675.0	2570
675.2	2552
675.4	2534
675.6	2511
675.8	2495
676.0	2493
676.2	2484
676.4	2475
676.6	2461
676.8	2438
677.0	2414
677.2	2384
677.4	2356
677.6	2348
677.8	2333
678.0	2328
678.2	2322
678.4	2314
678.6	2298
678.8	2290
679.0	2271
679.2	2248
679.4	2224
679.6	2212
679.8	2205
680.0	2193
680.2	2191
680.4	2183
680.6	2173
680.8	2160
681.0	2155
681.2	2137
681.4	2130
681.6	2119
681.8	2099
682.0	2073
682.2	2057
682.4	2044
682.6	2043
682.8	2026
683.0	2013
683.2	1997
683.4	1985
683.6	1968
683.8	1958
684.0	1938
684.2	1926
684.4	1919
684.6	1912
684.8	1894
685.0	1877
685.2	1869
685.4	1861
685.6	1850
685.8	1840
686.0	1823
686.2	1801
686.4	1800
686.6	1803
686.8	1793
687.0	1788
687.2	1777
687.4	1760
687.6	1748
687.8	1738
688.0	1723
688.2	1712
688.4	1697
688.6	1683
688.8	1673
689.0	1661
689.2	1650
689.4	1645
689.6	1646
689.8	1637
690.0	1619
690.2	1596
690.4	1577
690.6	1556
690.8	1563
691.0	1568
691.2	1562
691.4	1551
691.6	1538
691.8	1515
692.0	1513
692.2	1514
692.4	1503
692.6	1488
692.8	1465
693.0	1456
693.2	1454
693.4	1448
693.6	1435
693.8	1430
694.0	1423
694.2	1423
694.4	1419
694.6	1404
694.8	1380
695.0	1371
695.2	1364
695.4	1365
695.6	1367
695.8	1363
696.0	1354
696.2	1339
696.4	1327
696.6	1315
696.8	1309
697.0	1305
697.2	1303
697.4	1297
697.6	1292
697.8	1282
698.0	1280
698.2	1275
698.4	1267
698.6	1249
698.8	1238
699.0	1233
699.2	1225
699.4	1222
699.6	1218
699.8	1205
700.0	1203
700.2	1201
700.4	1192
700.6	1180
700.8	1169
701.0	1164
701.2	1165
701.4	1169
701.6	1169
701.8	1158
702.0	1144
702.2	1138
702.4	1136
702.6	1129
702.8	1117
703.0	1097
703.2	1090
703.4	1090
703.6	1091
703.8	1081
704.0	1072
704.2	1058
704.4	1053
704.6	1052
704.8	1048
705.0	1039
705.2	1040
705.4	1039
705.6	1040
705.8	1030
706.0	1019
706.2	1009
706.4	999.4
706.6	993.4
706.8	992.9
707.0	983.6
707.2	976.0
707.4	975.3
707.6	969.5
707.8	958.8
708.0	952.7
708.2	940.4
708.4	932.9
708.6	927.4
708.8	931.1
709.0	929.6
709.2	933.5
709.4	923.8
709.6	922.1
709.8	907.4
710.0	897.1
710.2	889.0
710.4	881.5
710.6	874.1
710.8	880.4
711.0	878.3
711.2	874.9
711.4	862.7
711.6	854.2
711.8	850.8
712.0	850.0
712.2	845.4
712.4	840.6
712.6	831.5
712.8	825.4
713.0	823.4
713.2	818.0
713.4	807.1
713.6	798.5
713.8	793.9
714.0	791.2
714.2	791.8
714.4	788.2
714.6	779.8
714.8	770.7
715.0	762.2
715.2	764.0
715.4	761.2
715.6	752.4
715.8	747.7
716.0	742.1
716.2	737.4
716.4	736.1
716.6	732.2
716.8	721.0
717.0	719.3
717.2	714.8
717.4	707.8
717.6	701.0
717.8	693.6
718.0	687.1
718.2	689.1
718.4	692.3
718.6	687.5
718.8	680.0
719.0	669.8
719.2	660.0
719.4	656.6
719.6	659.9
719.8	652.3
720.0	646.8
720.2	650.9
720.4	646.6
720.6	640.5
720.8	634.4
721.0	617.8
721.2	607.2
721.4	606.8
721.6	605.4
721.8	603.1
722.0	607.8
722.2	604.3
722.4	598.0
722.6	591.1
722.8	586.3
723.0	578.6
723.2	575.9
723.4	564.9
723.6	557.6
723.8	555.8
724.0	555.7
724.2	556.3
724.4	555.7
724.6	546.0
724.8	540.7
725.0	539.7
725.2	533.2
725.4	525.7
725.6	523.1
725.8	516.5
726.0	514.1
726.2	515.0
726.4	513.9
726.6	509.7
726.8	506.6
727.0	498.4
727.2	488.3
727.4	480.6
727.6	479.6
727.8	478.4
728.0	478.2
728.2	477.4
728.4	473.8
728.6	473.0
728.8	470.9
729.0	467.9
729.2	461.0
729.4	457.0
729.6	454.6
729.8	450.5
730.0	448.5
730.2	443.6
730.4	436.1
730.6	432.4
730.8	431.8
731.0	426.3
731.2	424.8
731.4	424.1
731.6	421.8
731.8	419.4
732.0	414.8
732.2	408.2
732.4	405.4
732.6	406.2
732.8	406.6
733.0	401.0
733.2	394.2
733.4	393.1
733.6	389.9
733.8	389.5
734.0	393.6
734.2	386.0
734.4	381.5
734.6	380.2
734.8	373.3
735.0	373.2
735.2	368.2
735.4	359.5
735.6	354.9
735.8	350.0
736.0	349.5
736.2	355.9
736.4	349.8
736.6	346.9
736.8	340.8
737.0	334.0
737.2	334.9
737.4	339.4
737.6	335.1
737.8	334.6
738.0	330.3
738.2	326.9
738.4	326.9
738.6	327.9
738.8	323.9
739.0	318.7
739.2	313.1
739.4	307.1
739.6	303.4
739.8	301.2
740.0	299.1
740.2	298.6
740.4	298.4
740.6	297.4
740.8	296.5
741.0	296.6
741.2	294.9
741.4	293.8
741.6	292.6
741.8	292.6
742.0	289.2
742.2	289.3
742.4	287.5
742.6	281.6
742.8	274.4
743.0	268.8
743.2	268.4
743.4	269.0
743.6	272.1
743.8	270.0
744.0	266.6
744.2	260.2
744.4	262.5
744.6	262.1
744.8	262.8
745.0	262.2
745.2	260.6
745.4	253.9
745.6	252.5
745.8	251.1
746.0	249.0
746.2	245.1
746.4	245.5
746.6	242.8
746.8	240.5
747.0	240.8
747.2	239.5
747.4	233.3
747.6	235.9
747.8	231.7
748.0	225.4
748.2	224.8
748.4	217.5
748.6	214.5
748.8	215.2
749.0	215.5
749.2	218.9
749.4	221.2
749.6	215.7
749.8	212.4
750.0	206.1
750.2	205.9
750.4	207.0
750.6	207.8
750.8	207.6
751.0	205.3
751.2	200.7
751.4	197.2
751.6	193.1
751.8	196.3
752.0	198.5
752.2	198.7
752.4	195.2
752.6	190.0
752.8	186.1
753.0	184.9
753.2	183.0
753.4	181.1
753.6	183.7
753.8	185.9
754.0	186.6
754.2	184.4
754.4	184.1
754.6	180.5
754.8	181.1
755.0	179.9
755.2	177.3
755.4	176.5
755.6	174.6
755.8	173.6
756.0	172.5
756.2	168.8
756.4	165.8
756.6	164.5
756.8	160.5
757.0	162.2
757.2	159.4
757.4	158.4
757.6	159.5
757.8	160.9
758.0	161.1
758.2	159.8
758.4	157.0
758.6	157.5
758.8	156.4
759.0	154.4
759.2	150.6
759.4	150.7
759.6	151.6
759.8	151.6
760.0	151.2
760.2	148.5
760.4	143.6
760.6	144.0
760.8	142.2
761.0	144.3
761.2	145.2
761.4	144.2
761.6	140.3
761.8	138.0
762.0	137.2
762.2	138.4
762.4	138.2
762.6	136.7
762.8	134.2
763.0	135.8
763.2	137.6
763.4	135.8
763.6	134.8
763.8	132.1
764.0	130.9
764.2	131.0
764.4	128.4
764.6	127.2
764.8	125.5
765.0	126.1
765.2	127.5
765.4	124.5
765.6	122.7
765.8	120.3
766.0	118.3
766.2	119.9
766.4	120.4
766.6	119.5
766.8	121.1
767.0	120.5
767.2	120.5
767.4	118.6
767.6	115.8
767.8	111.8
768.0	110.3
768.2	109.9
768.4	110.4
768.6	108.9
768.8	110.2
769.0	109.2
769.2	109.8
769.4	108.0
769.6	108.0
769.8	107.5
770.0	107.7
770.2	104.8
770.4	103.6
770.6	103.0
770.8	102.2
771.0	101.5
771.2	101.1
771.4	100.5
771.6	100.9
771.8	102.9
772.0	102.0
772.2	99.23
772.4	98.81
772.6	101.2
772.8	99.89
773.0	98.79
773.2	94.49
773.4	90.18
773.6	87.91
773.8	89.47
774.0	89.34
774.2	91.65
774.4	90.97
774.6	91.17
774.8	89.53
775.0	88.67
775.2	85.92
775.4	85.07
775.6	84.96
775.8	85.39
776.0	85.96
776.2	86.53
776.4	84.49
776.6	82.34
776.8	80.97
777.0	80.26
777.2	80.29
777.4	80.52
777.6	80.99
777.8	81.67
778.0	79.70
778.2	79.45
778.4	78.32
778.6	77.12
778.8	78.39
779.0	80.21
779.2	79.40
779.4	78.82
779.6	77.02
779.8	76.03
780.0	76.41
780.2	76.89
780.4	76.89
780.6	74.54
780.8	73.45
781.0	72.50
781.2	72.44
781.4	70.66
781.6	70.78
781.8	70.45
782.0	71.97
782.2	71.83
782.4	70.92
782.6	68.38
782.8	67.22
783.0	66.69
783.2	68.78
783.4	67.91
783.6	67.13
783.8	66.67
784.0	66.30
784.2	66.71
784.4	69.29
784.6	68.05
784.8	68.27
785.0	66.07
785.2	66.54
785.4	66.00
785.6	67.33
785.8	68.11
786.0	66.95
786.2	65.40
786.4	64.99
786.6	62.21
786.8	62.46
787.0	61.13
787.2	60.66
787.4	62.56
787.6	62.70
787.8	61.07
788.0	59.37
788.2	56.94
788.4	57.15
788.6	60.12
788.8	61.37
789.0	61.60
789.2	61.98
789.4	61.71
789.6	61.55
789.8	61.96
790.0	61.13
790.2	59.62
790.4	60.34
790.6	58.80
790.8	57.69
791.0	54.48
791.2	54.58
791.4	55.22
791.6	56.58
791.8	57.31
792.0	56.64
792.2	55.06
792.4	55.05
792.6	55.65
792.8	55.84
793.0	56.33
793.2	54.87
793.4	53.87
793.6	52.70
793.8	52.68
794.0	53.28
794.2	53.39
794.4	52.61
794.6	52.18
794.8	53.95
795.0	55.19
795.2	54.88
795.4	53.39
795.6	52.58
795.8	51.03
796.0	51.14
796.2	51.54
796.4	51.80
796.6	52.21
796.8	53.02
797.0	51.23
797.2	49.65
797.4	49.14
797.6	49.47
797.8	50.15
798.0	50.64
798.2	50.95
798.4	50.96
798.6	50.20
798.8	47.78
799.0	46.69
799.2	46.81
799.4	48.93
799.6	51.17
799.8	52.69
800.0	52.60

