Sample:	'20211010A(EM)
File name:	R-CDs 8.FDS
Run date:	'16:10:00, 06/09/2023
Operator:	Administrator
Comment:	'

Instrument
Model:	F-4700 FL Spectrophotometer
Serial number:	2019-001
ROM Version:	5J24010 00

Instrument parameters
Measurement type:	Wavelength scan
Scan mode:	Emission
Data mode:	Fluorescence
EX WL:	520.0 nm
EM  Start WL:	540.0 nm
EM  End WL:	800.0 nm
Scan speed:	1200 nm/min
Delay:	0.0 s
EX Slit:	10.0 nm
EM Slit:	10.0 nm
PMT Voltage:	615 V
Response:	0.002 s
Corrected spectra:	Off
Shutter control:	On

Processing performed
Savitsky-Golay smoothed
Smoothing order:	3
Number of points:	7
Number of times:	1

Peak integration
Integration method:	Rectangular
Sensitivity:	1
Threshold:	1.000

Peaks
No.	Start(nm)	Apex(nm)	End(nm)	Height(Data)	Valley(nm)	Valley(Data)
1	540.0	602.6	603.4	9546	603.4	9520
2	603.4	604.8	606.4	9581	606.4	9548
3	606.4	606.8	610.8	9599	610.8	9449
4	610.8	611.6	785.6	9492	785.6	59.04
5	785.6	786.0	788.0	61.86	788.0	56.50
6	788.0	788.8	791.6	59.47	791.6	52.38
7	791.6	792.0	794.2	54.24	794.2	47.98
8	794.2	795.2	800.0	50.67	800.0	44.17

Data points
nm	Data
540.0	797.9
540.2	806.5
540.4	812.1
540.6	817.6
540.8	826.1
541.0	844.1
541.2	862.4
541.4	873.3
541.6	885.1
541.8	892.6
542.0	902.8
542.2	915.1
542.4	929.3
542.6	938.6
542.8	953.0
543.0	963.8
543.2	975.2
543.4	986.7
543.6	1002
543.8	1016
544.0	1026
544.2	1040
544.4	1050
544.6	1065
544.8	1080
545.0	1096
545.2	1112
545.4	1131
545.6	1151
545.8	1166
546.0	1178
546.2	1191
546.4	1204
546.6	1216
546.8	1230
547.0	1244
547.2	1262
547.4	1286
547.6	1303
547.8	1320
548.0	1335
548.2	1352
548.4	1368
548.6	1379
548.8	1386
549.0	1402
549.2	1425
549.4	1446
549.6	1469
549.8	1489
550.0	1508
550.2	1529
550.4	1545
550.6	1560
550.8	1583
551.0	1613
551.2	1632
551.4	1650
551.6	1666
551.8	1686
552.0	1713
552.2	1737
552.4	1753
552.6	1776
552.8	1791
553.0	1809
553.2	1835
553.4	1854
553.6	1878
553.8	1903
554.0	1925
554.2	1956
554.4	1988
554.6	2015
554.8	2040
555.0	2063
555.2	2087
555.4	2112
555.6	2136
555.8	2163
556.0	2189
556.2	2204
556.4	2223
556.6	2246
556.8	2275
557.0	2307
557.2	2337
557.4	2357
557.6	2380
557.8	2417
558.0	2457
558.2	2491
558.4	2528
558.6	2548
558.8	2566
559.0	2593
559.2	2624
559.4	2654
559.6	2691
559.8	2721
560.0	2749
560.2	2780
560.4	2812
560.6	2847
560.8	2889
561.0	2928
561.2	2960
561.4	2987
561.6	3013
561.8	3038
562.0	3075
562.2	3105
562.4	3140
562.6	3160
562.8	3193
563.0	3229
563.2	3272
563.4	3325
563.6	3381
563.8	3411
564.0	3442
564.2	3477
564.4	3503
564.6	3541
564.8	3582
565.0	3630
565.2	3668
565.4	3710
565.6	3753
565.8	3792
566.0	3835
566.2	3874
566.4	3899
566.6	3923
566.8	3963
567.0	3998
567.2	4037
567.4	4075
567.6	4122
567.8	4174
568.0	4224
568.2	4265
568.4	4309
568.6	4351
568.8	4392
569.0	4430
569.2	4467
569.4	4517
569.6	4565
569.8	4600
570.0	4640
570.2	4673
570.4	4714
570.6	4771
570.8	4821
571.0	4857
571.2	4899
571.4	4940
571.6	4985
571.8	5043
572.0	5096
572.2	5125
572.4	5166
572.6	5207
572.8	5252
573.0	5305
573.2	5354
573.4	5383
573.6	5421
573.8	5459
574.0	5498
574.2	5538
574.4	5581
574.6	5626
574.8	5652
575.0	5696
575.2	5749
575.4	5807
575.6	5871
575.8	5926
576.0	5962
576.2	5992
576.4	6022
576.6	6061
576.8	6107
577.0	6143
577.2	6204
577.4	6241
577.6	6288
577.8	6328
578.0	6370
578.2	6403
578.4	6472
578.6	6517
578.8	6573
579.0	6616
579.2	6656
579.4	6673
579.6	6712
579.8	6741
580.0	6785
580.2	6847
580.4	6891
580.6	6928
580.8	6962
581.0	6984
581.2	7028
581.4	7080
581.6	7111
581.8	7163
582.0	7199
582.2	7224
582.4	7255
582.6	7290
582.8	7321
583.0	7356
583.2	7400
583.4	7454
583.6	7490
583.8	7529
584.0	7577
584.2	7612
584.4	7646
584.6	7687
584.8	7726
585.0	7753
585.2	7800
585.4	7839
585.6	7855
585.8	7891
586.0	7930
586.2	7952
586.4	7990
586.6	8015
586.8	8031
587.0	8065
587.2	8100
587.4	8132
587.6	8171
587.8	8197
588.0	8217
588.2	8238
588.4	8280
588.6	8307
588.8	8331
589.0	8375
589.2	8407
589.4	8450
589.6	8492
589.8	8529
590.0	8546
590.2	8562
590.4	8568
590.6	8583
590.8	8601
591.0	8643
591.2	8670
591.4	8702
591.6	8732
591.8	8759
592.0	8800
592.2	8831
592.4	8849
592.6	8851
592.8	8846
593.0	8846
593.2	8885
593.4	8935
593.6	8966
593.8	8989
594.0	9006
594.2	9019
594.4	9056
594.6	9066
594.8	9060
595.0	9082
595.2	9108
595.4	9137
595.6	9174
595.8	9179
596.0	9181
596.2	9213
596.4	9226
596.6	9239
596.8	9276
597.0	9279
597.2	9271
597.4	9281
597.6	9275
597.8	9282
598.0	9323
598.2	9343
598.4	9384
598.6	9387
598.8	9391
599.0	9389
599.2	9368
599.4	9377
599.6	9398
599.8	9398
600.0	9432
600.2	9452
600.4	9453
600.6	9458
600.8	9450
601.0	9457
601.2	9472
601.4	9481
601.6	9487
601.8	9502
602.0	9516
602.2	9523
602.4	9540
602.6	9546
602.8	9533
603.0	9537
603.2	9526
603.4	9520
603.6	9536
603.8	9535
604.0	9545
604.2	9550
604.4	9542
604.6	9565
604.8	9581
605.0	9567
605.2	9566
605.4	9571
605.6	9565
605.8	9571
606.0	9570
606.2	9550
606.4	9548
606.6	9588
606.8	9599
607.0	9593
607.2	9575
607.4	9565
607.6	9550
607.8	9578
608.0	9576
608.2	9560
608.4	9524
608.6	9516
608.8	9508
609.0	9543
609.2	9550
609.4	9549
609.6	9525
609.8	9509
610.0	9496
610.2	9485
610.4	9465
610.6	9459
610.8	9449
611.0	9466
611.2	9484
611.4	9488
611.6	9492
611.8	9469
612.0	9446
612.2	9431
612.4	9414
612.6	9395
612.8	9383
613.0	9368
613.2	9377
613.4	9354
613.6	9347
613.8	9326
614.0	9315
614.2	9300
614.4	9294
614.6	9279
614.8	9281
615.0	9270
615.2	9267
615.4	9244
615.6	9216
615.8	9214
616.0	9209
616.2	9183
616.4	9160
616.6	9146
616.8	9129
617.0	9141
617.2	9129
617.4	9102
617.6	9084
617.8	9061
618.0	9048
618.2	9023
618.4	9006
618.6	9002
618.8	8997
619.0	8991
619.2	8987
619.4	8950
619.6	8930
619.8	8907
620.0	8872
620.2	8833
620.4	8832
620.6	8812
620.8	8794
621.0	8791
621.2	8766
621.4	8717
621.6	8720
621.8	8696
622.0	8679
622.2	8668
622.4	8647
622.6	8612
622.8	8592
623.0	8560
623.2	8529
623.4	8502
623.6	8484
623.8	8458
624.0	8444
624.2	8421
624.4	8402
624.6	8383
624.8	8359
625.0	8326
625.2	8317
625.4	8294
625.6	8274
625.8	8245
626.0	8201
626.2	8160
626.4	8148
626.6	8149
626.8	8153
627.0	8134
627.2	8098
627.4	8048
627.6	8007
627.8	7982
628.0	7972
628.2	7951
628.4	7938
628.6	7919
628.8	7893
629.0	7855
629.2	7819
629.4	7781
629.6	7747
629.8	7732
630.0	7710
630.2	7682
630.4	7644
630.6	7615
630.8	7595
631.0	7572
631.2	7561
631.4	7543
631.6	7515
631.8	7493
632.0	7461
632.2	7401
632.4	7359
632.6	7328
632.8	7313
633.0	7301
633.2	7287
633.4	7263
633.6	7240
633.8	7216
634.0	7198
634.2	7161
634.4	7131
634.6	7115
634.8	7092
635.0	7055
635.2	7023
635.4	6977
635.6	6949
635.8	6929
636.0	6902
636.2	6880
636.4	6849
636.6	6822
636.8	6796
637.0	6779
637.2	6770
637.4	6764
637.6	6735
637.8	6713
638.0	6669
638.2	6651
638.4	6622
638.6	6592
638.8	6556
639.0	6521
639.2	6487
639.4	6476
639.6	6455
639.8	6430
640.0	6391
640.2	6344
640.4	6299
640.6	6258
640.8	6244
641.0	6234
641.2	6218
641.4	6197
641.6	6170
641.8	6134
642.0	6112
642.2	6089
642.4	6068
642.6	6043
642.8	6010
643.0	5982
643.2	5949
643.4	5912
643.6	5903
643.8	5888
644.0	5859
644.2	5838
644.4	5782
644.6	5747
644.8	5737
645.0	5709
645.2	5687
645.4	5675
645.6	5636
645.8	5617
646.0	5582
646.2	5543
646.4	5521
646.6	5522
646.8	5508
647.0	5485
647.2	5444
647.4	5404
647.6	5366
647.8	5343
648.0	5317
648.2	5298
648.4	5279
648.6	5259
648.8	5235
649.0	5207
649.2	5179
649.4	5164
649.6	5144
649.8	5128
650.0	5095
650.2	5069
650.4	5035
650.6	5009
650.8	4984
651.0	4961
651.2	4927
651.4	4912
651.6	4874
651.8	4843
652.0	4808
652.2	4794
652.4	4784
652.6	4775
652.8	4759
653.0	4730
653.2	4686
653.4	4664
653.6	4628
653.8	4599
654.0	4594
654.2	4573
654.4	4553
654.6	4533
654.8	4492
655.0	4460
655.2	4436
655.4	4416
655.6	4392
655.8	4366
656.0	4338
656.2	4317
656.4	4296
656.6	4284
656.8	4265
657.0	4258
657.2	4240
657.4	4220
657.6	4189
657.8	4155
658.0	4122
658.2	4104
658.4	4085
658.6	4067
658.8	4048
659.0	4034
659.2	4003
659.4	3981
659.6	3952
659.8	3926
660.0	3904
660.2	3882
660.4	3863
660.6	3844
660.8	3817
661.0	3798
661.2	3778
661.4	3760
661.6	3749
661.8	3732
662.0	3715
662.2	3702
662.4	3691
662.6	3672
662.8	3652
663.0	3622
663.2	3595
663.4	3581
663.6	3560
663.8	3534
664.0	3519
664.2	3482
664.4	3462
664.6	3449
664.8	3437
665.0	3416
665.2	3396
665.4	3369
665.6	3358
665.8	3336
666.0	3336
666.2	3316
666.4	3294
666.6	3282
666.8	3265
667.0	3249
667.2	3236
667.4	3208
667.6	3182
667.8	3154
668.0	3122
668.2	3113
668.4	3095
668.6	3072
668.8	3055
669.0	3036
669.2	3017
669.4	3012
669.6	2999
669.8	2982
670.0	2974
670.2	2960
670.4	2941
670.6	2916
670.8	2890
671.0	2871
671.2	2853
671.4	2831
671.6	2818
671.8	2809
672.0	2807
672.2	2799
672.4	2780
672.6	2753
672.8	2728
673.0	2705
673.2	2691
673.4	2675
673.6	2665
673.8	2639
674.0	2628
674.2	2616
674.4	2614
674.6	2603
674.8	2599
675.0	2561
675.2	2544
675.4	2527
675.6	2512
675.8	2492
676.0	2485
676.2	2460
676.4	2444
676.6	2434
676.8	2431
677.0	2409
677.2	2392
677.4	2381
677.6	2358
677.8	2349
678.0	2345
678.2	2329
678.4	2315
678.6	2302
678.8	2279
679.0	2269
679.2	2249
679.4	2238
679.6	2231
679.8	2223
680.0	2212
680.2	2199
680.4	2172
680.6	2158
680.8	2146
681.0	2134
681.2	2114
681.4	2093
681.6	2077
681.8	2065
682.0	2062
682.2	2055
682.4	2041
682.6	2031
682.8	2026
683.0	2005
683.2	1992
683.4	1983
683.6	1968
683.8	1954
684.0	1943
684.2	1924
684.4	1908
684.6	1908
684.8	1901
685.0	1888
685.2	1865
685.4	1844
685.6	1827
685.8	1830
686.0	1825
686.2	1821
686.4	1813
686.6	1795
686.8	1776
687.0	1764
687.2	1752
687.4	1744
687.6	1749
687.8	1734
688.0	1722
688.2	1705
688.4	1698
688.6	1687
688.8	1675
689.0	1655
689.2	1638
689.4	1623
689.6	1617
689.8	1610
690.0	1606
690.2	1602
690.4	1586
690.6	1574
690.8	1557
691.0	1547
691.2	1542
691.4	1539
691.6	1535
691.8	1533
692.0	1522
692.2	1511
692.4	1492
692.6	1478
692.8	1471
693.0	1466
693.2	1461
693.4	1452
693.6	1442
693.8	1431
694.0	1422
694.2	1414
694.4	1410
694.6	1398
694.8	1397
695.0	1384
695.2	1382
695.4	1378
695.6	1370
695.8	1359
696.0	1353
696.2	1333
696.4	1328
696.6	1313
696.8	1306
697.0	1305
697.2	1296
697.4	1288
697.6	1284
697.8	1273
698.0	1268
698.2	1264
698.4	1256
698.6	1252
698.8	1248
699.0	1234
699.2	1218
699.4	1211
699.6	1210
699.8	1207
700.0	1205
700.2	1188
700.4	1180
700.6	1179
700.8	1175
701.0	1171
701.2	1168
701.4	1161
701.6	1158
701.8	1157
702.0	1147
702.2	1136
702.4	1129
702.6	1113
702.8	1104
703.0	1096
703.2	1094
703.4	1092
703.6	1089
703.8	1077
704.0	1077
704.2	1069
704.4	1066
704.6	1059
704.8	1046
705.0	1032
705.2	1029
705.4	1027
705.6	1027
705.8	1016
706.0	1009
706.2	999.6
706.4	986.1
706.6	980.9
706.8	976.4
707.0	966.2
707.2	964.4
707.4	964.1
707.6	956.8
707.8	950.5
708.0	947.6
708.2	944.5
708.4	937.2
708.6	936.0
708.8	931.0
709.0	919.9
709.2	909.3
709.4	903.4
709.6	898.1
709.8	893.1
710.0	888.2
710.2	885.1
710.4	878.6
710.6	875.3
710.8	873.5
711.0	862.9
711.2	857.4
711.4	858.1
711.6	855.7
711.8	850.8
712.0	846.2
712.2	838.4
712.4	832.7
712.6	831.9
712.8	822.8
713.0	812.2
713.2	803.2
713.4	804.5
713.6	797.6
713.8	800.1
714.0	788.7
714.2	780.2
714.4	769.0
714.6	765.5
714.8	758.6
715.0	756.0
715.2	748.2
715.4	752.5
715.6	744.2
715.8	743.2
716.0	741.0
716.2	733.5
716.4	725.9
716.6	721.9
716.8	715.3
717.0	714.6
717.2	710.8
717.4	705.1
717.6	699.4
717.8	692.8
718.0	690.0
718.2	684.9
718.4	681.3
718.6	678.1
718.8	675.0
719.0	671.8
719.2	666.0
719.4	655.2
719.6	649.9
719.8	645.9
720.0	641.0
720.2	637.8
720.4	635.6
720.6	628.3
720.8	621.9
721.0	614.1
721.2	607.7
721.4	602.9
721.6	597.2
721.8	591.0
722.0	586.8
722.2	586.0
722.4	586.5
722.6	581.8
722.8	574.2
723.0	570.6
723.2	568.5
723.4	571.2
723.6	573.3
723.8	563.7
724.0	556.2
724.2	549.0
724.4	542.4
724.6	538.3
724.8	537.2
725.0	536.9
725.2	533.0
725.4	532.2
725.6	529.7
725.8	521.5
726.0	515.3
726.2	511.0
726.4	503.4
726.6	503.4
726.8	496.4
727.0	492.0
727.2	488.7
727.4	487.1
727.6	485.5
727.8	487.4
728.0	480.8
728.2	476.2
728.4	468.5
728.6	466.5
728.8	463.0
729.0	462.1
729.2	459.4
729.4	454.8
729.6	449.3
729.8	446.9
730.0	444.1
730.2	437.4
730.4	437.1
730.6	433.9
730.8	431.0
731.0	426.5
731.2	418.1
731.4	412.2
731.6	409.6
731.8	408.8
732.0	412.1
732.2	412.0
732.4	408.4
732.6	407.9
732.8	403.7
733.0	399.4
733.2	395.2
733.4	390.1
733.6	388.2
733.8	385.0
734.0	384.3
734.2	382.0
734.4	377.2
734.6	373.7
734.8	370.9
735.0	367.7
735.2	365.3
735.4	363.5
735.6	360.8
735.8	357.3
736.0	351.5
736.2	346.8
736.4	342.1
736.6	340.3
736.8	340.2
737.0	338.8
737.2	335.3
737.4	329.6
737.6	327.6
737.8	328.4
738.0	326.7
738.2	325.0
738.4	323.9
738.6	320.3
738.8	319.9
739.0	318.9
739.2	314.4
739.4	309.4
739.6	308.4
739.8	304.9
740.0	303.9
740.2	304.8
740.4	300.8
740.6	294.6
740.8	290.8
741.0	288.7
741.2	287.8
741.4	286.7
741.6	285.6
741.8	282.8
742.0	279.6
742.2	281.2
742.4	279.5
742.6	276.3
742.8	276.7
743.0	274.8
743.2	271.5
743.4	270.4
743.6	267.7
743.8	263.5
744.0	261.5
744.2	261.4
744.4	258.6
744.6	255.0
744.8	251.3
745.0	247.2
745.2	246.4
745.4	248.0
745.6	246.6
745.8	244.5
746.0	242.6
746.2	240.7
746.4	237.2
746.6	236.2
746.8	237.1
747.0	235.8
747.2	235.5
747.4	234.8
747.6	230.7
747.8	228.6
748.0	228.8
748.2	226.7
748.4	225.0
748.6	221.1
748.8	217.2
749.0	213.4
749.2	211.5
749.4	213.0
749.6	213.7
749.8	210.2
750.0	207.9
750.2	204.7
750.4	203.3
750.6	202.7
750.8	205.4
751.0	204.3
751.2	202.6
751.4	198.6
751.6	193.8
751.8	190.7
752.0	191.6
752.2	193.7
752.4	194.2
752.6	192.8
752.8	189.1
753.0	185.2
753.2	183.6
753.4	183.7
753.6	182.8
753.8	181.5
754.0	178.5
754.2	175.8
754.4	176.1
754.6	175.9
754.8	175.5
755.0	172.5
755.2	168.3
755.4	166.5
755.6	168.9
755.8	169.6
756.0	168.7
756.2	165.7
756.4	165.0
756.6	162.9
756.8	164.0
757.0	163.6
757.2	161.5
757.4	159.8
757.6	161.4
757.8	160.6
758.0	157.2
758.2	154.8
758.4	152.6
758.6	151.8
758.8	152.4
759.0	153.5
759.2	151.6
759.4	150.6
759.6	146.7
759.8	144.2
760.0	142.2
760.2	141.4
760.4	143.1
760.6	145.0
760.8	143.7
761.0	142.1
761.2	140.0
761.4	138.0
761.6	138.5
761.8	137.1
762.0	135.8
762.2	133.6
762.4	131.0
762.6	131.4
762.8	133.1
763.0	133.7
763.2	131.8
763.4	130.0
763.6	127.5
763.8	126.3
764.0	125.9
764.2	125.7
764.4	123.1
764.6	121.3
764.8	120.2
765.0	119.6
765.2	119.7
765.4	119.8
765.6	119.6
765.8	120.6
766.0	120.7
766.2	120.4
766.4	119.0
766.6	116.9
766.8	114.9
767.0	115.0
767.2	115.2
767.4	114.2
767.6	112.1
767.8	110.5
768.0	109.4
768.2	109.0
768.4	108.8
768.6	109.0
768.8	106.7
769.0	104.9
769.2	103.9
769.4	102.9
769.6	101.8
769.8	102.6
770.0	103.5
770.2	102.3
770.4	101.7
770.6	99.39
770.8	98.38
771.0	97.13
771.2	98.11
771.4	98.84
771.6	98.83
771.8	96.99
772.0	98.39
772.2	95.50
772.4	92.71
772.6	90.48
772.8	89.25
773.0	88.35
773.2	89.59
773.4	89.15
773.6	88.63
773.8	86.67
774.0	88.37
774.2	87.02
774.4	85.55
774.6	86.08
774.8	84.69
775.0	82.87
775.2	82.90
775.4	82.12
775.6	82.39
775.8	82.58
776.0	81.68
776.2	80.96
776.4	79.70
776.6	80.32
776.8	80.25
777.0	79.09
777.2	79.97
777.4	78.96
777.6	78.43
777.8	79.52
778.0	78.58
778.2	76.86
778.4	74.74
778.6	72.23
778.8	71.05
779.0	72.32
779.2	74.28
779.4	74.94
779.6	74.10
779.8	73.23
780.0	70.11
780.2	68.79
780.4	69.13
780.6	70.08
780.8	70.26
781.0	69.52
781.2	68.22
781.4	67.87
781.6	67.77
781.8	68.55
782.0	68.93
782.2	67.38
782.4	66.00
782.6	64.61
782.8	63.79
783.0	64.09
783.2	65.82
783.4	65.21
783.6	65.12
783.8	63.72
784.0	63.31
784.2	62.41
784.4	61.48
784.6	61.42
784.8	62.58
785.0	61.46
785.2	61.05
785.4	60.32
785.6	59.04
785.8	60.45
786.0	61.86
786.2	61.83
786.4	61.61
786.6	61.48
786.8	59.86
787.0	59.62
787.2	58.95
787.4	58.02
787.6	57.84
787.8	57.04
788.0	56.50
788.2	57.19
788.4	58.28
788.6	58.57
788.8	59.47
789.0	58.89
789.2	57.24
789.4	56.22
789.6	55.85
789.8	55.14
790.0	53.82
790.2	53.58
790.4	52.49
790.6	52.33
790.8	54.85
791.0	54.48
791.2	52.98
791.4	53.33
791.6	52.38
791.8	52.73
792.0	54.24
792.2	53.90
792.4	53.18
792.6	53.88
792.8	52.45
793.0	53.25
793.2	53.13
793.4	52.54
793.6	51.52
793.8	49.90
794.0	48.21
794.2	47.98
794.4	48.93
794.6	48.63
794.8	50.25
795.0	50.09
795.2	50.67
795.4	49.90
795.6	49.42
795.8	49.33
796.0	49.64
796.2	49.84
796.4	48.76
796.6	47.97
796.8	48.38
797.0	49.40
797.2	48.75
797.4	48.97
797.6	46.53
797.8	45.04
798.0	45.44
798.2	46.06
798.4	46.14
798.6	46.11
798.8	45.44
799.0	44.75
799.2	45.25
799.4	46.06
799.6	46.19
799.8	45.63
800.0	44.17

