Sample:	'20211010A(EM)
File name:	R-CDs 10.FDS
Run date:	'16:16:10, 06/09/2023
Operator:	Administrator
Comment:	'

Instrument
Model:	F-4700 FL Spectrophotometer
Serial number:	2019-001
ROM Version:	5J24010 00

Instrument parameters
Measurement type:	Wavelength scan
Scan mode:	Emission
Data mode:	Fluorescence
EX WL:	520.0 nm
EM  Start WL:	540.0 nm
EM  End WL:	800.0 nm
Scan speed:	1200 nm/min
Delay:	0.0 s
EX Slit:	10.0 nm
EM Slit:	10.0 nm
PMT Voltage:	615 V
Response:	0.002 s
Corrected spectra:	Off
Shutter control:	On

Processing performed
Savitsky-Golay smoothed
Smoothing order:	3
Number of points:	7
Number of times:	1

Peak integration
Integration method:	Rectangular
Sensitivity:	1
Threshold:	1.000

Peaks
No.	Start(nm)	Apex(nm)	End(nm)	Height(Data)	Valley(nm)	Valley(Data)
1	540.0	601.4	603.2	8063	603.2	8022
2	603.2	606.2	607.2	8100	607.2	8050
3	607.2	607.8	768.2	8110	768.2	88.39
4	768.2	768.6	775.0	91.64	775.0	70.30
5	775.0	775.8	779.6	73.50	779.6	59.07
6	779.6	780.4	783.6	62.63	783.6	52.65
7	783.6	784.2	785.8	55.01	785.8	49.64
8	785.8	786.6	789.0	54.47	789.0	47.74
9	789.0	789.8	791.4	49.89	791.4	43.07
10	791.4	792.2	795.0	47.75	795.0	40.92
11	795.0	795.6	797.4	42.99	797.4	39.71
12	797.4	798.6	800.0	41.71	800.0	37.47

Data points
nm	Data
540.0	712.6
540.2	717.6
540.4	721.4
540.6	725.0
540.8	728.3
541.0	735.8
541.2	745.9
541.4	750.5
541.6	759.9
541.8	774.0
542.0	784.3
542.2	795.6
542.4	809.2
542.6	812.0
542.8	821.9
543.0	830.9
543.2	843.9
543.4	855.9
543.6	877.0
543.8	889.7
544.0	902.7
544.2	909.2
544.4	921.9
544.6	929.9
544.8	942.8
545.0	958.9
545.2	973.1
545.4	978.4
545.6	992.3
545.8	1004
546.0	1012
546.2	1029
546.4	1042
546.6	1048
546.8	1066
547.0	1083
547.2	1099
547.4	1118
547.6	1136
547.8	1146
548.0	1155
548.2	1161
548.4	1173
548.6	1189
548.8	1207
549.0	1229
549.2	1245
549.4	1259
549.6	1274
549.8	1286
550.0	1298
550.2	1322
550.4	1343
550.6	1358
550.8	1374
551.0	1387
551.2	1399
551.4	1424
551.6	1446
551.8	1459
552.0	1471
552.2	1481
552.4	1489
552.6	1516
552.8	1542
553.0	1567
553.2	1587
553.4	1603
553.6	1619
553.8	1640
554.0	1659
554.2	1684
554.4	1709
554.6	1738
554.8	1757
555.0	1783
555.2	1809
555.4	1829
555.6	1852
555.8	1875
556.0	1897
556.2	1916
556.4	1936
556.6	1946
556.8	1960
557.0	1979
557.2	2017
557.4	2046
557.6	2073
557.8	2095
558.0	2114
558.2	2134
558.4	2159
558.6	2181
558.8	2195
559.0	2220
559.2	2245
559.4	2269
559.6	2300
559.8	2332
560.0	2353
560.2	2376
560.4	2407
560.6	2438
560.8	2470
561.0	2508
561.2	2535
561.4	2563
561.6	2591
561.8	2617
562.0	2636
562.2	2677
562.4	2710
562.6	2744
562.8	2764
563.0	2786
563.2	2796
563.4	2827
563.6	2863
563.8	2899
564.0	2928
564.2	2971
564.4	2989
564.6	3021
564.8	3071
565.0	3109
565.2	3143
565.4	3176
565.6	3198
565.8	3230
566.0	3272
566.2	3296
566.4	3319
566.6	3354
566.8	3393
567.0	3437
567.2	3476
567.4	3504
567.6	3533
567.8	3570
568.0	3602
568.2	3631
568.4	3657
568.6	3689
568.8	3715
569.0	3744
569.2	3770
569.4	3802
569.6	3850
569.8	3897
570.0	3934
570.2	3980
570.4	4020
570.6	4067
570.8	4119
571.0	4153
571.2	4187
571.4	4213
571.6	4245
571.8	4276
572.0	4307
572.2	4329
572.4	4368
572.6	4405
572.8	4439
573.0	4485
573.2	4530
573.4	4565
573.6	4604
573.8	4633
574.0	4652
574.2	4685
574.4	4723
574.6	4766
574.8	4819
575.0	4864
575.2	4898
575.4	4932
575.6	4966
575.8	4998
576.0	5041
576.2	5070
576.4	5101
576.6	5143
576.8	5188
577.0	5220
577.2	5249
577.4	5276
577.6	5318
577.8	5358
578.0	5405
578.2	5438
578.4	5465
578.6	5497
578.8	5527
579.0	5563
579.2	5595
579.4	5632
579.6	5668
579.8	5706
580.0	5737
580.2	5778
580.4	5799
580.6	5833
580.8	5870
581.0	5915
581.2	5964
581.4	5998
581.6	6021
581.8	6043
582.0	6068
582.2	6096
582.4	6139
582.6	6185
582.8	6221
583.0	6259
583.2	6278
583.4	6298
583.6	6320
583.8	6369
584.0	6399
584.2	6431
584.4	6456
584.6	6491
584.8	6512
585.0	6551
585.2	6576
585.4	6597
585.6	6620
585.8	6647
586.0	6680
586.2	6708
586.4	6743
586.6	6770
586.8	6809
587.0	6833
587.2	6861
587.4	6884
587.6	6898
587.8	6925
588.0	6951
588.2	6967
588.4	6969
588.6	7000
588.8	7025
589.0	7073
589.2	7090
589.4	7115
589.6	7121
589.8	7162
590.0	7204
590.2	7252
590.4	7260
590.6	7258
590.8	7252
591.0	7288
591.2	7327
591.4	7375
591.6	7402
591.8	7422
592.0	7421
592.2	7444
592.4	7467
592.6	7489
592.8	7513
593.0	7534
593.2	7534
593.4	7536
593.6	7549
593.8	7579
594.0	7616
594.2	7629
594.4	7631
594.6	7627
594.8	7637
595.0	7674
595.2	7697
595.4	7697
595.6	7701
595.8	7712
596.0	7728
596.2	7764
596.4	7779
596.6	7789
596.8	7793
597.0	7817
597.2	7821
597.4	7822
597.6	7827
597.8	7828
598.0	7833
598.2	7867
598.4	7889
598.6	7888
598.8	7890
599.0	7889
599.2	7893
599.4	7913
599.6	7937
599.8	7965
600.0	7972
600.2	7973
600.4	7958
600.6	7973
600.8	7985
601.0	8027
601.2	8050
601.4	8063
601.6	8043
601.8	8035
602.0	8027
602.2	8034
602.4	8046
602.6	8045
602.8	8032
603.0	8023
603.2	8022
603.4	8042
603.6	8058
603.8	8062
604.0	8073
604.2	8072
604.4	8072
604.6	8077
604.8	8089
605.0	8088
605.2	8090
605.4	8081
605.6	8084
605.8	8084
606.0	8097
606.2	8100
606.4	8094
606.6	8078
606.8	8076
607.0	8058
607.2	8050
607.4	8079
607.6	8102
607.8	8110
608.0	8105
608.2	8065
608.4	8030
608.6	8026
608.8	8035
609.0	8050
609.2	8051
609.4	8048
609.6	8032
609.8	8030
610.0	8032
610.2	8035
610.4	8036
610.6	8021
610.8	8008
611.0	8014
611.2	8013
611.4	8011
611.6	8013
611.8	7992
612.0	7981
612.2	7961
612.4	7937
612.6	7913
612.8	7910
613.0	7912
613.2	7911
613.4	7911
613.6	7911
613.8	7898
614.0	7902
614.2	7904
614.4	7879
614.6	7855
614.8	7835
615.0	7814
615.2	7802
615.4	7812
615.6	7796
615.8	7778
616.0	7751
616.2	7723
616.4	7700
616.6	7703
616.8	7716
617.0	7724
617.2	7712
617.4	7704
617.6	7683
617.8	7664
618.0	7646
618.2	7628
618.4	7623
618.6	7631
618.8	7628
619.0	7615
619.2	7585
619.4	7558
619.6	7538
619.8	7500
620.0	7485
620.2	7467
620.4	7452
620.6	7444
620.8	7437
621.0	7422
621.2	7405
621.4	7361
621.6	7329
621.8	7293
622.0	7280
622.2	7291
622.4	7283
622.6	7263
622.8	7256
623.0	7213
623.2	7186
623.4	7173
623.6	7159
623.8	7145
624.0	7119
624.2	7096
624.4	7095
624.6	7098
624.8	7078
625.0	7065
625.2	7034
625.4	7015
625.6	6996
625.8	6962
626.0	6924
626.2	6909
626.4	6885
626.6	6858
626.8	6840
627.0	6824
627.2	6819
627.4	6802
627.6	6769
627.8	6735
628.0	6719
628.2	6707
628.4	6687
628.6	6668
628.8	6641
629.0	6619
629.2	6595
629.4	6567
629.6	6543
629.8	6531
630.0	6509
630.2	6490
630.4	6471
630.6	6451
630.8	6447
631.0	6439
631.2	6411
631.4	6364
631.6	6329
631.8	6303
632.0	6285
632.2	6282
632.4	6276
632.6	6242
632.8	6222
633.0	6200
633.2	6162
633.4	6135
633.6	6117
633.8	6089
634.0	6068
634.2	6047
634.4	6030
634.6	5991
634.8	5967
635.0	5947
635.2	5932
635.4	5901
635.6	5890
635.8	5853
636.0	5826
636.2	5811
636.4	5797
636.6	5765
636.8	5744
637.0	5725
637.2	5701
637.4	5674
637.6	5662
637.8	5640
638.0	5619
638.2	5602
638.4	5571
638.6	5546
638.8	5528
639.0	5504
639.2	5476
639.4	5442
639.6	5421
639.8	5402
640.0	5380
640.2	5369
640.4	5348
640.6	5328
640.8	5309
641.0	5290
641.2	5265
641.4	5230
641.6	5197
641.8	5166
642.0	5133
642.2	5125
642.4	5111
642.6	5091
642.8	5069
643.0	5040
643.2	5020
643.4	5010
643.6	5006
643.8	4998
644.0	4968
644.2	4927
644.4	4892
644.6	4858
644.8	4844
645.0	4837
645.2	4817
645.4	4800
645.6	4762
645.8	4727
646.0	4708
646.2	4700
646.4	4672
646.6	4649
646.8	4609
647.0	4574
647.2	4551
647.4	4543
647.6	4524
647.8	4526
648.0	4524
648.2	4493
648.4	4470
648.6	4430
648.8	4414
649.0	4400
649.2	4381
649.4	4349
649.6	4324
649.8	4284
650.0	4288
650.2	4261
650.4	4231
650.6	4220
650.8	4199
651.0	4184
651.2	4180
651.4	4146
651.6	4111
651.8	4101
652.0	4087
652.2	4073
652.4	4054
652.6	4026
652.8	4008
653.0	3990
653.2	3967
653.4	3948
653.6	3911
653.8	3883
654.0	3866
654.2	3845
654.4	3823
654.6	3812
654.8	3790
655.0	3769
655.2	3748
655.4	3739
655.6	3718
655.8	3705
656.0	3684
656.2	3661
656.4	3634
656.6	3622
656.8	3603
657.0	3588
657.2	3558
657.4	3550
657.6	3530
657.8	3521
658.0	3498
658.2	3476
658.4	3449
658.6	3434
658.8	3412
659.0	3400
659.2	3386
659.4	3373
659.6	3353
659.8	3338
660.0	3317
660.2	3292
660.4	3283
660.6	3266
660.8	3246
661.0	3236
661.2	3217
661.4	3182
661.6	3158
661.8	3139
662.0	3125
662.2	3122
662.4	3116
662.6	3088
662.8	3057
663.0	3037
663.2	3017
663.4	3003
663.6	2992
663.8	2978
664.0	2964
664.2	2962
664.4	2950
664.6	2931
664.8	2901
665.0	2882
665.2	2854
665.4	2840
665.6	2825
665.8	2806
666.0	2789
666.2	2782
666.4	2768
666.6	2756
666.8	2744
667.0	2723
667.2	2702
667.4	2684
667.6	2674
667.8	2666
668.0	2651
668.2	2631
668.4	2608
668.6	2591
668.8	2578
669.0	2569
669.2	2549
669.4	2535
669.6	2517
669.8	2509
670.0	2505
670.2	2499
670.4	2493
670.6	2477
670.8	2456
671.0	2434
671.2	2413
671.4	2392
671.6	2381
671.8	2371
672.0	2358
672.2	2346
672.4	2336
672.6	2318
672.8	2305
673.0	2297
673.2	2273
673.4	2266
673.6	2259
673.8	2238
674.0	2226
674.2	2210
674.4	2192
674.6	2185
674.8	2177
675.0	2160
675.2	2152
675.4	2131
675.6	2117
675.8	2099
676.0	2087
676.2	2075
676.4	2070
676.6	2057
676.8	2058
677.0	2044
677.2	2028
677.4	2009
677.6	1992
677.8	1971
678.0	1971
678.2	1967
678.4	1959
678.6	1945
678.8	1927
679.0	1908
679.2	1902
679.4	1896
679.6	1891
679.8	1873
680.0	1863
680.2	1848
680.4	1834
680.6	1822
680.8	1813
681.0	1797
681.2	1791
681.4	1783
681.6	1778
681.8	1772
682.0	1762
682.2	1747
682.4	1730
682.6	1715
682.8	1704
683.0	1689
683.2	1672
683.4	1666
683.6	1664
683.8	1655
684.0	1643
684.2	1630
684.4	1616
684.6	1608
684.8	1604
685.0	1597
685.2	1581
685.4	1570
685.6	1561
685.8	1543
686.0	1529
686.2	1524
686.4	1512
686.6	1511
686.8	1510
687.0	1493
687.2	1476
687.4	1460
687.6	1447
687.8	1449
688.0	1447
688.2	1441
688.4	1436
688.6	1420
688.8	1408
689.0	1404
689.2	1399
689.4	1394
689.6	1381
689.8	1360
690.0	1347
690.2	1346
690.4	1350
690.6	1346
690.8	1333
691.0	1316
691.2	1303
691.4	1295
691.6	1291
691.8	1290
692.0	1282
692.2	1268
692.4	1259
692.6	1252
692.8	1252
693.0	1257
693.2	1249
693.4	1230
693.6	1217
693.8	1206
694.0	1200
694.2	1204
694.4	1198
694.6	1189
694.8	1183
695.0	1172
695.2	1163
695.4	1158
695.6	1144
695.8	1138
696.0	1132
696.2	1125
696.4	1122
696.6	1119
696.8	1115
697.0	1113
697.2	1106
697.4	1101
697.6	1091
697.8	1081
698.0	1076
698.2	1067
698.4	1063
698.6	1054
698.8	1050
699.0	1041
699.2	1040
699.4	1031
699.6	1025
699.8	1015
700.0	1016
700.2	1012
700.4	1008
700.6	1001
700.8	991.1
701.0	986.0
701.2	984.1
701.4	980.4
701.6	972.9
701.8	965.7
702.0	955.5
702.2	951.8
702.4	947.0
702.6	940.2
702.8	938.3
703.0	932.7
703.2	926.6
703.4	923.2
703.6	915.8
703.8	910.0
704.0	905.7
704.2	900.4
704.4	897.6
704.6	897.7
704.8	892.9
705.0	883.9
705.2	874.9
705.4	864.0
705.6	860.8
705.8	864.5
706.0	864.3
706.2	854.1
706.4	847.9
706.6	834.4
706.8	825.9
707.0	824.9
707.2	825.7
707.4	819.6
707.6	815.5
707.8	812.8
708.0	802.8
708.2	800.7
708.4	796.4
708.6	788.2
708.8	785.5
709.0	784.1
709.2	777.2
709.4	772.1
709.6	764.2
709.8	756.3
710.0	752.6
710.2	745.8
710.4	747.0
710.6	743.8
710.8	741.0
711.0	736.3
711.2	733.2
711.4	723.4
711.6	714.6
711.8	711.2
712.0	705.6
712.2	703.9
712.4	706.3
712.6	703.3
712.8	699.1
713.0	697.9
713.2	688.3
713.4	681.7
713.6	676.6
713.8	668.9
714.0	663.8
714.2	662.6
714.4	657.4
714.6	653.6
714.8	648.4
715.0	637.6
715.2	629.5
715.4	633.6
715.6	636.0
715.8	637.2
716.0	631.1
716.2	624.4
716.4	612.0
716.6	608.3
716.8	608.5
717.0	603.5
717.2	597.8
717.4	597.3
717.6	588.2
717.8	583.8
718.0	583.5
718.2	576.4
718.4	573.0
718.6	570.2
718.8	561.7
719.0	556.1
719.2	554.2
719.4	548.8
719.6	549.4
719.8	545.3
720.0	538.6
720.2	533.5
720.4	527.3
720.6	520.2
720.8	523.7
721.0	520.8
721.2	517.5
721.4	514.8
721.6	509.6
721.8	504.6
722.0	505.4
722.2	501.7
722.4	495.6
722.6	491.1
722.8	486.8
723.0	484.9
723.2	483.3
723.4	479.7
723.6	474.1
723.8	469.6
724.0	462.5
724.2	460.7
724.4	456.1
724.6	453.6
724.8	452.3
725.0	451.5
725.2	448.2
725.4	446.9
725.6	440.0
725.8	435.3
726.0	433.4
726.2	427.2
726.4	422.2
726.6	419.4
726.8	411.6
727.0	408.6
727.2	409.6
727.4	404.2
727.6	404.5
727.8	403.8
728.0	397.2
728.2	400.6
728.4	398.8
728.6	394.0
728.8	389.7
729.0	386.7
729.2	383.0
729.4	382.9
729.6	380.9
729.8	380.5
730.0	374.7
730.2	375.1
730.4	370.8
730.6	362.8
730.8	355.5
731.0	353.0
731.2	350.7
731.4	353.7
731.6	355.7
731.8	356.3
732.0	351.4
732.2	347.7
732.4	342.3
732.6	338.7
732.8	339.8
733.0	337.6
733.2	331.7
733.4	326.8
733.6	320.7
733.8	319.2
734.0	318.3
734.2	315.6
734.4	316.5
734.6	318.3
734.8	319.5
735.0	320.5
735.2	314.5
735.4	308.9
735.6	303.8
735.8	299.3
736.0	297.3
736.2	293.2
736.4	292.6
736.6	294.0
736.8	291.9
737.0	291.1
737.2	288.5
737.4	283.7
737.6	281.7
737.8	280.2
738.0	276.9
738.2	273.8
738.4	272.1
738.6	271.8
738.8	273.1
739.0	270.9
739.2	266.2
739.4	260.9
739.6	257.8
739.8	254.0
740.0	252.7
740.2	251.4
740.4	250.8
740.6	251.6
740.8	250.8
741.0	247.6
741.2	242.8
741.4	239.5
741.6	238.3
741.8	239.2
742.0	238.9
742.2	237.7
742.4	234.0
742.6	231.2
742.8	230.2
743.0	229.3
743.2	228.3
743.4	226.6
743.6	224.7
743.8	225.8
744.0	225.9
744.2	224.0
744.4	221.8
744.6	217.7
744.8	214.7
745.0	210.2
745.2	210.3
745.4	210.2
745.6	212.6
745.8	213.6
746.0	213.3
746.2	208.3
746.4	204.7
746.6	198.2
746.8	197.6
747.0	196.6
747.2	196.2
747.4	194.2
747.6	190.4
747.8	186.8
748.0	186.2
748.2	185.5
748.4	186.6
748.6	185.3
748.8	182.3
749.0	180.4
749.2	178.6
749.4	180.2
749.6	181.7
749.8	178.3
750.0	176.8
750.2	176.0
750.4	174.1
750.6	176.1
750.8	174.6
751.0	170.6
751.2	170.6
751.4	169.3
751.6	165.9
751.8	166.3
752.0	164.7
752.2	162.3
752.4	162.5
752.6	160.5
752.8	158.2
753.0	157.8
753.2	157.9
753.4	158.3
753.6	159.1
753.8	157.1
754.0	155.2
754.2	154.2
754.4	152.8
754.6	151.1
754.8	145.4
755.0	142.0
755.2	141.8
755.4	144.1
755.6	145.0
755.8	143.5
756.0	141.1
756.2	139.6
756.4	140.0
756.6	139.7
756.8	139.0
757.0	138.2
757.2	138.9
757.4	137.2
757.6	137.0
757.8	134.8
758.0	133.6
758.2	132.2
758.4	129.6
758.6	128.2
758.8	127.8
759.0	127.0
759.2	128.1
759.4	129.5
759.6	128.7
759.8	127.3
760.0	123.6
760.2	119.3
760.4	118.1
760.6	119.8
760.8	121.7
761.0	122.7
761.2	121.7
761.4	118.5
761.6	117.1
761.8	114.2
762.0	113.1
762.2	113.0
762.4	112.7
762.6	112.4
762.8	114.0
763.0	111.8
763.2	113.8
763.4	112.3
763.6	111.4
763.8	110.4
764.0	109.2
764.2	104.1
764.4	102.6
764.6	100.5
764.8	101.0
765.0	102.5
765.2	104.5
765.4	101.6
765.6	99.32
765.8	98.63
766.0	99.64
766.2	99.78
766.4	100.5
766.6	97.24
766.8	94.37
767.0	92.57
767.2	93.65
767.4	92.84
767.6	91.18
767.8	90.10
768.0	89.24
768.2	88.39
768.4	90.64
768.6	91.64
768.8	90.80
769.0	90.14
769.2	89.70
769.4	88.47
769.6	89.89
769.8	88.72
770.0	87.04
770.2	85.18
770.4	83.61
770.6	82.00
770.8	81.51
771.0	80.89
771.2	79.98
771.4	81.26
771.6	81.61
771.8	80.38
772.0	79.73
772.2	79.51
772.4	79.14
772.6	79.83
772.8	79.34
773.0	76.72
773.2	75.19
773.4	74.12
773.6	75.13
773.8	75.53
774.0	76.05
774.2	74.15
774.4	72.94
774.6	72.16
774.8	70.45
775.0	70.30
775.2	70.31
775.4	71.41
775.6	73.38
775.8	73.50
776.0	71.00
776.2	70.61
776.4	69.35
776.6	71.05
776.8	71.87
777.0	70.47
777.2	68.88
777.4	69.14
777.6	67.97
777.8	67.47
778.0	66.46
778.2	65.01
778.4	64.25
778.6	65.29
778.8	62.95
779.0	61.96
779.2	60.98
779.4	60.00
779.6	59.07
779.8	59.32
780.0	60.82
780.2	62.46
780.4	62.63
780.6	61.90
780.8	60.14
781.0	59.17
781.2	60.16
781.4	60.54
781.6	59.28
781.8	58.71
782.0	57.44
782.2	56.79
782.4	57.67
782.6	58.90
782.8	58.37
783.0	57.75
783.2	55.09
783.4	52.77
783.6	52.65
783.8	53.64
784.0	54.05
784.2	55.01
784.4	54.49
784.6	54.07
784.8	53.39
785.0	53.97
785.2	52.88
785.4	51.69
785.6	50.61
785.8	49.64
786.0	51.02
786.2	52.80
786.4	54.47
786.6	54.47
786.8	52.84
787.0	50.16
787.2	48.67
787.4	47.73
787.6	48.61
787.8	49.32
788.0	49.99
788.2	49.53
788.4	49.32
788.6	49.60
788.8	48.39
789.0	47.74
789.2	48.14
789.4	48.30
789.6	49.41
789.8	49.89
790.0	48.84
790.2	47.20
790.4	46.77
790.6	45.99
790.8	45.29
791.0	46.19
791.2	45.09
791.4	43.07
791.6	44.38
791.8	45.09
792.0	45.73
792.2	47.75
792.4	46.30
792.6	44.96
792.8	44.32
793.0	43.52
793.2	44.40
793.4	44.16
793.6	43.08
793.8	42.70
794.0	42.30
794.2	41.87
794.4	42.79
794.6	41.24
794.8	41.16
795.0	40.92
795.2	41.28
795.4	42.36
795.6	42.99
795.8	41.70
796.0	41.62
796.2	41.27
796.4	41.31
796.6	42.28
796.8	42.94
797.0	41.49
797.2	40.49
797.4	39.71
797.6	40.09
797.8	40.12
798.0	41.06
798.2	41.22
798.4	41.66
798.6	41.71
798.8	41.48
799.0	40.16
799.2	40.60
799.4	39.70
799.6	39.42
799.8	38.79
800.0	37.47

