Sample:	'20211010A(EM)
File name:	R-CDs 6.FDS
Run date:	'16:02:00, 06/09/2023
Operator:	Administrator
Comment:	'

Instrument
Model:	F-4700 FL Spectrophotometer
Serial number:	2019-001
ROM Version:	5J24010 00

Instrument parameters
Measurement type:	Wavelength scan
Scan mode:	Emission
Data mode:	Fluorescence
EX WL:	520.0 nm
EM  Start WL:	540.0 nm
EM  End WL:	800.0 nm
Scan speed:	1200 nm/min
Delay:	0.0 s
EX Slit:	10.0 nm
EM Slit:	10.0 nm
PMT Voltage:	615 V
Response:	0.002 s
Corrected spectra:	Off
Shutter control:	On

Processing performed
Savitsky-Golay smoothed
Smoothing order:	3
Number of points:	7
Number of times:	1

Peak integration
Integration method:	Rectangular
Sensitivity:	1
Threshold:	1.000

Peaks
No.	Start(nm)	Apex(nm)	End(nm)	Height(Data)	Valley(nm)	Valley(Data)
1	540.0	605.0	607.4	8244	607.4	8134
2	607.4	608.8	760.0	8209	760.0	119.7
3	760.0	761.6	768.8	123.7	768.8	86.66
4	768.8	769.6	787.8	91.71	787.8	48.10
5	787.8	788.2	789.2	51.03	789.2	45.90
6	789.2	791.0	792.4	47.52	792.4	44.01
7	792.4	793.2	793.8	46.63	793.8	42.31
8	793.8	795.2	800.0	45.98	800.0	39.56

Data points
nm	Data
540.0	718.3
540.2	712.0
540.4	715.7
540.6	725.5
540.8	737.2
541.0	749.0
541.2	752.8
541.4	761.2
541.6	769.9
541.8	779.6
542.0	789.7
542.2	796.6
542.4	805.6
542.6	817.2
542.8	827.7
543.0	844.6
543.2	856.1
543.4	863.2
543.6	878.4
543.8	890.2
544.0	899.4
544.2	910.6
544.4	922.1
544.6	931.8
544.8	946.8
545.0	958.9
545.2	972.2
545.4	985.1
545.6	1005
545.8	1016
546.0	1023
546.2	1032
546.4	1042
546.6	1055
546.8	1079
547.0	1097
547.2	1107
547.4	1118
547.6	1130
547.8	1141
548.0	1161
548.2	1176
548.4	1193
548.6	1212
548.8	1226
549.0	1241
549.2	1252
549.4	1263
549.6	1286
549.8	1313
550.0	1331
550.2	1351
550.4	1360
550.6	1370
550.8	1382
551.0	1395
551.2	1407
551.4	1429
551.6	1449
551.8	1468
552.0	1489
552.2	1506
552.4	1519
552.6	1546
552.8	1566
553.0	1588
553.2	1608
553.4	1623
553.6	1638
553.8	1662
554.0	1682
554.2	1699
554.4	1714
554.6	1736
554.8	1760
555.0	1786
555.2	1814
555.4	1840
555.6	1864
555.8	1888
556.0	1908
556.2	1925
556.4	1939
556.6	1961
556.8	1981
557.0	2002
557.2	2025
557.4	2053
557.6	2072
557.8	2094
558.0	2115
558.2	2138
558.4	2167
558.6	2201
558.8	2222
559.0	2248
559.2	2270
559.4	2296
559.6	2320
559.8	2350
560.0	2379
560.2	2421
560.4	2458
560.6	2487
560.8	2510
561.0	2528
561.2	2550
561.4	2580
561.6	2610
561.8	2639
562.0	2668
562.2	2691
562.4	2718
562.6	2749
562.8	2783
563.0	2812
563.2	2840
563.4	2878
563.6	2909
563.8	2939
564.0	2977
564.2	3005
564.4	3037
564.6	3062
564.8	3083
565.0	3114
565.2	3153
565.4	3184
565.6	3231
565.8	3263
566.0	3298
566.2	3343
566.4	3375
566.6	3404
566.8	3430
567.0	3461
567.2	3502
567.4	3549
567.6	3587
567.8	3620
568.0	3640
568.2	3665
568.4	3704
568.6	3744
568.8	3786
569.0	3820
569.2	3854
569.4	3872
569.6	3896
569.8	3927
570.0	3966
570.2	4021
570.4	4071
570.6	4103
570.8	4129
571.0	4168
571.2	4200
571.4	4254
571.6	4296
571.8	4338
572.0	4373
572.2	4407
572.4	4429
572.6	4462
572.8	4491
573.0	4525
573.2	4570
573.4	4616
573.6	4656
573.8	4695
574.0	4732
574.2	4761
574.4	4793
574.6	4830
574.8	4872
575.0	4912
575.2	4953
575.4	5000
575.6	5028
575.8	5061
576.0	5105
576.2	5144
576.4	5183
576.6	5225
576.8	5251
577.0	5288
577.2	5329
577.4	5367
577.6	5401
577.8	5433
578.0	5457
578.2	5496
578.4	5538
578.6	5579
578.8	5613
579.0	5642
579.2	5673
579.4	5706
579.6	5758
579.8	5806
580.0	5856
580.2	5885
580.4	5922
580.6	5946
580.8	5983
581.0	6014
581.2	6043
581.4	6073
581.6	6101
581.8	6132
582.0	6167
582.2	6207
582.4	6246
582.6	6276
582.8	6286
583.0	6317
583.2	6347
583.4	6373
583.6	6414
583.8	6468
584.0	6501
584.2	6546
584.4	6582
584.6	6609
584.8	6631
585.0	6667
585.2	6681
585.4	6708
585.6	6744
585.8	6785
586.0	6805
586.2	6822
586.4	6839
586.6	6859
586.8	6906
587.0	6951
587.2	6971
587.4	6983
587.6	6992
587.8	7021
588.0	7083
588.2	7131
588.4	7154
588.6	7148
588.8	7127
589.0	7142
589.2	7179
589.4	7219
589.6	7255
589.8	7284
590.0	7289
590.2	7324
590.4	7357
590.6	7394
590.8	7421
591.0	7419
591.2	7413
591.4	7437
591.6	7469
591.8	7509
592.0	7532
592.2	7535
592.4	7558
592.6	7575
592.8	7600
593.0	7616
593.2	7627
593.4	7624
593.6	7640
593.8	7658
594.0	7668
594.2	7687
594.4	7718
594.6	7735
594.8	7764
595.0	7786
595.2	7791
595.4	7794
595.6	7802
595.8	7824
596.0	7855
596.2	7882
596.4	7892
596.6	7891
596.8	7887
597.0	7890
597.2	7924
597.4	7959
597.6	7966
597.8	7991
598.0	7994
598.2	7995
598.4	8023
598.6	8025
598.8	8029
599.0	8033
599.2	8030
599.4	8032
599.6	8043
599.8	8041
600.0	8061
600.2	8072
600.4	8086
600.6	8108
600.8	8118
601.0	8114
601.2	8127
601.4	8135
601.6	8137
601.8	8156
602.0	8146
602.2	8146
602.4	8140
602.6	8144
602.8	8161
603.0	8172
603.2	8187
603.4	8203
603.6	8207
603.8	8214
604.0	8207
604.2	8189
604.4	8202
604.6	8212
604.8	8230
605.0	8244
605.2	8236
605.4	8206
605.6	8176
605.8	8184
606.0	8185
606.2	8196
606.4	8220
606.6	8211
606.8	8189
607.0	8170
607.2	8143
607.4	8134
607.6	8165
607.8	8173
608.0	8189
608.2	8177
608.4	8177
608.6	8195
608.8	8209
609.0	8204
609.2	8202
609.4	8193
609.6	8167
609.8	8159
610.0	8154
610.2	8148
610.4	8140
610.6	8130
610.8	8108
611.0	8104
611.2	8109
611.4	8115
611.6	8093
611.8	8073
612.0	8070
612.2	8069
612.4	8074
612.6	8080
612.8	8060
613.0	8046
613.2	8033
613.4	8021
613.6	8004
613.8	8013
614.0	8012
614.2	8004
614.4	7980
614.6	7950
614.8	7915
615.0	7934
615.2	7935
615.4	7925
615.6	7894
615.8	7859
616.0	7834
616.2	7831
616.4	7837
616.6	7826
616.8	7811
617.0	7804
617.2	7792
617.4	7771
617.6	7767
617.8	7747
618.0	7746
618.2	7750
618.4	7745
618.6	7724
618.8	7690
619.0	7657
619.2	7635
619.4	7626
619.6	7613
619.8	7595
620.0	7577
620.2	7558
620.4	7526
620.6	7510
620.8	7503
621.0	7491
621.2	7484
621.4	7469
621.6	7442
621.8	7428
622.0	7422
622.2	7402
622.4	7402
622.6	7396
622.8	7389
623.0	7358
623.2	7311
623.4	7261
623.6	7258
623.8	7255
624.0	7252
624.2	7232
624.4	7210
624.6	7170
624.8	7150
625.0	7124
625.2	7090
625.4	7070
625.6	7061
625.8	7039
626.0	7027
626.2	7008
626.4	6974
626.6	6955
626.8	6942
627.0	6926
627.2	6916
627.4	6889
627.6	6857
627.8	6826
628.0	6802
628.2	6781
628.4	6771
628.6	6747
628.8	6743
629.0	6728
629.2	6711
629.4	6682
629.6	6652
629.8	6625
630.0	6610
630.2	6591
630.4	6570
630.6	6543
630.8	6520
631.0	6504
631.2	6473
631.4	6440
631.6	6405
631.8	6379
632.0	6367
632.2	6362
632.4	6344
632.6	6317
632.8	6274
633.0	6246
633.2	6213
633.4	6193
633.6	6180
633.8	6164
634.0	6154
634.2	6130
634.4	6100
634.6	6067
634.8	6033
635.0	6007
635.2	5999
635.4	5977
635.6	5978
635.8	5968
636.0	5942
636.2	5905
636.4	5864
636.6	5837
636.8	5826
637.0	5804
637.2	5787
637.4	5763
637.6	5734
637.8	5717
638.0	5687
638.2	5645
638.4	5613
638.6	5596
638.8	5584
639.0	5597
639.2	5583
639.4	5560
639.6	5525
639.8	5492
640.0	5455
640.2	5435
640.4	5400
640.6	5382
640.8	5360
641.0	5350
641.2	5344
641.4	5327
641.6	5300
641.8	5285
642.0	5250
642.2	5233
642.4	5205
642.6	5166
642.8	5124
643.0	5090
643.2	5077
643.4	5064
643.6	5042
643.8	5031
644.0	5002
644.2	4970
644.4	4963
644.6	4920
644.8	4894
645.0	4886
645.2	4853
645.4	4843
645.6	4825
645.8	4781
646.0	4763
646.2	4745
646.4	4730
646.6	4718
646.8	4680
647.0	4644
647.2	4625
647.4	4605
647.6	4595
647.8	4582
648.0	4555
648.2	4537
648.4	4509
648.6	4484
648.8	4462
649.0	4449
649.2	4426
649.4	4409
649.6	4391
649.8	4367
650.0	4346
650.2	4321
650.4	4286
650.6	4265
650.8	4247
651.0	4225
651.2	4206
651.4	4191
651.6	4167
651.8	4143
652.0	4128
652.2	4111
652.4	4084
652.6	4066
652.8	4044
653.0	4009
653.2	4005
653.4	3986
653.6	3967
653.8	3945
654.0	3917
654.2	3883
654.4	3876
654.6	3852
654.8	3838
655.0	3814
655.2	3790
655.4	3779
655.6	3762
655.8	3745
656.0	3724
656.2	3698
656.4	3671
656.6	3658
656.8	3625
657.0	3617
657.2	3602
657.4	3585
657.6	3568
657.8	3557
658.0	3532
658.2	3518
658.4	3497
658.6	3480
658.8	3456
659.0	3439
659.2	3417
659.4	3399
659.6	3386
659.8	3378
660.0	3352
660.2	3327
660.4	3303
660.6	3267
660.8	3242
661.0	3225
661.2	3208
661.4	3196
661.6	3188
661.8	3174
662.0	3168
662.2	3153
662.4	3141
662.6	3120
662.8	3096
663.0	3080
663.2	3069
663.4	3043
663.6	3021
663.8	3004
664.0	2993
664.2	2978
664.4	2975
664.6	2955
664.8	2935
665.0	2915
665.2	2895
665.4	2874
665.6	2867
665.8	2853
666.0	2847
666.2	2831
666.4	2811
666.6	2796
666.8	2784
667.0	2753
667.2	2733
667.4	2713
667.6	2698
667.8	2682
668.0	2676
668.2	2657
668.4	2645
668.6	2626
668.8	2614
669.0	2592
669.2	2572
669.4	2549
669.6	2538
669.8	2526
670.0	2523
670.2	2510
670.4	2502
670.6	2475
670.8	2459
671.0	2454
671.2	2445
671.4	2427
671.6	2418
671.8	2393
672.0	2378
672.2	2365
672.4	2351
672.6	2326
672.8	2309
673.0	2297
673.2	2292
673.4	2276
673.6	2266
673.8	2253
674.0	2247
674.2	2238
674.4	2236
674.6	2231
674.8	2215
675.0	2194
675.2	2174
675.4	2144
675.6	2127
675.8	2119
676.0	2106
676.2	2090
676.4	2086
676.6	2070
676.8	2057
677.0	2046
677.2	2034
677.4	2016
677.6	2009
677.8	2001
678.0	1990
678.2	1982
678.4	1971
678.6	1968
678.8	1960
679.0	1943
679.2	1918
679.4	1897
679.6	1875
679.8	1872
680.0	1868
680.2	1859
680.4	1847
680.6	1838
680.8	1823
681.0	1804
681.2	1794
681.4	1787
681.6	1781
681.8	1767
682.0	1752
682.2	1733
682.4	1735
682.6	1727
682.8	1715
683.0	1693
683.2	1676
683.4	1661
683.6	1666
683.8	1659
684.0	1645
684.2	1635
684.4	1625
684.6	1612
684.8	1602
685.0	1594
685.2	1588
685.4	1585
685.6	1577
685.8	1570
686.0	1550
686.2	1533
686.4	1522
686.6	1512
686.8	1509
687.0	1509
687.2	1500
687.4	1488
687.6	1475
687.8	1462
688.0	1456
688.2	1450
688.4	1448
688.6	1437
688.8	1426
689.0	1417
689.2	1410
689.4	1393
689.6	1387
689.8	1373
690.0	1366
690.2	1364
690.4	1364
690.6	1353
690.8	1354
691.0	1336
691.2	1329
691.4	1313
691.6	1303
691.8	1291
692.0	1288
692.2	1270
692.4	1268
692.6	1256
692.8	1252
693.0	1248
693.2	1242
693.4	1229
693.6	1218
693.8	1212
694.0	1215
694.2	1217
694.4	1220
694.6	1211
694.8	1194
695.0	1177
695.2	1162
695.4	1155
695.6	1151
695.8	1147
696.0	1140
696.2	1133
696.4	1127
696.6	1123
696.8	1114
697.0	1107
697.2	1100
697.4	1100
697.6	1096
697.8	1086
698.0	1082
698.2	1075
698.4	1072
698.6	1069
698.8	1058
699.0	1052
699.2	1050
699.4	1046
699.6	1042
699.8	1038
700.0	1025
700.2	1020
700.4	1007
700.6	999.3
700.8	996.5
701.0	1001
701.2	999.0
701.4	997.3
701.6	986.0
701.8	977.8
702.0	972.3
702.2	966.8
702.4	955.7
702.6	948.1
702.8	933.7
703.0	922.6
703.2	922.6
703.4	922.6
703.6	918.2
703.8	915.9
704.0	906.9
704.2	900.3
704.4	899.0
704.6	898.4
704.8	894.8
705.0	889.3
705.2	887.4
705.4	886.7
705.6	879.2
705.8	872.9
706.0	864.5
706.2	858.1
706.4	851.2
706.6	848.5
706.8	836.9
707.0	824.8
707.2	811.6
707.4	805.9
707.6	801.5
707.8	800.4
708.0	801.3
708.2	799.6
708.4	795.7
708.6	795.9
708.8	791.5
709.0	783.5
709.2	779.4
709.4	775.5
709.6	771.5
709.8	771.1
710.0	764.7
710.2	756.6
710.4	748.1
710.6	744.1
710.8	738.1
711.0	736.7
711.2	735.7
711.4	733.8
711.6	724.7
711.8	713.1
712.0	705.9
712.2	702.7
712.4	704.8
712.6	703.1
712.8	699.3
713.0	691.5
713.2	688.0
713.4	680.8
713.6	674.8
713.8	669.0
714.0	666.3
714.2	664.8
714.4	661.2
714.6	654.6
714.8	648.3
715.0	643.1
715.2	638.0
715.4	637.8
715.6	637.1
715.8	637.2
716.0	632.8
716.2	627.8
716.4	621.4
716.6	612.8
716.8	605.2
717.0	602.4
717.2	596.1
717.4	591.0
717.6	583.2
717.8	578.2
718.0	574.5
718.2	577.7
718.4	575.7
718.6	572.5
718.8	561.7
719.0	557.4
719.2	554.5
719.4	552.4
719.6	548.9
719.8	545.4
720.0	539.3
720.2	536.1
720.4	533.4
720.6	531.6
720.8	526.4
721.0	520.2
721.2	515.7
721.4	513.3
721.6	509.9
721.8	510.0
722.0	507.8
722.2	504.6
722.4	495.9
722.6	488.3
722.8	483.2
723.0	479.4
723.2	479.4
723.4	478.6
723.6	472.2
723.8	466.6
724.0	466.3
724.2	465.4
724.4	464.2
724.6	459.7
724.8	455.3
725.0	455.0
725.2	451.6
725.4	447.4
725.6	441.1
725.8	432.6
726.0	430.6
726.2	428.6
726.4	423.6
726.6	421.4
726.8	416.4
727.0	412.4
727.2	413.5
727.4	411.0
727.6	412.5
727.8	410.2
728.0	404.1
728.2	396.2
728.4	392.2
728.6	388.3
728.8	392.0
729.0	388.0
729.2	387.1
729.4	384.0
729.6	382.0
729.8	377.9
730.0	378.7
730.2	374.0
730.4	371.3
730.6	368.8
730.8	366.3
731.0	362.6
731.2	362.4
731.4	355.9
731.6	350.6
731.8	346.2
732.0	343.9
732.2	339.6
732.4	337.5
732.6	333.6
732.8	329.7
733.0	332.5
733.2	333.5
733.4	332.2
733.6	326.8
733.8	323.3
734.0	318.5
734.2	317.4
734.4	315.3
734.6	317.5
734.8	314.5
735.0	310.7
735.2	307.5
735.4	302.4
735.6	303.1
735.8	303.7
736.0	301.6
736.2	295.7
736.4	289.8
736.6	288.0
736.8	287.6
737.0	286.6
737.2	286.6
737.4	286.4
737.6	285.0
737.8	285.0
738.0	278.5
738.2	276.5
738.4	272.7
738.6	271.1
738.8	269.9
739.0	271.1
739.2	267.9
739.4	268.7
739.6	264.5
739.8	263.0
740.0	260.7
740.2	258.2
740.4	254.1
740.6	250.9
740.8	248.0
741.0	250.3
741.2	251.0
741.4	249.1
741.6	245.9
741.8	242.1
742.0	239.6
742.2	238.7
742.4	235.4
742.6	234.5
742.8	231.2
743.0	227.6
743.2	225.0
743.4	223.7
743.6	220.8
743.8	226.3
744.0	225.2
744.2	221.4
744.4	219.6
744.6	216.7
744.8	215.0
745.0	217.1
745.2	211.7
745.4	208.0
745.6	208.4
745.8	207.0
746.0	210.1
746.2	207.7
746.4	202.1
746.6	199.9
746.8	199.7
747.0	199.5
747.2	196.7
747.4	192.2
747.6	187.3
747.8	183.7
748.0	185.1
748.2	187.0
748.4	186.1
748.6	185.8
748.8	183.2
749.0	178.3
749.2	178.6
749.4	177.7
749.6	176.8
749.8	175.3
750.0	174.2
750.2	174.5
750.4	175.5
750.6	176.3
750.8	172.8
751.0	170.0
751.2	165.1
751.4	164.8
751.6	164.8
751.8	166.6
752.0	167.1
752.2	167.0
752.4	165.2
752.6	164.2
752.8	163.5
753.0	160.7
753.2	158.3
753.4	155.1
753.6	153.0
753.8	151.8
754.0	154.6
754.2	152.5
754.4	151.5
754.6	148.8
754.8	145.4
755.0	145.7
755.2	148.6
755.4	148.1
755.6	148.4
755.8	144.8
756.0	141.9
756.2	139.8
756.4	137.1
756.6	137.9
756.8	138.7
757.0	137.9
757.2	138.3
757.4	135.9
757.6	134.4
757.8	135.9
758.0	135.4
758.2	133.9
758.4	132.9
758.6	131.6
758.8	130.4
759.0	131.6
759.2	130.5
759.4	127.8
759.6	125.9
759.8	123.3
760.0	119.7
760.2	119.9
760.4	122.0
760.6	121.1
760.8	121.6
761.0	119.8
761.2	120.3
761.4	121.8
761.6	123.7
761.8	118.3
762.0	114.1
762.2	111.6
762.4	111.6
762.6	112.4
762.8	113.3
763.0	111.9
763.2	111.1
763.4	109.9
763.6	107.4
763.8	106.1
764.0	106.2
764.2	106.6
764.4	106.6
764.6	104.4
764.8	102.1
765.0	102.3
765.2	101.5
765.4	100.0
765.6	99.57
765.8	97.29
766.0	97.36
766.2	97.44
766.4	97.45
766.6	97.44
766.8	97.20
767.0	96.00
767.2	96.72
767.4	94.92
767.6	95.18
767.8	95.17
768.0	93.16
768.2	92.65
768.4	91.01
768.6	87.87
768.8	86.66
769.0	87.36
769.2	86.94
769.4	90.14
769.6	91.71
769.8	90.68
770.0	87.79
770.2	85.67
770.4	83.82
770.6	84.54
770.8	84.83
771.0	85.91
771.2	85.45
771.4	84.63
771.6	82.79
771.8	81.05
772.0	79.52
772.2	79.95
772.4	80.98
772.6	80.91
772.8	80.74
773.0	81.05
773.2	79.31
773.4	76.01
773.6	73.89
773.8	73.79
774.0	76.29
774.2	77.91
774.4	76.20
774.6	73.88
774.8	71.58
775.0	72.15
775.2	72.97
775.4	72.91
775.6	71.71
775.8	71.30
776.0	71.70
776.2	71.13
776.4	69.18
776.6	66.68
776.8	64.54
777.0	63.69
777.2	64.62
777.4	64.71
777.6	64.40
777.8	63.08
778.0	62.76
778.2	62.93
778.4	62.70
778.6	61.92
778.8	61.56
779.0	61.60
779.2	61.47
779.4	61.94
779.6	61.93
779.8	61.29
780.0	62.07
780.2	62.21
780.4	61.32
780.6	60.92
780.8	60.10
781.0	59.22
781.2	58.95
781.4	57.82
781.6	57.08
781.8	56.47
782.0	56.44
782.2	56.23
782.4	56.12
782.6	55.91
782.8	55.88
783.0	55.53
783.2	56.08
783.4	56.59
783.6	55.96
783.8	55.93
784.0	56.09
784.2	54.54
784.4	53.77
784.6	52.77
784.8	53.05
785.0	54.39
785.2	55.83
785.4	54.47
785.6	53.19
785.8	51.71
786.0	51.50
786.2	51.07
786.4	51.30
786.6	50.27
786.8	50.43
787.0	49.92
787.2	49.14
787.4	48.89
787.6	49.63
787.8	48.10
788.0	50.26
788.2	51.03
788.4	50.91
788.6	50.34
788.8	49.49
789.0	46.62
789.2	45.90
789.4	46.01
789.6	46.00
789.8	46.96
790.0	47.29
790.2	46.97
790.4	46.55
790.6	47.36
790.8	47.21
791.0	47.52
791.2	45.95
791.4	45.72
791.6	45.81
791.8	45.72
792.0	45.03
792.2	45.04
792.4	44.01
792.6	44.81
792.8	46.20
793.0	46.48
793.2	46.63
793.4	46.09
793.6	43.99
793.8	42.31
794.0	43.10
794.2	43.52
794.4	43.80
794.6	44.96
794.8	45.50
795.0	45.66
795.2	45.98
795.4	45.50
795.6	43.78
795.8	43.52
796.0	42.35
796.2	41.11
796.4	39.73
796.6	40.18
796.8	41.29
797.0	42.08
797.2	41.90
797.4	41.08
797.6	39.11
797.8	38.28
798.0	38.50
798.2	38.83
798.4	38.63
798.6	39.45
798.8	39.10
799.0	39.12
799.2	39.60
799.4	38.54
799.6	36.52
799.8	36.25
800.0	39.56

