Sample:	'20211010A(EM)
File name:	R-CDs 5 500uM.FDS
Run date:	'16:00:35, 06/09/2023
Operator:	Administrator
Comment:	'

Instrument
Model:	F-4700 FL Spectrophotometer
Serial number:	2019-001
ROM Version:	5J24010 00

Instrument parameters
Measurement type:	Wavelength scan
Scan mode:	Emission
Data mode:	Fluorescence
EX WL:	520.0 nm
EM  Start WL:	540.0 nm
EM  End WL:	800.0 nm
Scan speed:	1200 nm/min
Delay:	0.0 s
EX Slit:	10.0 nm
EM Slit:	10.0 nm
PMT Voltage:	615 V
Response:	0.002 s
Corrected spectra:	Off
Shutter control:	On

Processing performed
Savitsky-Golay smoothed
Smoothing order:	3
Number of points:	7
Number of times:	1

Peak integration
Integration method:	Rectangular
Sensitivity:	1
Threshold:	1.000

Peaks
No.	Start(nm)	Apex(nm)	End(nm)	Height(Data)	Valley(nm)	Valley(Data)
1	540.0	602.4	603.2	1970	603.2	1952
2	603.2	605.4	606.4	1995	606.4	1984
3	606.4	609.8	612.2	2019	612.2	1985
4	612.2	612.8	613.6	2010	613.6	1987
5	613.6	614.6	622.0	2007	622.0	1909
6	622.0	622.6	746.4	1936	746.4	77.72
7	746.4	747.0	776.6	79.19	776.6	28.52
8	776.6	777.0	780.0	30.28	780.0	24.09
9	780.0	780.8	782.6	25.98	782.6	22.94
10	782.6	783.6	786.0	24.60	786.0	20.57
11	786.0	786.6	788.0	23.33	788.0	20.70
12	788.0	788.6	790.2	22.54	790.2	19.85
13	790.2	791.8	793.4	22.17	793.4	19.27
14	793.4	794.4	797.0	20.83	797.0	16.26

Data points
nm	Data
540.0	218.1
540.2	219.7
540.4	220.2
540.6	220.4
540.8	222.0
541.0	223.2
541.2	225.5
541.4	229.9
541.6	232.2
541.8	231.7
542.0	229.4
542.2	228.4
542.4	227.2
542.6	229.4
542.8	235.9
543.0	240.9
543.2	243.9
543.4	245.1
543.6	242.4
543.8	241.0
544.0	241.8
544.2	244.7
544.4	248.1
544.6	249.9
544.8	255.5
545.0	256.7
545.2	256.0
545.4	255.8
545.6	258.9
545.8	263.5
546.0	268.1
546.2	267.7
546.4	269.9
546.6	270.8
546.8	273.7
547.0	277.0
547.2	277.1
547.4	278.9
547.6	281.6
547.8	282.6
548.0	285.0
548.2	285.9
548.4	287.5
548.6	291.2
548.8	293.9
549.0	297.1
549.2	302.5
549.4	304.0
549.6	303.5
549.8	300.7
550.0	304.6
550.2	308.6
550.4	313.1
550.6	315.7
550.8	316.8
551.0	315.1
551.2	320.5
551.4	323.5
551.6	324.5
551.8	325.2
552.0	330.3
552.2	334.2
552.4	339.5
552.6	342.5
552.8	345.8
553.0	348.7
553.2	352.2
553.4	355.1
553.6	356.1
553.8	359.2
554.0	364.7
554.2	370.3
554.4	376.5
554.6	379.3
554.8	377.7
555.0	380.7
555.2	380.9
555.4	385.8
555.6	394.8
555.8	399.8
556.0	403.6
556.2	409.3
556.4	410.2
556.6	414.7
556.8	416.7
557.0	417.1
557.2	417.8
557.4	424.6
557.6	430.7
557.8	438.2
558.0	445.0
558.2	448.9
558.4	452.9
558.6	460.6
558.8	462.8
559.0	464.2
559.2	470.1
559.4	474.4
559.6	483.2
559.8	488.6
560.0	493.1
560.2	495.0
560.4	503.3
560.6	509.7
560.8	513.3
561.0	518.4
561.2	525.5
561.4	531.9
561.6	541.2
561.8	551.7
562.0	556.3
562.2	563.1
562.4	564.4
562.6	562.6
562.8	564.8
563.0	573.1
563.2	581.5
563.4	593.2
563.6	604.6
563.8	611.4
564.0	617.6
564.2	625.1
564.4	630.3
564.6	637.3
564.8	648.9
565.0	655.0
565.2	661.7
565.4	672.2
565.6	681.3
565.8	687.2
566.0	695.5
566.2	697.6
566.4	700.9
566.6	710.8
566.8	721.5
567.0	728.1
567.2	739.4
567.4	749.5
567.6	757.9
567.8	771.4
568.0	780.5
568.2	788.6
568.4	798.3
568.6	808.4
568.8	814.1
569.0	819.1
569.2	824.4
569.4	834.5
569.6	847.0
569.8	865.9
570.0	878.1
570.2	883.3
570.4	883.8
570.6	883.6
570.8	893.9
571.0	916.5
571.2	931.6
571.4	942.6
571.6	950.6
571.8	955.0
572.0	964.6
572.2	968.4
572.4	970.3
572.6	980.3
572.8	990.9
573.0	1010
573.2	1030
573.4	1043
573.6	1051
573.8	1056
574.0	1052
574.2	1066
574.4	1077
574.6	1092
574.8	1099
575.0	1108
575.2	1114
575.4	1127
575.6	1131
575.8	1146
576.0	1153
576.2	1170
576.4	1181
576.6	1195
576.8	1199
577.0	1213
577.2	1214
577.4	1223
577.6	1231
577.8	1242
578.0	1253
578.2	1271
578.4	1278
578.6	1289
578.8	1295
579.0	1297
579.2	1304
579.4	1312
579.6	1325
579.8	1337
580.0	1345
580.2	1355
580.4	1365
580.6	1367
580.8	1376
581.0	1384
581.2	1390
581.4	1402
581.6	1410
581.8	1414
582.0	1425
582.2	1438
582.4	1452
582.6	1470
582.8	1478
583.0	1479
583.2	1489
583.4	1496
583.6	1506
583.8	1518
584.0	1524
584.2	1526
584.4	1538
584.6	1547
584.8	1558
585.0	1558
585.2	1560
585.4	1566
585.6	1571
585.8	1579
586.0	1588
586.2	1585
586.4	1592
586.6	1600
586.8	1609
587.0	1622
587.2	1632
587.4	1639
587.6	1649
587.8	1657
588.0	1660
588.2	1657
588.4	1656
588.6	1661
588.8	1679
589.0	1696
589.2	1707
589.4	1715
589.6	1716
589.8	1710
590.0	1708
590.2	1710
590.4	1710
590.6	1720
590.8	1731
591.0	1748
591.2	1751
591.4	1757
591.6	1758
591.8	1762
592.0	1771
592.2	1786
592.4	1787
592.6	1786
592.8	1793
593.0	1796
593.2	1803
593.4	1810
593.6	1819
593.8	1820
594.0	1824
594.2	1825
594.4	1829
594.6	1836
594.8	1840
595.0	1845
595.2	1844
595.4	1844
595.6	1844
595.8	1852
596.0	1849
596.2	1859
596.4	1869
596.6	1881
596.8	1887
597.0	1898
597.2	1893
597.4	1892
597.6	1883
597.8	1892
598.0	1892
598.2	1900
598.4	1910
598.6	1912
598.8	1915
599.0	1921
599.2	1914
599.4	1912
599.6	1924
599.8	1929
600.0	1938
600.2	1934
600.4	1932
600.6	1927
600.8	1939
601.0	1943
601.2	1943
601.4	1943
601.6	1948
601.8	1948
602.0	1958
602.2	1961
602.4	1970
602.6	1966
602.8	1962
603.0	1954
603.2	1952
603.4	1955
603.6	1963
603.8	1963
604.0	1964
604.2	1975
604.4	1980
604.6	1991
604.8	1991
605.0	1987
605.2	1987
605.4	1995
605.6	1991
605.8	1988
606.0	1990
606.2	1987
606.4	1984
606.6	1988
606.8	1987
607.0	1985
607.2	1992
607.4	1991
607.6	1986
607.8	1991
608.0	1995
608.2	2000
608.4	1997
608.6	1993
608.8	1988
609.0	1982
609.2	1986
609.4	2004
609.6	2010
609.8	2019
610.0	2012
610.2	2006
610.4	1999
610.6	2004
610.8	2001
611.0	2005
611.2	2007
611.4	2016
611.6	2009
611.8	2002
612.0	1987
612.2	1985
612.4	1994
612.6	2005
612.8	2010
613.0	2007
613.2	1999
613.4	1989
613.6	1987
613.8	1991
614.0	1995
614.2	1996
614.4	2004
614.6	2007
614.8	2003
615.0	1997
615.2	1988
615.4	1982
615.6	1982
615.8	1982
616.0	1982
616.2	1978
616.4	1976
616.6	1980
616.8	1982
617.0	1979
617.2	1983
617.4	1982
617.6	1975
617.8	1972
618.0	1967
618.2	1960
618.4	1960
618.6	1972
618.8	1974
619.0	1966
619.2	1954
619.4	1944
619.6	1940
619.8	1947
620.0	1948
620.2	1940
620.4	1935
620.6	1939
620.8	1938
621.0	1937
621.2	1931
621.4	1921
621.6	1912
621.8	1910
622.0	1909
622.2	1915
622.4	1925
622.6	1936
622.8	1935
623.0	1920
623.2	1905
623.4	1902
623.6	1901
623.8	1908
624.0	1907
624.2	1902
624.4	1898
624.6	1899
624.8	1888
625.0	1889
625.2	1887
625.4	1882
625.6	1871
625.8	1861
626.0	1851
626.2	1851
626.4	1848
626.6	1839
626.8	1831
627.0	1825
627.2	1831
627.4	1837
627.6	1828
627.8	1819
628.0	1809
628.2	1809
628.4	1819
628.6	1829
628.8	1818
629.0	1811
629.2	1795
629.4	1797
629.6	1800
629.8	1801
630.0	1792
630.2	1788
630.4	1774
630.6	1773
630.8	1770
631.0	1765
631.2	1768
631.4	1771
631.6	1763
631.8	1752
632.0	1745
632.2	1737
632.4	1733
632.6	1727
632.8	1720
633.0	1713
633.2	1716
633.4	1713
633.6	1712
633.8	1704
634.0	1701
634.2	1696
634.4	1697
634.6	1688
634.8	1682
635.0	1674
635.2	1676
635.4	1665
635.6	1666
635.8	1665
636.0	1664
636.2	1657
636.4	1658
636.6	1635
636.8	1627
637.0	1627
637.2	1631
637.4	1620
637.6	1619
637.8	1604
638.0	1597
638.2	1591
638.4	1595
638.6	1592
638.8	1584
639.0	1577
639.2	1573
639.4	1568
639.6	1564
639.8	1566
640.0	1554
640.2	1557
640.4	1548
640.6	1545
640.8	1538
641.0	1532
641.2	1523
641.4	1525
641.6	1517
641.8	1514
642.0	1508
642.2	1495
642.4	1484
642.6	1475
642.8	1471
643.0	1464
643.2	1467
643.4	1462
643.6	1461
643.8	1459
644.0	1457
644.2	1447
644.4	1442
644.6	1426
644.8	1419
645.0	1421
645.2	1423
645.4	1412
645.6	1405
645.8	1396
646.0	1391
646.2	1386
646.4	1379
646.6	1374
646.8	1375
647.0	1367
647.2	1360
647.4	1350
647.6	1347
647.8	1349
648.0	1349
648.2	1345
648.4	1341
648.6	1336
648.8	1335
649.0	1322
649.2	1317
649.4	1314
649.6	1310
649.8	1300
650.0	1291
650.2	1277
650.4	1277
650.6	1271
650.8	1265
651.0	1257
651.2	1263
651.4	1259
651.6	1252
651.8	1240
652.0	1230
652.2	1223
652.4	1227
652.6	1217
652.8	1215
653.0	1214
653.2	1216
653.4	1204
653.6	1195
653.8	1184
654.0	1182
654.2	1183
654.4	1185
654.6	1179
654.8	1173
655.0	1166
655.2	1156
655.4	1147
655.6	1135
655.8	1124
656.0	1119
656.2	1117
656.4	1115
656.6	1107
656.8	1097
657.0	1093
657.2	1093
657.4	1094
657.6	1091
657.8	1084
658.0	1079
658.2	1077
658.4	1071
658.6	1065
658.8	1063
659.0	1056
659.2	1054
659.4	1049
659.6	1042
659.8	1036
660.0	1027
660.2	1017
660.4	1013
660.6	1013
660.8	1011
661.0	1006
661.2	999.8
661.4	992.8
661.6	984.5
661.8	984.9
662.0	981.2
662.2	977.6
662.4	979.6
662.6	972.9
662.8	962.6
663.0	955.8
663.2	950.6
663.4	946.6
663.6	942.6
663.8	935.4
664.0	928.6
664.2	926.5
664.4	923.7
664.6	919.8
664.8	913.9
665.0	904.7
665.2	897.7
665.4	896.2
665.6	890.3
665.8	883.2
666.0	880.2
666.2	877.2
666.4	874.7
666.6	871.4
666.8	861.8
667.0	850.4
667.2	848.2
667.4	849.2
667.6	849.6
667.8	845.8
668.0	835.9
668.2	825.9
668.4	823.2
668.6	823.1
668.8	822.3
669.0	818.9
669.2	812.9
669.4	804.8
669.6	804.4
669.8	803.6
670.0	802.6
670.2	800.2
670.4	796.4
670.6	784.7
670.8	784.4
671.0	780.3
671.2	776.2
671.4	774.0
671.6	763.5
671.8	752.3
672.0	747.7
672.2	742.1
672.4	742.2
672.6	746.5
672.8	741.2
673.0	738.1
673.2	733.8
673.4	726.0
673.6	723.4
673.8	718.2
674.0	714.3
674.2	710.6
674.4	708.5
674.6	707.3
674.8	706.6
675.0	699.7
675.2	697.8
675.4	693.5
675.6	685.5
675.8	682.3
676.0	679.9
676.2	671.9
676.4	668.2
676.6	664.8
676.8	659.6
677.0	654.0
677.2	654.8
677.4	652.1
677.6	648.5
677.8	644.8
678.0	640.4
678.2	636.1
678.4	633.7
678.6	632.5
678.8	625.3
679.0	619.4
679.2	618.3
679.4	618.0
679.6	618.7
679.8	617.3
680.0	610.2
680.2	603.3
680.4	599.5
680.6	597.2
680.8	594.5
681.0	589.6
681.2	585.0
681.4	578.8
681.6	576.0
681.8	572.4
682.0	567.4
682.2	564.5
682.4	561.6
682.6	558.6
682.8	556.5
683.0	551.6
683.2	550.6
683.4	547.0
683.6	541.0
683.8	538.2
684.0	537.8
684.2	533.7
684.4	534.3
684.6	530.5
684.8	523.8
685.0	523.1
685.2	524.5
685.4	517.2
685.6	516.1
685.8	511.0
686.0	509.0
686.2	506.7
686.4	503.7
686.6	498.1
686.8	495.6
687.0	493.9
687.2	495.2
687.4	492.6
687.6	487.5
687.8	485.4
688.0	483.8
688.2	480.1
688.4	472.8
688.6	468.5
688.8	460.7
689.0	463.2
689.2	461.6
689.4	462.6
689.6	460.9
689.8	461.6
690.0	458.5
690.2	461.6
690.4	455.8
690.6	453.8
690.8	450.6
691.0	444.7
691.2	437.8
691.4	434.0
691.6	430.7
691.8	430.3
692.0	431.2
692.2	429.0
692.4	426.1
692.6	423.2
692.8	424.9
693.0	421.3
693.2	419.3
693.4	416.0
693.6	413.0
693.8	409.1
694.0	410.2
694.2	406.2
694.4	408.5
694.6	407.2
694.8	400.0
695.0	395.0
695.2	390.1
695.4	388.5
695.6	389.9
695.8	389.0
696.0	381.0
696.2	380.4
696.4	379.7
696.6	383.8
696.8	380.6
697.0	380.1
697.2	373.5
697.4	373.1
697.6	375.6
697.8	376.5
698.0	370.7
698.2	367.1
698.4	360.8
698.6	359.6
698.8	360.4
699.0	357.0
699.2	352.5
699.4	345.9
699.6	344.1
699.8	346.2
700.0	348.7
700.2	351.2
700.4	351.3
700.6	348.4
700.8	347.8
701.0	344.0
701.2	337.5
701.4	335.7
701.6	331.7
701.8	331.8
702.0	333.8
702.2	332.7
702.4	331.2
702.6	332.1
702.8	328.1
703.0	326.5
703.2	319.5
703.4	313.9
703.6	313.4
703.8	314.1
704.0	315.0
704.2	315.0
704.4	310.6
704.6	305.1
704.8	304.1
705.0	305.3
705.2	304.2
705.4	306.1
705.6	306.8
705.8	305.6
706.0	302.9
706.2	301.8
706.4	296.9
706.6	294.5
706.8	289.2
707.0	290.5
707.2	286.4
707.4	284.3
707.6	285.5
707.8	282.7
708.0	280.0
708.2	283.1
708.4	281.3
708.6	280.2
708.8	278.9
709.0	274.6
709.2	272.6
709.4	272.2
709.6	272.9
709.8	271.3
710.0	269.0
710.2	266.8
710.4	267.6
710.6	270.2
710.8	271.4
711.0	266.8
711.2	262.2
711.4	255.9
711.6	256.3
711.8	256.6
712.0	255.5
712.2	254.1
712.4	251.6
712.6	246.9
712.8	246.6
713.0	242.4
713.2	239.5
713.4	239.8
713.6	237.5
713.8	238.9
714.0	238.4
714.2	233.5
714.4	231.7
714.6	231.6
714.8	230.7
715.0	235.1
715.2	231.9
715.4	224.1
715.6	221.5
715.8	220.4
716.0	221.0
716.2	223.1
716.4	223.1
716.6	218.1
716.8	218.6
717.0	219.4
717.2	219.0
717.4	215.8
717.6	212.3
717.8	209.7
718.0	207.1
718.2	205.0
718.4	204.8
718.6	202.4
718.8	203.8
719.0	206.1
719.2	203.3
719.4	197.8
719.6	195.6
719.8	191.1
720.0	196.6
720.2	200.0
720.4	199.9
720.6	195.8
720.8	190.4
721.0	184.6
721.2	185.9
721.4	183.8
721.6	178.7
721.8	176.0
722.0	173.5
722.2	174.0
722.4	177.7
722.6	178.3
722.8	176.5
723.0	177.2
723.2	176.8
723.4	173.8
723.6	173.9
723.8	171.5
724.0	169.0
724.2	168.7
724.4	169.0
724.6	165.5
724.8	164.6
725.0	162.3
725.2	161.2
725.4	159.8
725.6	159.7
725.8	158.5
726.0	159.7
726.2	159.4
726.4	158.4
726.6	157.0
726.8	154.0
727.0	152.7
727.2	152.1
727.4	150.2
727.6	148.5
727.8	147.0
728.0	144.5
728.2	145.6
728.4	145.4
728.6	145.0
728.8	145.6
729.0	144.1
729.2	142.6
729.4	142.6
729.6	141.5
729.8	140.0
730.0	140.1
730.2	140.0
730.4	138.3
730.6	136.9
730.8	135.0
731.0	133.5
731.2	132.3
731.4	131.6
731.6	130.7
731.8	130.9
732.0	130.8
732.2	130.5
732.4	129.4
732.6	126.4
732.8	124.9
733.0	125.5
733.2	125.2
733.4	123.8
733.6	123.3
733.8	121.3
734.0	120.3
734.2	119.1
734.4	120.3
734.6	121.8
734.8	122.3
735.0	121.5
735.2	119.0
735.4	116.7
735.6	115.7
735.8	115.7
736.0	113.5
736.2	111.6
736.4	109.5
736.6	110.1
736.8	108.9
737.0	107.0
737.2	106.4
737.4	106.6
737.6	108.7
737.8	108.1
738.0	108.4
738.2	104.6
738.4	100.7
738.6	100.4
738.8	101.8
739.0	101.3
739.2	101.8
739.4	99.89
739.6	97.31
739.8	96.31
740.0	96.19
740.2	95.89
740.4	95.88
740.6	96.04
740.8	96.63
741.0	96.74
741.2	96.78
741.4	93.76
741.6	92.12
741.8	90.71
742.0	90.01
742.2	90.98
742.4	92.70
742.6	90.82
742.8	90.17
743.0	87.96
743.2	85.67
743.4	85.62
743.6	85.81
743.8	84.43
744.0	85.49
744.2	84.75
744.4	84.01
744.6	82.98
744.8	81.28
745.0	80.62
745.2	82.51
745.4	83.16
745.6	81.53
745.8	78.84
746.0	78.45
746.2	78.36
746.4	77.72
746.6	78.07
746.8	78.00
747.0	79.19
747.2	79.01
747.4	79.00
747.6	75.84
747.8	74.95
748.0	75.55
748.2	76.46
748.4	74.96
748.6	76.48
748.8	74.73
749.0	74.05
749.2	73.83
749.4	72.68
749.6	70.04
749.8	71.73
750.0	70.39
750.2	69.32
750.4	68.80
750.6	68.34
750.8	65.36
751.0	67.23
751.2	67.23
751.4	66.07
751.6	66.68
751.8	67.56
752.0	66.39
752.2	66.76
752.4	65.46
752.6	63.94
752.8	63.05
753.0	63.61
753.2	64.33
753.4	64.21
753.6	62.99
753.8	63.08
754.0	60.79
754.2	61.18
754.4	61.03
754.6	60.08
754.8	58.34
755.0	58.16
755.2	57.12
755.4	59.07
755.6	58.97
755.8	57.55
756.0	56.41
756.2	57.70
756.4	57.86
756.6	58.24
756.8	56.29
757.0	53.51
757.2	54.30
757.4	55.74
757.6	56.09
757.8	55.67
758.0	54.40
758.2	53.44
758.4	54.03
758.6	53.88
758.8	51.99
759.0	51.45
759.2	50.76
759.4	51.21
759.6	51.63
759.8	51.41
760.0	48.96
760.2	48.17
760.4	48.16
760.6	48.08
760.8	48.52
761.0	48.30
761.2	47.58
761.4	47.52
761.6	47.84
761.8	46.12
762.0	45.44
762.2	44.99
762.4	45.62
762.6	44.91
762.8	44.51
763.0	44.15
763.2	43.50
763.4	43.79
763.6	45.04
763.8	43.64
764.0	43.54
764.2	44.07
764.4	43.43
764.6	44.47
764.8	44.21
765.0	43.01
765.2	42.71
765.4	41.38
765.6	39.65
765.8	39.23
766.0	39.10
766.2	39.26
766.4	40.21
766.6	38.74
766.8	37.74
767.0	37.57
767.2	38.64
767.4	38.59
767.6	38.30
767.8	37.33
768.0	37.31
768.2	37.72
768.4	38.57
768.6	37.66
768.8	37.33
769.0	36.53
769.2	35.34
769.4	36.80
769.6	36.71
769.8	35.98
770.0	35.52
770.2	34.67
770.4	34.39
770.6	36.19
770.8	37.19
771.0	36.49
771.2	34.80
771.4	34.13
771.6	33.19
771.8	32.45
772.0	34.01
772.2	33.36
772.4	32.09
772.6	32.15
772.8	32.30
773.0	31.84
773.2	32.00
773.4	31.07
773.6	30.63
773.8	30.28
774.0	31.05
774.2	30.88
774.4	31.22
774.6	30.75
774.8	31.78
775.0	31.40
775.2	31.01
775.4	30.55
775.6	30.04
775.8	29.49
776.0	29.66
776.2	29.52
776.4	29.53
776.6	28.52
776.8	29.31
777.0	30.28
777.2	30.26
777.4	30.05
777.6	28.41
777.8	26.36
778.0	26.96
778.2	27.56
778.4	27.44
778.6	28.20
778.8	27.28
779.0	27.77
779.2	27.06
779.4	26.34
779.6	25.19
779.8	24.75
780.0	24.09
780.2	25.13
780.4	25.66
780.6	25.74
780.8	25.98
781.0	25.52
781.2	24.91
781.4	24.73
781.6	24.93
781.8	24.27
782.0	24.07
782.2	23.75
782.4	23.50
782.6	22.94
782.8	23.50
783.0	23.75
783.2	24.20
783.4	24.44
783.6	24.60
783.8	23.22
784.0	23.39
784.2	24.35
784.4	24.25
784.6	24.43
784.8	24.11
785.0	23.14
785.2	23.23
785.4	23.04
785.6	21.24
785.8	21.09
786.0	20.57
786.2	20.93
786.4	22.57
786.6	23.33
786.8	22.74
787.0	22.93
787.2	22.39
787.4	21.19
787.6	21.14
787.8	21.22
788.0	20.70
788.2	21.01
788.4	22.10
788.6	22.54
788.8	22.24
789.0	21.65
789.2	21.02
789.4	20.95
789.6	20.77
789.8	21.22
790.0	20.67
790.2	19.85
790.4	20.14
790.6	20.93
790.8	20.32
791.0	20.63
791.2	20.88
791.4	21.07
791.6	21.84
791.8	22.17
792.0	21.54
792.2	20.83
792.4	21.29
792.6	20.74
792.8	20.06
793.0	19.55
793.2	19.32
793.4	19.27
793.6	19.59
793.8	19.93
794.0	20.16
794.2	20.58
794.4	20.83
794.6	20.57
794.8	19.14
795.0	19.59
795.2	19.02
795.4	18.96
795.6	18.81
795.8	18.26
796.0	18.13
796.2	18.36
796.4	18.00
796.6	17.59
796.8	16.78
797.0	16.26
797.2	17.16
797.4	17.34
797.6	18.00
797.8	18.41
798.0	18.29
798.2	18.35
798.4	18.15
798.6	17.86
798.8	18.24
799.0	18.16
799.2	18.13
799.4	18.03
799.6	17.29
799.8	16.97
800.0	17.64

