Sample:	'20211010A(EM)
File name:	B-CDS 8 1.FDS
Run date:	'09:59:39, 06/08/2023
Operator:	Administrator
Comment:	'

Instrument
Model:	F-4700 FL Spectrophotometer
Serial number:	2019-001
ROM Version:	5J24010 00

Instrument parameters
Measurement type:	Wavelength scan
Scan mode:	Emission
Data mode:	Fluorescence
EX WL:	350.0 nm
EM  Start WL:	370.0 nm
EM  End WL:	680.0 nm
Scan speed:	1200 nm/min
Delay:	0.0 s
EX Slit:	10.0 nm
EM Slit:	10.0 nm
PMT Voltage:	400 V
Response:	0.002 s
Corrected spectra:	Off
Shutter control:	On

Processing performed
Savitsky-Golay smoothed
Smoothing order:	3
Number of points:	7
Number of times:	1

Peak integration
Integration method:	Rectangular
Sensitivity:	1
Threshold:	1.000

Peaks
No.	Start(nm)	Apex(nm)	End(nm)	Height(Data)	Valley(nm)	Valley(Data)
1	370.0	455.2	456.2	3154	456.2	3142
2	456.2	458.4	680.0	3160	680.0	8.713

Data points
nm	Data
370.0	2.956
370.2	2.983
370.4	3.035
370.6	3.095
370.8	3.131
371.0	3.132
371.2	3.195
371.4	3.207
371.6	3.156
371.8	3.237
372.0	3.224
372.2	3.213
372.4	3.260
372.6	3.260
372.8	3.333
373.0	3.440
373.2	3.427
373.4	3.400
373.6	3.424
373.8	3.427
374.0	3.525
374.2	3.634
374.4	3.620
374.6	3.532
374.8	3.591
375.0	3.619
375.2	3.619
375.4	3.681
375.6	3.793
375.8	3.824
376.0	4.036
376.2	4.084
376.4	4.110
376.6	4.099
376.8	4.059
377.0	3.913
377.2	4.020
377.4	4.005
377.6	4.161
377.8	4.386
378.0	4.513
378.2	4.609
378.4	4.735
378.6	4.817
378.8	4.806
379.0	4.874
379.2	4.894
379.4	4.955
379.6	5.058
379.8	5.218
380.0	5.133
380.2	5.166
380.4	5.248
380.6	5.334
380.8	5.544
381.0	5.613
381.2	5.754
381.4	5.774
381.6	5.934
381.8	6.099
382.0	6.218
382.2	6.187
382.4	6.333
382.6	6.265
382.8	6.536
383.0	6.776
383.2	7.031
383.4	7.318
383.6	7.491
383.8	7.519
384.0	7.736
384.2	7.799
384.4	7.942
384.6	8.305
384.8	8.413
385.0	8.491
385.2	8.711
385.4	8.988
385.6	9.294
385.8	9.681
386.0	9.849
386.2	10.04
386.4	10.44
386.6	10.68
386.8	11.14
387.0	11.46
387.2	11.79
387.4	11.99
387.6	12.44
387.8	12.66
388.0	13.18
388.2	13.58
388.4	14.03
388.6	14.38
388.8	14.98
389.0	15.30
389.2	15.73
389.4	16.12
389.6	16.62
389.8	17.29
390.0	18.12
390.2	18.82
390.4	19.35
390.6	19.77
390.8	20.22
391.0	20.71
391.2	21.64
391.4	22.52
391.6	23.20
391.8	23.91
392.0	24.73
392.2	25.39
392.4	26.34
392.6	27.25
392.8	28.08
393.0	29.10
393.2	30.33
393.4	31.25
393.6	32.34
393.8	33.52
394.0	34.65
394.2	35.82
394.4	37.21
394.6	38.33
394.8	39.75
395.0	41.13
395.2	42.84
395.4	44.55
395.6	46.72
395.8	48.39
396.0	50.09
396.2	51.84
396.4	53.45
396.6	55.15
396.8	57.11
397.0	58.97
397.2	61.11
397.4	63.19
397.6	65.26
397.8	67.54
398.0	70.01
398.2	72.52
398.4	74.83
398.6	77.42
398.8	80.16
399.0	83.13
399.2	86.85
399.4	90.17
399.6	93.63
399.8	97.33
400.0	100.0
400.2	103.1
400.4	106.7
400.6	110.0
400.8	113.9
401.0	118.3
401.2	122.3
401.4	127.2
401.6	131.7
401.8	136.2
402.0	140.3
402.2	144.8
402.4	149.6
402.6	155.1
402.8	160.3
403.0	165.7
403.2	170.7
403.4	176.1
403.6	181.6
403.8	187.2
404.0	192.7
404.2	198.5
404.4	205.2
404.6	212.5
404.8	219.3
405.0	225.8
405.2	233.2
405.4	240.6
405.6	248.0
405.8	255.6
406.0	262.8
406.2	269.8
406.4	277.6
406.6	286.6
406.8	294.8
407.0	304.6
407.2	314.1
407.4	323.2
407.6	331.7
407.8	341.2
408.0	350.8
408.2	361.1
408.4	370.3
408.6	379.2
408.8	389.1
409.0	399.0
409.2	409.0
409.4	420.4
409.6	431.0
409.8	442.8
410.0	454.7
410.2	466.4
410.4	477.2
410.6	488.9
410.8	501.4
411.0	515.2
411.2	527.9
411.4	541.5
411.6	553.4
411.8	566.5
412.0	580.5
412.2	594.4
412.4	607.1
412.6	620.2
412.8	632.0
413.0	646.7
413.2	662.1
413.4	676.3
413.6	690.5
413.8	705.5
414.0	719.8
414.2	734.8
414.4	750.4
414.6	766.1
414.8	781.7
415.0	798.6
415.2	814.2
415.4	829.7
415.6	845.9
415.8	862.4
416.0	879.3
416.2	897.8
416.4	913.9
416.6	929.0
416.8	945.2
417.0	960.9
417.2	978.0
417.4	995.3
417.6	1012
417.8	1027
418.0	1043
418.2	1062
418.4	1079
418.6	1095
418.8	1113
419.0	1131
419.2	1148
419.4	1169
419.6	1187
419.8	1205
420.0	1225
420.2	1244
420.4	1263
420.6	1284
420.8	1300
421.0	1318
421.2	1337
421.4	1356
421.6	1375
421.8	1393
422.0	1410
422.2	1428
422.4	1446
422.6	1465
422.8	1482
423.0	1499
423.2	1519
423.4	1538
423.6	1555
423.8	1572
424.0	1589
424.2	1608
424.4	1627
424.6	1645
424.8	1665
425.0	1685
425.2	1701
425.4	1717
425.6	1731
425.8	1749
426.0	1769
426.2	1793
426.4	1811
426.6	1830
426.8	1846
427.0	1861
427.2	1876
427.4	1893
427.6	1910
427.8	1929
428.0	1946
428.2	1964
428.4	1979
428.6	1994
428.8	2012
429.0	2032
429.2	2048
429.4	2068
429.6	2083
429.8	2099
430.0	2116
430.2	2133
430.4	2145
430.6	2161
430.8	2179
431.0	2198
431.2	2215
431.4	2234
431.6	2247
431.8	2259
432.0	2273
432.2	2286
432.4	2303
432.6	2320
432.8	2335
433.0	2347
433.2	2361
433.4	2375
433.6	2392
433.8	2407
434.0	2421
434.2	2435
434.4	2449
434.6	2462
434.8	2476
435.0	2489
435.2	2501
435.4	2514
435.6	2528
435.8	2542
436.0	2555
436.2	2572
436.4	2584
436.6	2595
436.8	2602
437.0	2609
437.2	2617
437.4	2633
437.6	2646
437.8	2660
438.0	2671
438.2	2682
438.4	2692
438.6	2704
438.8	2711
439.0	2718
439.2	2728
439.4	2738
439.6	2749
439.8	2762
440.0	2769
440.2	2777
440.4	2783
440.6	2789
440.8	2800
441.0	2809
441.2	2819
441.4	2831
441.6	2840
441.8	2851
442.0	2860
442.2	2866
442.4	2875
442.6	2882
442.8	2891
443.0	2893
443.2	2900
443.4	2909
443.6	2922
443.8	2932
444.0	2940
444.2	2941
444.4	2945
444.6	2953
444.8	2957
445.0	2969
445.2	2980
445.4	2986
445.6	2992
445.8	2996
446.0	2995
446.2	3003
446.4	3006
446.6	3007
446.8	3013
447.0	3018
447.2	3025
447.4	3036
447.6	3039
447.8	3041
448.0	3042
448.2	3042
448.4	3047
448.6	3053
448.8	3058
449.0	3061
449.2	3064
449.4	3071
449.6	3077
449.8	3079
450.0	3081
450.2	3081
450.4	3085
450.6	3092
450.8	3097
451.0	3102
451.2	3101
451.4	3104
451.6	3109
451.8	3114
452.0	3117
452.2	3120
452.4	3121
452.6	3126
452.8	3126
453.0	3127
453.2	3129
453.4	3132
453.6	3136
453.8	3136
454.0	3131
454.2	3130
454.4	3132
454.6	3137
454.8	3144
455.0	3150
455.2	3154
455.4	3154
455.6	3154
455.8	3149
456.0	3143
456.2	3142
456.4	3146
456.6	3148
456.8	3154
457.0	3154
457.2	3151
457.4	3149
457.6	3148
457.8	3150
458.0	3151
458.2	3156
458.4	3160
458.6	3158
458.8	3156
459.0	3155
459.2	3150
459.4	3150
459.6	3153
459.8	3152
460.0	3153
460.2	3154
460.4	3151
460.6	3146
460.8	3147
461.0	3147
461.2	3145
461.4	3145
461.6	3145
461.8	3144
462.0	3143
462.2	3142
462.4	3136
462.6	3130
462.8	3130
463.0	3129
463.2	3125
463.4	3122
463.6	3120
463.8	3115
464.0	3118
464.2	3116
464.4	3106
464.6	3099
464.8	3098
465.0	3098
465.2	3100
465.4	3100
465.6	3093
465.8	3086
466.0	3082
466.2	3080
466.4	3078
466.6	3073
466.8	3072
467.0	3070
467.2	3068
467.4	3064
467.6	3058
467.8	3049
468.0	3042
468.2	3035
468.4	3030
468.6	3027
468.8	3026
469.0	3027
469.2	3026
469.4	3020
469.6	3010
469.8	3005
470.0	2999
470.2	2997
470.4	2992
470.6	2988
470.8	2980
471.0	2975
471.2	2966
471.4	2959
471.6	2953
471.8	2952
472.0	2948
472.2	2943
472.4	2932
472.6	2925
472.8	2919
473.0	2913
473.2	2909
473.4	2902
473.6	2893
473.8	2886
474.0	2879
474.2	2873
474.4	2871
474.6	2869
474.8	2862
475.0	2853
475.2	2846
475.4	2842
475.6	2837
475.8	2831
476.0	2820
476.2	2810
476.4	2803
476.6	2798
476.8	2793
477.0	2786
477.2	2782
477.4	2776
477.6	2769
477.8	2763
478.0	2758
478.2	2750
478.4	2744
478.6	2737
478.8	2729
479.0	2724
479.2	2718
479.4	2713
479.6	2706
479.8	2699
480.0	2692
480.2	2684
480.4	2674
480.6	2664
480.8	2657
481.0	2651
481.2	2649
481.4	2645
481.6	2639
481.8	2629
482.0	2621
482.2	2613
482.4	2605
482.6	2599
482.8	2595
483.0	2591
483.2	2589
483.4	2582
483.6	2574
483.8	2565
484.0	2557
484.2	2552
484.4	2542
484.6	2534
484.8	2525
485.0	2516
485.2	2510
485.4	2504
485.6	2495
485.8	2487
486.0	2478
486.2	2470
486.4	2463
486.6	2455
486.8	2451
487.0	2446
487.2	2444
487.4	2438
487.6	2428
487.8	2421
488.0	2413
488.2	2404
488.4	2399
488.6	2388
488.8	2375
489.0	2365
489.2	2354
489.4	2347
489.6	2345
489.8	2339
490.0	2332
490.2	2323
490.4	2312
490.6	2305
490.8	2299
491.0	2293
491.2	2286
491.4	2276
491.6	2267
491.8	2260
492.0	2253
492.2	2246
492.4	2239
492.6	2230
492.8	2224
493.0	2218
493.2	2210
493.4	2199
493.6	2190
493.8	2177
494.0	2166
494.2	2162
494.4	2155
494.6	2148
494.8	2141
495.0	2133
495.2	2124
495.4	2118
495.6	2108
495.8	2099
496.0	2092
496.2	2084
496.4	2074
496.6	2064
496.8	2053
497.0	2046
497.2	2040
497.4	2031
497.6	2023
497.8	2015
498.0	2007
498.2	2001
498.4	1991
498.6	1981
498.8	1972
499.0	1964
499.2	1955
499.4	1950
499.6	1941
499.8	1932
500.0	1926
500.2	1918
500.4	1909
500.6	1899
500.8	1888
501.0	1877
501.2	1870
501.4	1864
501.6	1858
501.8	1847
502.0	1841
502.2	1833
502.4	1824
502.6	1814
502.8	1806
503.0	1796
503.2	1790
503.4	1783
503.6	1776
503.8	1765
504.0	1757
504.2	1749
504.4	1740
504.6	1733
504.8	1729
505.0	1723
505.2	1717
505.4	1709
505.6	1699
505.8	1691
506.0	1681
506.2	1673
506.4	1663
506.6	1653
506.8	1648
507.0	1640
507.2	1632
507.4	1625
507.6	1617
507.8	1608
508.0	1601
508.2	1592
508.4	1585
508.6	1578
508.8	1572
509.0	1564
509.2	1557
509.4	1547
509.6	1537
509.8	1527
510.0	1520
510.2	1514
510.4	1510
510.6	1503
510.8	1496
511.0	1489
511.2	1481
511.4	1474
511.6	1467
511.8	1460
512.0	1453
512.2	1446
512.4	1439
512.6	1430
512.8	1422
513.0	1413
513.2	1406
513.4	1400
513.6	1393
513.8	1383
514.0	1377
514.2	1368
514.4	1360
514.6	1355
514.8	1350
515.0	1342
515.2	1335
515.4	1327
515.6	1318
515.8	1314
516.0	1308
516.2	1301
516.4	1294
516.6	1286
516.8	1278
517.0	1274
517.2	1268
517.4	1262
517.6	1257
517.8	1249
518.0	1241
518.2	1234
518.4	1228
518.6	1223
518.8	1218
519.0	1212
519.2	1207
519.4	1201
519.6	1193
519.8	1186
520.0	1178
520.2	1173
520.4	1167
520.6	1160
520.8	1153
521.0	1147
521.2	1141
521.4	1138
521.6	1132
521.8	1123
522.0	1116
522.2	1109
522.4	1106
522.6	1100
522.8	1094
523.0	1087
523.2	1082
523.4	1078
523.6	1073
523.8	1064
524.0	1058
524.2	1052
524.4	1046
524.6	1040
524.8	1035
525.0	1029
525.2	1023
525.4	1017
525.6	1012
525.8	1006
526.0	1005
526.2	1000
526.4	996.0
526.6	989.7
526.8	982.9
527.0	975.8
527.2	971.9
527.4	965.4
527.6	960.5
527.8	954.1
528.0	948.1
528.2	942.4
528.4	938.5
528.6	934.7
528.8	930.2
529.0	924.6
529.2	919.9
529.4	916.3
529.6	911.3
529.8	908.2
530.0	903.3
530.2	897.7
530.4	890.2
530.6	885.6
530.8	879.3
531.0	874.9
531.2	870.8
531.4	866.6
531.6	860.8
531.8	856.5
532.0	852.3
532.2	848.4
532.4	844.6
532.6	838.6
532.8	832.3
533.0	826.2
533.2	822.4
533.4	818.5
533.6	814.6
533.8	809.4
534.0	805.2
534.2	801.5
534.4	798.4
534.6	793.8
534.8	789.8
535.0	785.3
535.2	781.3
535.4	775.9
535.6	770.2
535.8	764.3
536.0	761.5
536.2	757.8
536.4	753.3
536.6	749.5
536.8	746.2
537.0	742.5
537.2	739.4
537.4	735.9
537.6	731.0
537.8	726.6
538.0	722.3
538.2	716.6
538.4	712.3
538.6	708.8
538.8	705.3
539.0	701.4
539.2	697.6
539.4	693.0
539.6	690.0
539.8	684.1
540.0	680.2
540.2	675.5
540.4	672.1
540.6	669.1
540.8	665.6
541.0	661.3
541.2	657.6
541.4	652.4
541.6	648.2
541.8	645.3
542.0	641.3
542.2	638.9
542.4	635.2
542.6	631.0
542.8	628.1
543.0	624.4
543.2	621.4
543.4	618.4
543.6	614.7
543.8	610.2
544.0	606.4
544.2	601.0
544.4	598.2
544.6	596.0
544.8	593.3
545.0	587.4
545.2	584.3
545.4	580.2
545.6	576.2
545.8	574.3
546.0	571.7
546.2	567.8
546.4	565.8
546.6	562.7
546.8	557.9
547.0	555.6
547.2	552.6
547.4	551.4
547.6	548.9
547.8	546.3
548.0	542.1
548.2	539.2
548.4	534.3
548.6	530.0
548.8	527.3
549.0	525.0
549.2	523.2
549.4	520.5
549.6	516.4
549.8	511.5
550.0	509.1
550.2	507.1
550.4	504.9
550.6	500.8
550.8	497.2
551.0	493.2
551.2	490.0
551.4	487.1
551.6	484.3
551.8	480.0
552.0	478.0
552.2	475.0
552.4	472.2
552.6	469.5
552.8	466.7
553.0	463.4
553.2	461.0
553.4	457.3
553.6	454.5
553.8	452.2
554.0	449.8
554.2	448.5
554.4	446.4
554.6	443.5
554.8	439.4
555.0	436.0
555.2	432.8
555.4	431.8
555.6	429.7
555.8	427.1
556.0	423.6
556.2	421.1
556.4	418.3
556.6	416.6
556.8	413.4
557.0	410.1
557.2	407.0
557.4	404.8
557.6	401.8
557.8	399.5
558.0	397.3
558.2	395.6
558.4	394.3
558.6	393.0
558.8	390.4
559.0	387.4
559.2	384.3
559.4	381.8
559.6	379.9
559.8	378.1
560.0	375.5
560.2	373.6
560.4	370.5
560.6	367.8
560.8	365.5
561.0	362.8
561.2	360.4
561.4	360.0
561.6	357.8
561.8	355.9
562.0	354.8
562.2	352.1
562.4	349.7
562.6	348.0
562.8	345.1
563.0	342.7
563.2	340.9
563.4	337.8
563.6	335.8
563.8	333.9
564.0	331.9
564.2	330.0
564.4	328.7
564.6	327.0
564.8	324.6
565.0	322.3
565.2	319.9
565.4	317.6
565.6	317.7
565.8	316.0
566.0	314.6
566.2	312.3
566.4	308.7
566.6	305.8
566.8	304.7
567.0	302.2
567.2	301.8
567.4	300.8
567.6	298.5
567.8	297.3
568.0	294.7
568.2	292.1
568.4	290.4
568.6	289.3
568.8	286.5
569.0	285.8
569.2	283.2
569.4	281.7
569.6	280.4
569.8	279.9
570.0	277.8
570.2	276.9
570.4	274.1
570.6	272.0
570.8	270.1
571.0	268.6
571.2	266.2
571.4	264.9
571.6	263.5
571.8	262.0
572.0	260.4
572.2	258.0
572.4	255.9
572.6	253.9
572.8	252.3
573.0	250.9
573.2	249.5
573.4	248.1
573.6	247.4
573.8	245.9
574.0	244.8
574.2	243.6
574.4	241.4
574.6	239.9
574.8	238.7
575.0	236.6
575.2	235.0
575.4	233.8
575.6	232.1
575.8	231.6
576.0	230.8
576.2	228.9
576.4	226.2
576.6	224.8
576.8	223.3
577.0	222.5
577.2	221.2
577.4	221.0
577.6	219.9
577.8	218.4
578.0	216.3
578.2	214.4
578.4	212.8
578.6	212.2
578.8	211.5
579.0	209.8
579.2	207.4
579.4	206.4
579.6	205.8
579.8	205.3
580.0	204.7
580.2	202.9
580.4	200.5
580.6	199.8
580.8	199.1
581.0	197.9
581.2	196.2
581.4	194.7
581.6	193.9
581.8	193.1
582.0	192.3
582.2	190.6
582.4	189.2
582.6	187.9
582.8	186.4
583.0	184.9
583.2	183.5
583.4	182.0
583.6	182.3
583.8	181.2
584.0	180.1
584.2	179.1
584.4	178.2
584.6	176.5
584.8	176.4
585.0	175.3
585.2	174.5
585.4	172.8
585.6	171.6
585.8	170.5
586.0	169.8
586.2	168.3
586.4	167.8
586.6	166.3
586.8	165.1
587.0	163.9
587.2	161.9
587.4	160.5
587.6	160.2
587.8	160.3
588.0	160.0
588.2	158.9
588.4	157.0
588.6	156.0
588.8	155.3
589.0	155.5
589.2	154.9
589.4	153.9
589.6	152.5
589.8	151.1
590.0	150.2
590.2	148.7
590.4	147.8
590.6	147.2
590.8	146.8
591.0	145.4
591.2	144.9
591.4	143.2
591.6	142.2
591.8	141.8
592.0	141.8
592.2	141.0
592.4	140.7
592.6	139.1
592.8	137.9
593.0	136.5
593.2	135.6
593.4	134.8
593.6	134.5
593.8	133.5
594.0	132.4
594.2	131.1
594.4	130.0
594.6	129.0
594.8	128.9
595.0	128.3
595.2	127.7
595.4	126.9
595.6	126.4
595.8	125.4
596.0	124.7
596.2	123.1
596.4	122.4
596.6	121.0
596.8	121.0
597.0	120.2
597.2	120.1
597.4	119.5
597.6	119.5
597.8	119.0
598.0	118.5
598.2	117.6
598.4	116.6
598.6	115.8
598.8	114.6
599.0	113.8
599.2	113.4
599.4	113.4
599.6	112.8
599.8	112.1
600.0	110.9
600.2	110.2
600.4	109.8
600.6	109.1
600.8	108.0
601.0	106.9
601.2	106.0
601.4	106.0
601.6	105.5
601.8	105.1
602.0	104.8
602.2	103.9
602.4	102.9
602.6	101.8
602.8	100.7
603.0	99.92
603.2	99.28
603.4	98.80
603.6	98.35
603.8	98.47
604.0	98.17
604.2	97.56
604.4	96.73
604.6	96.00
604.8	95.00
605.0	94.59
605.2	93.15
605.4	92.25
605.6	91.52
605.8	91.31
606.0	90.95
606.2	90.86
606.4	90.19
606.6	89.99
606.8	89.72
607.0	89.53
607.2	88.62
607.4	86.89
607.6	85.18
607.8	84.61
608.0	84.86
608.2	85.00
608.4	85.26
608.6	84.62
608.8	83.39
609.0	82.47
609.2	82.05
609.4	81.25
609.6	81.29
609.8	81.52
610.0	81.15
610.2	80.74
610.4	80.23
610.6	79.01
610.8	78.30
611.0	78.00
611.2	77.39
611.4	77.17
611.6	76.53
611.8	76.02
612.0	75.50
612.2	75.21
612.4	74.74
612.6	74.08
612.8	73.22
613.0	73.15
613.2	72.90
613.4	72.60
613.6	72.23
613.8	71.26
614.0	70.24
614.2	69.82
614.4	69.85
614.6	69.38
614.8	69.09
615.0	68.69
615.2	67.94
615.4	67.36
615.6	67.28
615.8	66.81
616.0	66.56
616.2	66.22
616.4	65.50
616.6	65.04
616.8	64.45
617.0	64.08
617.2	63.56
617.4	63.17
617.6	62.81
617.8	62.90
618.0	62.90
618.2	62.77
618.4	62.62
618.6	61.52
618.8	60.77
619.0	60.06
619.2	59.43
619.4	58.90
619.6	59.06
619.8	58.46
620.0	58.42
620.2	58.34
620.4	57.89
620.6	57.68
620.8	57.24
621.0	57.09
621.2	56.74
621.4	56.51
621.6	55.65
621.8	54.91
622.0	53.81
622.2	53.73
622.4	53.86
622.6	53.83
622.8	53.38
623.0	53.25
623.2	52.67
623.4	52.26
623.6	52.17
623.8	51.25
624.0	50.80
624.2	51.07
624.4	50.74
624.6	50.44
624.8	50.20
625.0	49.38
625.2	48.99
625.4	49.08
625.6	48.53
625.8	48.32
626.0	47.95
626.2	47.71
626.4	47.76
626.6	47.76
626.8	47.48
627.0	46.92
627.2	46.21
627.4	45.50
627.6	45.26
627.8	45.31
628.0	45.32
628.2	45.44
628.4	45.41
628.6	44.76
628.8	43.89
629.0	43.46
629.2	43.03
629.4	42.85
629.6	42.65
629.8	42.27
630.0	41.76
630.2	41.41
630.4	41.10
630.6	40.82
630.8	40.61
631.0	40.46
631.2	40.23
631.4	40.11
631.6	39.91
631.8	39.96
632.0	39.81
632.2	39.22
632.4	38.66
632.6	38.38
632.8	38.35
633.0	38.38
633.2	37.99
633.4	37.22
633.6	37.00
633.8	37.07
634.0	37.25
634.2	37.42
634.4	36.69
634.6	35.97
634.8	35.89
635.0	35.89
635.2	35.67
635.4	35.60
635.6	34.96
635.8	34.62
636.0	34.61
636.2	34.47
636.4	34.11
636.6	34.20
636.8	33.85
637.0	33.56
637.2	33.04
637.4	32.71
637.6	32.21
637.8	32.32
638.0	32.24
638.2	32.27
638.4	31.96
638.6	31.98
638.8	32.15
639.0	32.21
639.2	31.98
639.4	31.54
639.6	30.96
639.8	30.39
640.0	29.99
640.2	29.69
640.4	29.65
640.6	29.63
640.8	29.79
641.0	29.83
641.2	29.18
641.4	28.72
641.6	28.78
641.8	28.79
642.0	28.66
642.2	28.73
642.4	28.04
642.6	27.62
642.8	27.76
643.0	27.81
643.2	27.77
643.4	27.51
643.6	27.28
643.8	26.93
644.0	26.61
644.2	26.08
644.4	25.95
644.6	25.59
644.8	25.54
645.0	25.47
645.2	25.27
645.4	25.10
645.6	24.98
645.8	24.71
646.0	24.31
646.2	24.24
646.4	24.18
646.6	24.38
646.8	24.45
647.0	24.55
647.2	24.18
647.4	23.96
647.6	23.63
647.8	23.43
648.0	23.40
648.2	23.41
648.4	23.24
648.6	22.96
648.8	22.94
649.0	22.67
649.2	22.48
649.4	22.18
649.6	22.04
649.8	21.44
650.0	21.33
650.2	21.18
650.4	21.14
650.6	21.02
650.8	20.93
651.0	20.86
651.2	20.92
651.4	21.00
651.6	20.86
651.8	20.50
652.0	20.07
652.2	20.01
652.4	20.03
652.6	20.10
652.8	20.15
653.0	20.01
653.2	19.69
653.4	19.42
653.6	19.30
653.8	19.38
654.0	19.31
654.2	19.05
654.4	18.82
654.6	18.72
654.8	18.80
655.0	18.70
655.2	18.39
655.4	18.11
655.6	18.20
655.8	18.49
656.0	18.56
656.2	18.20
656.4	17.64
656.6	17.28
656.8	17.21
657.0	17.31
657.2	17.30
657.4	17.25
657.6	17.05
657.8	17.04
658.0	16.73
658.2	16.66
658.4	16.69
658.6	16.86
658.8	16.95
659.0	16.89
659.2	16.48
659.4	16.19
659.6	16.00
659.8	16.07
660.0	16.13
660.2	16.00
660.4	15.93
660.6	15.60
660.8	15.42
661.0	15.23
661.2	15.17
661.4	15.28
661.6	15.40
661.8	15.31
662.0	15.07
662.2	14.59
662.4	14.48
662.6	14.51
662.8	14.59
663.0	14.60
663.2	14.33
663.4	14.11
663.6	14.11
663.8	13.98
664.0	14.06
664.2	13.97
664.4	14.00
664.6	13.92
664.8	13.78
665.0	13.45
665.2	13.31
665.4	12.97
665.6	13.06
665.8	12.82
666.0	12.61
666.2	12.58
666.4	12.75
666.6	12.82
666.8	12.97
667.0	12.91
667.2	12.59
667.4	12.48
667.6	12.26
667.8	12.26
668.0	12.17
668.2	12.15
668.4	12.20
668.6	12.14
668.8	11.90
669.0	11.95
669.2	11.83
669.4	11.86
669.6	11.80
669.8	11.62
670.0	11.43
670.2	11.50
670.4	11.53
670.6	11.59
670.8	11.40
671.0	11.21
671.2	11.05
671.4	10.99
671.6	11.03
