Sample:	'20211010A(EM)
File name:	100.FDS
Run date:	'14:56:56, 03/23/2023
Operator:	Administrator
Comment:	'

Instrument
Model:	F-4700 FL Spectrophotometer
Serial number:	2019-001
ROM Version:	5J24010 00

Instrument parameters
Measurement type:	Wavelength scan
Scan mode:	Emission
Data mode:	Fluorescence
EX WL:	400.0 nm
EM  Start WL:	420.0 nm
EM  End WL:	850.0 nm
Scan speed:	1200 nm/min
Delay:	0.0 s
EX Slit:	10.0 nm
EM Slit:	10.0 nm
PMT Voltage:	380 V
Response:	0.002 s
Corrected spectra:	Off
Shutter control:	On

Processing performed
Savitsky-Golay smoothed
Smoothing order:	3
Number of points:	7
Number of times:	1

Peak integration
Integration method:	Rectangular
Sensitivity:	1
Threshold:	1.000

Peaks
No.	Start(nm)	Apex(nm)	End(nm)	Height(Data)	Valley(nm)	Valley(Data)
1	420.0	525.2	783.4	6341	783.4	3.890
2	783.4	805.0	850.0	17.09	850.0	1.659

Data points
nm	Data
420.0	23.17
420.2	23.36
420.4	23.53
420.6	23.69
420.8	23.86
421.0	24.10
421.2	24.13
421.4	24.12
421.6	24.30
421.8	24.60
422.0	24.79
422.2	25.05
422.4	25.02
422.6	25.00
422.8	25.21
423.0	25.51
423.2	25.70
423.4	25.94
423.6	25.89
423.8	25.99
424.0	26.11
424.2	26.38
424.4	26.64
424.6	26.79
424.8	26.74
425.0	26.85
425.2	27.02
425.4	27.21
425.6	27.43
425.8	27.70
426.0	27.90
426.2	28.01
426.4	28.16
426.6	28.20
426.8	28.30
427.0	28.47
427.2	28.64
427.4	28.82
427.6	29.07
427.8	29.30
428.0	29.51
428.2	29.60
428.4	29.63
428.6	29.87
428.8	30.14
429.0	30.40
429.2	30.75
429.4	30.91
429.6	30.94
429.8	31.20
430.0	31.27
430.2	31.48
430.4	31.64
430.6	31.79
430.8	31.86
431.0	32.13
431.2	32.14
431.4	32.48
431.6	32.72
431.8	33.08
432.0	33.25
432.2	33.37
432.4	33.54
432.6	33.88
432.8	34.19
433.0	34.55
433.2	34.60
433.4	34.73
433.6	34.90
433.8	35.16
434.0	35.48
434.2	35.87
434.4	36.22
434.6	36.63
434.8	36.86
435.0	37.05
435.2	37.16
435.4	37.37
435.6	37.76
435.8	38.17
436.0	38.62
436.2	38.83
436.4	39.04
436.6	39.44
436.8	39.86
437.0	40.20
437.2	40.58
437.4	40.87
437.6	41.11
437.8	41.72
438.0	42.19
438.2	42.64
438.4	43.18
438.6	43.67
438.8	44.06
439.0	44.59
439.2	45.07
439.4	45.53
439.6	46.00
439.8	46.38
440.0	46.79
440.2	47.27
440.4	48.12
440.6	48.68
440.8	49.30
441.0	49.89
441.2	50.42
441.4	51.11
441.6	51.96
441.8	52.65
442.0	53.42
442.2	54.21
442.4	54.96
442.6	55.55
442.8	56.07
443.0	56.83
443.2	57.63
443.4	58.62
443.6	59.78
443.8	60.81
444.0	61.59
444.2	62.18
444.4	62.95
444.6	63.80
444.8	64.78
445.0	66.15
445.2	67.25
445.4	68.35
445.6	69.68
445.8	70.43
446.0	71.21
446.2	72.32
446.4	73.47
446.6	74.94
446.8	76.49
447.0	77.77
447.2	78.87
447.4	80.25
447.6	81.41
447.8	82.66
448.0	83.99
448.2	85.41
448.4	86.87
448.6	88.64
448.8	90.10
449.0	91.49
449.2	92.84
449.4	94.20
449.6	95.97
449.8	97.89
450.0	99.74
450.2	101.5
450.4	103.2
450.6	105.2
450.8	107.4
451.0	109.7
451.2	111.4
451.4	113.5
451.6	115.4
451.8	117.4
452.0	119.9
452.2	122.1
452.4	124.0
452.6	126.4
452.8	128.7
453.0	131.2
453.2	133.8
453.4	136.0
453.6	138.3
453.8	140.5
454.0	143.3
454.2	146.5
454.4	149.4
454.6	152.6
454.8	155.6
455.0	158.3
455.2	161.9
455.4	165.4
455.6	168.6
455.8	172.1
456.0	175.8
456.2	179.3
456.4	183.6
456.6	188.0
456.8	192.1
457.0	195.8
457.2	200.1
457.4	204.2
457.6	208.7
457.8	213.1
458.0	218.0
458.2	223.2
458.4	228.7
458.6	234.1
458.8	239.3
459.0	244.1
459.2	249.4
459.4	255.6
459.6	262.0
459.8	268.7
460.0	275.2
460.2	281.8
460.4	288.4
460.6	294.9
460.8	302.1
461.0	310.1
461.2	317.6
461.4	325.8
461.6	333.5
461.8	340.7
462.0	349.0
462.2	357.5
462.4	365.6
462.6	374.8
462.8	384.1
463.0	393.1
463.2	402.8
463.4	412.2
463.6	421.3
463.8	431.4
464.0	442.2
464.2	453.3
464.4	464.7
464.6	476.3
464.8	488.7
465.0	501.3
465.2	513.5
465.4	525.9
465.6	537.3
465.8	549.9
466.0	564.4
466.2	578.3
466.4	591.5
466.6	604.8
466.8	616.9
467.0	630.2
467.2	643.5
467.4	658.2
467.6	673.8
467.8	689.7
468.0	705.1
468.2	720.7
468.4	735.3
468.6	752.1
468.8	768.8
469.0	786.8
469.2	804.9
469.4	824.4
469.6	843.5
469.8	862.7
470.0	880.4
470.2	898.7
470.4	916.8
470.6	937.0
470.8	958.0
471.0	979.8
471.2	1001
471.4	1021
471.6	1040
471.8	1059
472.0	1078
472.2	1098
472.4	1119
472.6	1142
472.8	1164
473.0	1187
473.2	1208
473.4	1231
473.6	1253
473.8	1277
474.0	1301
474.2	1328
474.4	1353
474.6	1378
474.8	1400
475.0	1424
475.2	1449
475.4	1474
475.6	1501
475.8	1527
476.0	1552
476.2	1579
476.4	1603
476.6	1628
476.8	1654
477.0	1681
477.2	1707
477.4	1735
477.6	1761
477.8	1787
478.0	1813
478.2	1837
478.4	1862
478.6	1892
478.8	1919
479.0	1948
479.2	1976
479.4	2004
479.6	2030
479.8	2060
480.0	2087
480.2	2116
480.4	2147
480.6	2177
480.8	2206
481.0	2234
481.2	2260
481.4	2289
481.6	2317
481.8	2344
482.0	2372
482.2	2402
482.4	2428
482.6	2458
482.8	2485
483.0	2515
483.2	2544
483.4	2575
483.6	2603
483.8	2633
484.0	2661
484.2	2691
484.4	2719
484.6	2751
484.8	2782
485.0	2813
485.2	2840
485.4	2869
485.6	2896
485.8	2924
486.0	2956
486.2	2984
486.4	3008
486.6	3039
486.8	3066
487.0	3096
487.2	3128
487.4	3156
487.6	3183
487.8	3212
488.0	3236
488.2	3264
488.4	3290
488.6	3319
488.8	3344
489.0	3372
489.2	3400
489.4	3429
489.6	3454
489.8	3483
490.0	3510
490.2	3541
490.4	3572
490.6	3604
490.8	3631
491.0	3658
491.2	3684
491.4	3709
491.6	3736
491.8	3764
492.0	3796
492.2	3825
492.4	3852
492.6	3878
492.8	3902
493.0	3926
493.2	3952
493.4	3978
493.6	4008
493.8	4034
494.0	4060
494.2	4084
494.4	4107
494.6	4131
494.8	4157
495.0	4179
495.2	4206
495.4	4231
495.6	4255
495.8	4281
496.0	4305
496.2	4334
496.4	4364
496.6	4394
496.8	4420
497.0	4446
497.2	4469
497.4	4493
497.6	4515
497.8	4535
498.0	4556
498.2	4577
498.4	4599
498.6	4624
498.8	4648
499.0	4673
499.2	4696
499.4	4719
499.6	4740
499.8	4764
500.0	4787
500.2	4814
500.4	4833
500.6	4856
500.8	4877
501.0	4901
501.2	4930
501.4	4958
501.6	4981
501.8	5004
502.0	5021
502.2	5041
502.4	5057
502.6	5077
502.8	5099
503.0	5123
503.2	5147
503.4	5167
503.6	5183
503.8	5203
504.0	5221
504.2	5242
504.4	5261
504.6	5277
504.8	5297
505.0	5320
505.2	5343
505.4	5369
505.6	5393
505.8	5412
506.0	5426
506.2	5443
506.4	5454
506.6	5471
506.8	5494
507.0	5513
507.2	5529
507.4	5547
507.6	5564
507.8	5581
508.0	5597
508.2	5613
508.4	5626
508.6	5640
508.8	5660
509.0	5676
509.2	5693
509.4	5710
509.6	5727
509.8	5743
510.0	5760
510.2	5778
510.4	5792
510.6	5807
510.8	5820
511.0	5830
511.2	5846
511.4	5860
511.6	5873
511.8	5888
512.0	5896
512.2	5908
512.4	5919
512.6	5930
512.8	5945
513.0	5959
513.2	5971
513.4	5983
513.6	5990
513.8	5998
514.0	6009
514.2	6023
514.4	6036
514.6	6050
514.8	6059
515.0	6068
515.2	6079
515.4	6091
515.6	6105
515.8	6117
516.0	6127
516.2	6135
516.4	6141
516.6	6148
516.8	6155
517.0	6162
517.2	6169
517.4	6173
517.6	6181
517.8	6187
518.0	6192
518.2	6203
518.4	6211
518.6	6223
518.8	6233
519.0	6237
519.2	6244
519.4	6251
519.6	6257
519.8	6266
520.0	6271
520.2	6277
520.4	6281
520.6	6282
520.8	6283
521.0	6284
521.2	6290
521.4	6293
521.6	6295
521.8	6293
522.0	6294
522.2	6298
522.4	6304
522.6	6311
522.8	6317
523.0	6316
523.2	6316
523.4	6312
523.6	6314
523.8	6318
524.0	6325
524.2	6329
524.4	6332
524.6	6335
524.8	6337
525.0	6339
525.2	6341
525.4	6338
525.6	6337
525.8	6337
526.0	6329
526.2	6324
526.4	6320
526.6	6320
526.8	6321
527.0	6321
527.2	6318
527.4	6316
527.6	6316
527.8	6315
528.0	6311
528.2	6310
528.4	6304
528.6	6302
528.8	6304
529.0	6302
529.2	6302
529.4	6299
529.6	6293
529.8	6289
530.0	6287
530.2	6288
530.4	6283
530.6	6272
530.8	6265
531.0	6256
531.2	6253
531.4	6252
531.6	6248
531.8	6245
532.0	6240
532.2	6234
532.4	6226
532.6	6218
532.8	6212
533.0	6206
533.2	6201
533.4	6195
533.6	6187
533.8	6180
534.0	6172
534.2	6165
534.4	6160
534.6	6156
534.8	6151
535.0	6142
535.2	6136
535.4	6127
535.6	6116
535.8	6109
536.0	6101
536.2	6095
536.4	6090
536.6	6081
536.8	6075
537.0	6068
537.2	6062
537.4	6053
537.6	6047
537.8	6038
538.0	6031
538.2	6024
538.4	6013
538.6	6001
538.8	5995
539.0	5984
539.2	5972
539.4	5961
539.6	5952
539.8	5943
540.0	5935
540.2	5927
540.4	5913
540.6	5902
540.8	5894
541.0	5883
541.2	5875
541.4	5864
541.6	5857
541.8	5854
542.0	5847
542.2	5840
542.4	5827
542.6	5809
542.8	5798
543.0	5787
543.2	5773
543.4	5759
543.6	5742
543.8	5729
544.0	5720
544.2	5710
544.4	5697
544.6	5685
544.8	5673
545.0	5663
545.2	5656
545.4	5647
545.6	5636
545.8	5625
546.0	5614
546.2	5602
546.4	5589
546.6	5578
546.8	5571
547.0	5562
547.2	5553
547.4	5542
547.6	5524
547.8	5508
548.0	5489
548.2	5473
548.4	5459
548.6	5449
548.8	5438
549.0	5424
549.2	5409
549.4	5393
549.6	5376
549.8	5362
550.0	5346
550.2	5335
550.4	5326
550.6	5314
550.8	5302
551.0	5290
551.2	5279
551.4	5270
551.6	5260
551.8	5246
552.0	5231
552.2	5217
552.4	5202
552.6	5191
552.8	5176
553.0	5157
553.2	5139
553.4	5123
553.6	5106
553.8	5095
554.0	5078
554.2	5064
554.4	5048
554.6	5035
554.8	5024
555.0	5010
555.2	4997
555.4	4983
555.6	4967
555.8	4953
556.0	4939
556.2	4925
556.4	4914
556.6	4897
556.8	4884
557.0	4866
557.2	4851
557.4	4834
557.6	4820
557.8	4806
558.0	4791
558.2	4779
558.4	4765
558.6	4746
558.8	4731
559.0	4713
559.2	4698
559.4	4686
559.6	4670
559.8	4654
560.0	4641
560.2	4623
560.4	4611
560.6	4597
560.8	4580
561.0	4564
561.2	4549
561.4	4533
561.6	4518
561.8	4505
562.0	4490
562.2	4475
562.4	4460
562.6	4444
562.8	4430
563.0	4417
563.2	4400
563.4	4383
563.6	4367
563.8	4350
564.0	4335
564.2	4320
564.4	4306
564.6	4291
564.8	4277
565.0	4260
565.2	4243
565.4	4227
565.6	4213
565.8	4199
566.0	4182
566.2	4164
566.4	4148
566.6	4133
566.8	4119
567.0	4105
567.2	4089
567.4	4073
567.6	4060
567.8	4047
568.0	4032
568.2	4018
568.4	4002
568.6	3988
568.8	3975
569.0	3959
569.2	3945
569.4	3931
569.6	3916
569.8	3899
570.0	3882
570.2	3865
570.4	3852
570.6	3837
570.8	3824
571.0	3804
571.2	3785
571.4	3769
571.6	3754
571.8	3739
572.0	3726
572.2	3709
572.4	3694
572.6	3679
572.8	3666
573.0	3652
573.2	3641
573.4	3627
573.6	3611
573.8	3597
574.0	3584
574.2	3567
574.4	3552
574.6	3533
574.8	3514
575.0	3498
575.2	3483
575.4	3472
575.6	3457
575.8	3444
576.0	3429
576.2	3412
576.4	3398
576.6	3384
576.8	3370
577.0	3355
577.2	3340
577.4	3327
577.6	3315
577.8	3303
578.0	3290
578.2	3275
578.4	3260
578.6	3245
578.8	3233
579.0	3222
579.2	3209
579.4	3193
579.6	3176
579.8	3161
580.0	3147
580.2	3132
580.4	3118
580.6	3101
580.8	3085
581.0	3072
581.2	3059
581.4	3048
581.6	3035
581.8	3020
582.0	3009
582.2	2996
582.4	2985
582.6	2975
582.8	2961
583.0	2947
583.2	2933
583.4	2919
583.6	2905
583.8	2891
584.0	2876
584.2	2863
584.4	2853
584.6	2839
584.8	2827
585.0	2812
585.2	2797
585.4	2784
585.6	2773
585.8	2760
586.0	2747
586.2	2732
586.4	2718
586.6	2706
586.8	2696
587.0	2686
587.2	2673
587.4	2662
587.6	2650
587.8	2639
588.0	2626
588.2	2612
588.4	2601
588.6	2587
588.8	2576
589.0	2565
589.2	2550
589.4	2538
589.6	2526
589.8	2511
590.0	2501
590.2	2490
590.4	2479
590.6	2467
590.8	2455
591.0	2443
591.2	2433
591.4	2422
591.6	2409
591.8	2398
592.0	2387
592.2	2376
592.4	2366
592.6	2354
592.8	2341
593.0	2328
593.2	2316
593.4	2307
593.6	2296
593.8	2285
594.0	2272
594.2	2258
594.4	2246
594.6	2237
594.8	2226
595.0	2216
595.2	2204
595.4	2194
595.6	2183
595.8	2174
596.0	2164
596.2	2153
596.4	2144
596.6	2135
596.8	2126
597.0	2116
597.2	2103
597.4	2091
597.6	2079
597.8	2068
598.0	2060
598.2	2051
598.4	2040
598.6	2028
598.8	2015
599.0	2002
599.2	1994
599.4	1986
599.6	1977
599.8	1966
600.0	1955
600.2	1942
600.4	1933
600.6	1924
600.8	1916
601.0	1907
601.2	1899
601.4	1890
601.6	1880
601.8	1868
602.0	1856
602.2	1845
602.4	1835
602.6	1824
602.8	1814
603.0	1805
603.2	1797
603.4	1788
603.6	1779
603.8	1768
604.0	1758
604.2	1748
604.4	1738
604.6	1728
604.8	1719
605.0	1710
605.2	1702
605.4	1694
605.6	1685
605.8	1676
606.0	1666
606.2	1656
606.4	1649
606.6	1641
606.8	1633
607.0	1624
607.2	1614
607.4	1605
607.6	1596
607.8	1587
608.0	1579
608.2	1571
608.4	1561
608.6	1552
608.8	1543
609.0	1533
609.2	1523
609.4	1515
609.6	1505
609.8	1497
610.0	1490
610.2	1481
610.4	1473
610.6	1464
610.8	1454
611.0	1447
611.2	1438
611.4	1433
611.6	1426
611.8	1416
612.0	1406
612.2	1396
612.4	1389
612.6	1383
612.8	1377
613.0	1369
613.2	1360
613.4	1351
613.6	1344
613.8	1336
614.0	1329
614.2	1321
614.4	1314
614.6	1305
614.8	1296
615.0	1287
615.2	1279
615.4	1271
615.6	1264
615.8	1257
616.0	1249
616.2	1240
616.4	1232
616.6	1225
616.8	1219
617.0	1213
617.2	1206
617.4	1199
617.6	1193
617.8	1186
618.0	1180
618.2	1173
618.4	1166
618.6	1159
618.8	1151
619.0	1143
619.2	1135
619.4	1127
619.6	1120
619.8	1112
620.0	1106
620.2	1099
620.4	1093
620.6	1086
620.8	1079
621.0	1072
621.2	1066
621.4	1059
621.6	1054
621.8	1048
622.0	1042
622.2	1037
622.4	1031
622.6	1024
622.8	1017
623.0	1010
623.2	1002
623.4	995.7
623.6	990.0
623.8	983.5
624.0	979.0
624.2	972.0
624.4	965.7
624.6	959.1
624.8	951.9
625.0	946.0
625.2	940.9
625.4	934.8
625.6	929.1
625.8	921.2
626.0	913.0
626.2	905.9
626.4	900.0
626.6	895.5
626.8	891.6
627.0	886.3
627.2	879.8
627.4	873.5
627.6	867.5
627.8	862.3
628.0	857.2
628.2	851.5
628.4	845.9
628.6	839.9
628.8	834.7
629.0	829.8
629.2	824.2
629.4	818.6
629.6	813.0
629.8	807.3
630.0	802.9
630.2	797.3
630.4	792.5
630.6	786.4
630.8	780.8
631.0	776.0
631.2	770.7
631.4	765.2
631.6	761.1
631.8	756.6
632.0	751.7
632.2	747.0
632.4	741.9
632.6	737.4
632.8	732.6
633.0	728.1
633.2	722.8
633.4	717.7
633.6	712.5
633.8	707.4
634.0	702.5
634.2	697.1
634.4	692.4
634.6	687.8
634.8	683.1
635.0	678.8
635.2	674.9
635.4	670.0
635.6	666.4
635.8	662.5
636.0	659.0
636.2	654.5
636.4	650.5
636.6	645.2
636.8	641.0
637.0	636.5
637.2	631.6
637.4	627.1
637.6	622.9
637.8	618.5
638.0	615.3
638.2	611.5
638.4	607.1
638.6	603.2
638.8	598.6
639.0	594.8
639.2	591.4
639.4	587.6
639.6	583.7
639.8	579.2
640.0	575.5
640.2	571.7
640.4	568.3
640.6	564.2
640.8	560.6
641.0	556.8
641.2	552.5
641.4	548.2
641.6	543.7
641.8	538.7
642.0	535.5
642.2	532.3
642.4	528.9
642.6	525.2
642.8	521.1
643.0	517.7
643.2	514.1
643.4	510.8
643.6	508.3
643.8	505.3
644.0	502.1
644.2	498.4
644.4	493.9
644.6	489.6
644.8	486.8
645.0	484.3
645.2	481.2
645.4	477.7
645.6	473.8
645.8	469.2
646.0	466.5
646.2	463.3
646.4	460.3
646.6	457.3
646.8	454.1
647.0	450.1
647.2	446.9
647.4	443.7
647.6	440.7
647.8	437.7
648.0	434.8
648.2	431.8
648.4	429.3
648.6	426.7
648.8	423.9
649.0	420.8
649.2	417.2
649.4	413.8
649.6	411.1
649.8	408.0
650.0	406.4
650.2	403.9
650.4	401.0
650.6	397.7
650.8	394.6
651.0	391.8
651.2	389.6
651.4	386.8
651.6	383.7
651.8	380.3
652.0	377.8
652.2	375.0
652.4	372.6
652.6	369.9
652.8	367.1
653.0	363.8
653.2	361.2
653.4	358.4
653.6	356.3
653.8	354.0
654.0	352.0
654.2	349.3
654.4	346.4
654.6	343.9
654.8	341.0
655.0	338.1
655.2	336.2
655.4	334.5
655.6	332.5
655.8	330.3
656.0	327.6
656.2	324.8
656.4	323.0
656.6	320.8
656.8	318.6
657.0	315.8
657.2	313.7
657.4	311.7
657.6	309.8
657.8	307.4
658.0	305.2
658.2	302.2
658.4	299.8
658.6	297.6
658.8	295.0
659.0	293.1
659.2	290.9
659.4	288.6
659.6	286.6
659.8	284.5
660.0	282.2
660.2	280.5
660.4	278.7
660.6	277.0
660.8	275.4
661.0	273.0
661.2	270.9
661.4	269.3
661.6	267.6
661.8	265.8
662.0	264.0
662.2	261.5
662.4	259.5
662.6	257.9
662.8	256.0
663.0	254.3
663.2	252.3
663.4	250.3
663.6	248.9
663.8	247.1
664.0	245.1
664.2	243.4
664.4	241.4
664.6	239.4
664.8	237.6
665.0	235.5
665.2	233.3
665.4	231.6
665.6	230.0
665.8	228.4
666.0	227.1
666.2	225.6
666.4	224.2
666.6	222.7
666.8	220.8
667.0	219.4
667.2	217.7
667.4	216.0
667.6	214.3
667.8	212.7
668.0	210.9
668.2	209.7
668.4	208.0
668.6	206.7
668.8	204.8
669.0	203.3
669.2	201.3
669.4	199.9
669.6	198.3
669.8	196.9
670.0	195.3
670.2	194.3
670.4	192.7
670.6	191.4
670.8	190.1
671.0	188.3
671.2	186.5
671.4	185.2
671.6	184.1
671.8	183.0
672.0	181.9
672.2	180.6
672.4	179.0
672.6	177.7
672.8	176.4
673.0	175.3
673.2	173.8
673.4	172.7
673.6	171.4
673.8	170.2
674.0	168.3
674.2	166.8
674.4	165.6
674.6	164.5
674.8	163.6
675.0	162.6
675.2	161.1
675.4	159.5
675.6	158.5
675.8	157.2
676.0	156.1
676.2	155.1
676.4	153.9
676.6	152.8
676.8	151.5
677.0	150.1
677.2	148.8
677.4	147.7
677.6	146.8
677.8	145.9
678.0	145.1
678.2	144.5
678.4	143.4
678.6	142.2
678.8	140.6
679.0	139.1
679.2	137.8
679.4	137.3
679.6	136.3
679.8	135.2
680.0	134.3
680.2	133.4
680.4	132.1
680.6	131.6
680.8	130.2
681.0	129.1
681.2	127.9
681.4	126.9
681.6	125.8
681.8	125.0
682.0	124.0
682.2	123.0
682.4	122.2
682.6	121.2
682.8	120.6
683.0	119.6
683.2	118.6
683.4	117.3
683.6	116.8
683.8	115.7
684.0	114.8
684.2	113.8
684.4	112.9
684.6	112.1
684.8	111.7
685.0	111.0
685.2	110.0
685.4	109.1
685.6	108.3
685.8	107.5
686.0	106.8
686.2	105.8
686.4	104.3
686.6	103.2
686.8	102.8
687.0	102.0
687.2	101.5
687.4	101.0
687.6	100.2
687.8	99.17
688.0	98.29
688.2	97.25
688.4	96.70
688.6	96.26
688.8	95.60
689.0	94.62
689.2	93.57
689.4	92.83
689.6	92.41
689.8	91.93
690.0	91.29
690.2	90.67
690.4	89.82
690.6	89.07
690.8	88.62
691.0	88.02
691.2	87.42
691.4	86.71
691.6	85.90
691.8	84.98
692.0	84.32
692.2	83.70
692.4	83.50
692.6	82.98
692.8	82.51
693.0	81.84
693.2	81.21
693.4	80.48
693.6	79.94
693.8	79.23
694.0	78.70
694.2	78.15
694.4	77.76
694.6	77.01
694.8	76.24
695.0	75.88
695.2	75.24
695.4	74.76
695.6	74.31
695.8	73.73
696.0	73.10
696.2	72.79
696.4	72.24
696.6	71.58
696.8	70.86
697.0	70.30
697.2	69.80
697.4	69.28
697.6	68.70
697.8	67.97
698.0	67.60
698.2	67.24
698.4	67.04
698.6	66.73
698.8	66.25
699.0	65.69
699.2	65.41
699.4	65.07
699.6	64.65
699.8	64.23
700.0	63.61
700.2	63.05
700.4	62.63
700.6	62.31
700.8	61.89
701.0	61.57
701.2	61.31
701.4	60.98
701.6	60.41
701.8	59.80
702.0	59.18
702.2	58.67
702.4	58.41
702.6	57.98
702.8	57.71
703.0	57.34
703.2	56.86
703.4	56.61
703.6	56.27
703.8	56.07
704.0	55.87
704.2	55.31
704.4	54.65
704.6	54.29
704.8	53.74
705.0	53.53
705.2	53.25
705.4	53.02
705.6	52.84
705.8	52.70
706.0	52.19
706.2	51.74
706.4	51.19
706.6	50.75
706.8	50.39
707.0	50.24
707.2	49.88
707.4	49.54
707.6	49.09
707.8	48.59
708.0	48.21
708.2	47.97
708.4	47.65
708.6	47.42
708.8	47.03
709.0	46.76
709.2	46.52
709.4	46.35
709.6	46.00
709.8	45.68
710.0	45.28
710.2	45.08
710.4	44.96
710.6	44.73
710.8	44.29
711.0	43.95
711.2	43.58
711.4	43.13
711.6	42.77
711.8	42.31
712.0	42.07
712.2	41.69
712.4	41.38
712.6	41.01
712.8	40.75
713.0	40.73
713.2	40.65
713.4	40.15
713.6	39.87
713.8	39.44
714.0	39.06
714.2	38.86
714.4	38.63
714.6	38.32
714.8	38.12
715.0	37.87
715.2	37.51
715.4	37.19
715.6	36.95
715.8	36.66
716.0	36.48
716.2	36.16
716.4	35.72
716.6	35.42
716.8	35.25
717.0	35.03
717.2	34.90
717.4	34.56
717.6	34.31
717.8	34.04
718.0	33.92
718.2	33.77
718.4	33.38
718.6	33.07
718.8	32.83
719.0	32.59
719.2	32.49
719.4	32.17
719.6	31.88
719.8	31.67
720.0	31.39
720.2	31.22
720.4	31.07
720.6	30.60
720.8	30.56
721.0	30.42
721.2	30.18
721.4	29.84
721.6	29.45
721.8	28.97
722.0	28.75
722.2	28.58
722.4	28.57
722.6	28.41
722.8	28.11
723.0	27.80
723.2	27.56
723.4	27.39
723.6	27.29
723.8	27.06
724.0	26.80
724.2	26.46
724.4	26.37
724.6	26.23
724.8	25.92
725.0	25.69
