Sample:	'20211010A(EM)
File name:	600.FDS
Run date:	'15:04:28, 03/23/2023
Operator:	Administrator
Comment:	'

Instrument
Model:	F-4700 FL Spectrophotometer
Serial number:	2019-001
ROM Version:	5J24010 00

Instrument parameters
Measurement type:	Wavelength scan
Scan mode:	Emission
Data mode:	Fluorescence
EX WL:	400.0 nm
EM  Start WL:	420.0 nm
EM  End WL:	850.0 nm
Scan speed:	1200 nm/min
Delay:	0.0 s
EX Slit:	10.0 nm
EM Slit:	10.0 nm
PMT Voltage:	380 V
Response:	0.002 s
Corrected spectra:	Off
Shutter control:	On

Processing performed
Savitsky-Golay smoothed
Smoothing order:	3
Number of points:	7
Number of times:	1

Peak integration
Integration method:	Rectangular
Sensitivity:	1
Threshold:	1.000

Peaks
No.	Start(nm)	Apex(nm)	End(nm)	Height(Data)	Valley(nm)	Valley(Data)
1	420.0	524.2	526.4	4842	526.4	4820
2	526.4	527.2	780.6	4830	780.6	3.097
3	780.6	803.8	850.0	10.74	850.0	1.340

Data points
nm	Data
420.0	16.98
420.2	16.96
420.4	17.07
420.6	17.26
420.8	17.47
421.0	17.55
421.2	17.58
421.4	17.68
421.6	17.76
421.8	17.78
422.0	17.88
422.2	18.05
422.4	18.19
422.6	18.37
422.8	18.52
423.0	18.60
423.2	18.58
423.4	18.62
423.6	18.74
423.8	18.93
424.0	19.19
424.2	19.31
424.4	19.31
424.6	19.24
424.8	19.31
425.0	19.46
425.2	19.70
425.4	19.87
425.6	20.07
425.8	20.16
426.0	20.20
426.2	20.26
426.4	20.43
426.6	20.56
426.8	20.80
427.0	20.99
427.2	21.14
427.4	21.24
427.6	21.19
427.8	21.14
428.0	21.26
428.2	21.45
428.4	21.86
428.6	22.12
428.8	22.19
429.0	22.36
429.2	22.43
429.4	22.40
429.6	22.52
429.8	22.65
430.0	22.80
430.2	23.10
430.4	23.22
430.6	23.30
430.8	23.41
431.0	23.55
431.2	23.57
431.4	23.76
431.6	24.00
431.8	24.33
432.0	24.52
432.2	24.70
432.4	24.71
432.6	24.87
432.8	25.12
433.0	25.32
433.2	25.53
433.4	25.77
433.6	25.93
433.8	26.21
434.0	26.37
434.2	26.61
434.4	26.81
434.6	27.10
434.8	27.22
435.0	27.45
435.2	27.55
435.4	27.81
435.6	28.06
435.8	28.57
436.0	29.00
436.2	29.32
436.4	29.53
436.6	29.73
436.8	29.98
437.0	30.30
437.2	30.58
437.4	30.70
437.6	30.84
437.8	31.18
438.0	31.69
438.2	32.21
438.4	32.61
438.6	33.10
438.8	33.22
439.0	33.56
439.2	34.01
439.4	34.67
439.6	35.18
439.8	35.84
440.0	36.10
440.2	36.38
440.4	36.58
440.6	37.07
440.8	37.53
441.0	38.17
441.2	38.72
441.4	39.15
441.6	39.68
441.8	40.40
442.0	41.02
442.2	41.69
442.4	42.10
442.6	42.32
442.8	43.11
443.0	43.92
443.2	44.61
443.4	45.44
443.6	46.16
443.8	46.69
444.0	47.56
444.2	48.34
444.4	49.04
444.6	49.89
444.8	50.75
445.0	51.82
445.2	52.54
445.4	53.46
445.6	54.17
445.8	54.96
446.0	55.81
446.2	56.78
446.4	57.60
446.6	58.48
446.8	59.30
447.0	60.37
447.2	61.36
447.4	62.35
447.6	63.58
447.8	64.49
448.0	65.72
448.2	67.13
448.4	68.38
448.6	69.45
448.8	70.38
449.0	71.20
449.2	72.20
449.4	73.59
449.6	75.06
449.8	76.85
450.0	78.51
450.2	80.12
450.4	81.36
450.6	82.72
450.8	83.88
451.0	85.35
451.2	86.95
451.4	88.55
451.6	90.12
451.8	92.33
452.0	93.99
452.2	95.85
452.4	97.50
452.6	99.20
452.8	100.8
453.0	103.0
453.2	104.7
453.4	106.9
453.6	108.7
453.8	111.1
454.0	113.3
454.2	115.5
454.4	117.6
454.6	120.2
454.8	122.7
455.0	125.5
455.2	128.2
455.4	130.8
455.6	133.1
455.8	136.0
456.0	138.5
456.2	141.5
456.4	144.7
456.6	147.9
456.8	150.7
457.0	153.7
457.2	156.8
457.4	160.4
457.6	164.1
457.8	167.9
458.0	171.4
458.2	175.2
458.4	179.5
458.6	183.4
458.8	187.1
459.0	191.4
459.2	195.6
459.4	200.6
459.6	205.8
459.8	211.0
460.0	216.0
460.2	221.5
460.4	226.3
460.6	230.9
460.8	235.8
461.0	241.5
461.2	247.9
461.4	254.6
461.6	260.2
461.8	265.7
462.0	271.8
462.2	278.5
462.4	286.2
462.6	293.9
462.8	300.8
463.0	307.5
463.2	314.6
463.4	322.2
463.6	329.6
463.8	337.4
464.0	344.9
464.2	352.6
464.4	361.1
464.6	370.6
464.8	380.3
465.0	389.8
465.2	398.7
465.4	408.3
465.6	417.9
465.8	427.7
466.0	437.5
466.2	447.1
466.4	456.8
466.6	467.3
466.8	478.1
467.0	488.2
467.2	499.3
467.4	511.0
467.6	522.4
467.8	534.4
468.0	545.9
468.2	557.7
468.4	569.8
468.6	582.5
468.8	595.5
469.0	609.5
469.2	623.0
469.4	636.7
469.6	650.3
469.8	664.9
470.0	678.9
470.2	693.8
470.4	708.3
470.6	722.6
470.8	738.2
471.0	754.4
471.2	769.9
471.4	785.9
471.6	800.9
471.8	816.3
472.0	832.7
472.2	848.6
472.4	863.7
472.6	879.7
472.8	895.6
473.0	912.1
473.2	930.6
473.4	948.5
473.6	964.8
473.8	983.2
474.0	1002
474.2	1022
474.4	1042
474.6	1060
474.8	1076
475.0	1093
475.2	1112
475.4	1133
475.6	1153
475.8	1173
476.0	1193
476.2	1211
476.4	1229
476.6	1249
476.8	1269
477.0	1289
477.2	1311
477.4	1332
477.6	1353
477.8	1374
478.0	1393
478.2	1413
478.4	1432
478.6	1451
478.8	1472
479.0	1494
479.2	1515
479.4	1537
479.6	1557
479.8	1577
480.0	1599
480.2	1621
480.4	1642
480.6	1663
480.8	1685
481.0	1706
481.2	1728
481.4	1749
481.6	1770
481.8	1794
482.0	1817
482.2	1840
482.4	1861
482.6	1882
482.8	1902
483.0	1926
483.2	1948
483.4	1971
483.6	1994
483.8	2017
484.0	2038
484.2	2060
484.4	2080
484.6	2101
484.8	2123
485.0	2145
485.2	2167
485.4	2190
485.6	2211
485.8	2232
486.0	2255
486.2	2280
486.4	2303
486.6	2325
486.8	2345
487.0	2365
487.2	2387
487.4	2410
487.6	2433
487.8	2455
488.0	2475
488.2	2496
488.4	2515
488.6	2536
488.8	2557
489.0	2578
489.2	2600
489.4	2622
489.6	2642
489.8	2664
490.0	2686
490.2	2709
490.4	2730
490.6	2751
490.8	2769
491.0	2787
491.2	2807
491.4	2830
491.6	2852
491.8	2877
492.0	2900
492.2	2922
492.4	2942
492.6	2961
492.8	2978
493.0	2995
493.2	3016
493.4	3036
493.6	3056
493.8	3078
494.0	3096
494.2	3116
494.4	3136
494.6	3156
494.8	3176
495.0	3194
495.2	3212
495.4	3232
495.6	3251
495.8	3272
496.0	3290
496.2	3310
496.4	3331
496.6	3351
496.8	3370
497.0	3388
497.2	3406
497.4	3426
497.6	3445
497.8	3464
498.0	3483
498.2	3501
498.4	3518
498.6	3536
498.8	3555
499.0	3574
499.2	3592
499.4	3609
499.6	3624
499.8	3640
500.0	3658
500.2	3679
500.4	3694
500.6	3710
500.8	3727
501.0	3742
501.2	3762
501.4	3783
501.6	3799
501.8	3817
502.0	3833
502.2	3848
502.4	3862
502.6	3879
502.8	3897
503.0	3915
503.2	3932
503.4	3946
503.6	3961
503.8	3978
504.0	3994
504.2	4009
504.4	4021
504.6	4035
504.8	4051
505.0	4065
505.2	4079
505.4	4091
505.6	4104
505.8	4120
506.0	4136
506.2	4151
506.4	4165
506.6	4176
506.8	4191
507.0	4205
507.2	4221
507.4	4238
507.6	4256
507.8	4271
508.0	4287
508.2	4301
508.4	4312
508.6	4322
508.8	4331
509.0	4342
509.2	4352
509.4	4363
509.6	4376
509.8	4388
510.0	4398
510.2	4406
510.4	4412
510.6	4424
510.8	4436
511.0	4448
511.2	4460
511.4	4471
511.6	4483
511.8	4497
512.0	4506
512.2	4517
512.4	4527
512.6	4536
512.8	4547
513.0	4559
513.2	4570
513.4	4581
513.6	4588
513.8	4595
514.0	4604
514.2	4613
514.4	4619
514.6	4627
514.8	4633
515.0	4640
515.2	4646
515.4	4652
515.6	4657
515.8	4662
516.0	4669
516.2	4677
516.4	4680
516.6	4683
516.8	4691
517.0	4697
517.2	4707
517.4	4719
517.6	4730
517.8	4737
518.0	4747
518.2	4752
518.4	4755
518.6	4761
518.8	4763
519.0	4767
519.2	4772
519.4	4775
519.6	4780
519.8	4781
520.0	4783
520.2	4785
520.4	4785
520.6	4788
520.8	4793
521.0	4795
521.2	4800
521.4	4801
521.6	4803
521.8	4805
522.0	4811
522.2	4813
522.4	4817
522.6	4819
522.8	4822
523.0	4826
523.2	4832
523.4	4836
523.6	4839
523.8	4841
524.0	4841
524.2	4842
524.4	4839
524.6	4837
524.8	4835
525.0	4834
525.2	4832
525.4	4831
525.6	4828
525.8	4824
526.0	4822
526.2	4820
526.4	4820
526.6	4823
526.8	4825
527.0	4829
527.2	4830
527.4	4827
527.6	4825
527.8	4823
528.0	4825
528.2	4827
528.4	4825
528.6	4823
528.8	4820
529.0	4816
529.2	4812
529.4	4808
529.6	4807
529.8	4804
530.0	4798
530.2	4794
530.4	4787
530.6	4782
530.8	4780
531.0	4775
531.2	4771
531.4	4769
531.6	4768
531.8	4766
532.0	4763
532.2	4759
532.4	4755
532.6	4751
532.8	4750
533.0	4747
533.2	4745
533.4	4739
533.6	4733
533.8	4726
534.0	4723
534.2	4719
534.4	4713
534.6	4707
534.8	4700
535.0	4695
535.2	4689
535.4	4682
535.6	4678
535.8	4671
536.0	4665
536.2	4660
536.4	4650
536.6	4644
536.8	4637
537.0	4629
537.2	4624
537.4	4621
537.6	4618
537.8	4614
538.0	4607
538.2	4600
538.4	4592
538.6	4587
538.8	4583
539.0	4576
539.2	4569
539.4	4559
539.6	4550
539.8	4541
540.0	4536
540.2	4532
540.4	4526
540.6	4520
540.8	4510
541.0	4500
541.2	4490
541.4	4480
541.6	4470
541.8	4459
542.0	4449
542.2	4440
542.4	4431
542.6	4428
542.8	4426
543.0	4420
543.2	4413
543.4	4400
543.6	4390
543.8	4380
544.0	4373
544.2	4365
544.4	4357
544.6	4349
544.8	4343
545.0	4333
545.2	4322
545.4	4310
545.6	4298
545.8	4287
546.0	4278
546.2	4271
546.4	4261
546.6	4253
546.8	4244
547.0	4235
547.2	4227
547.4	4219
547.6	4210
547.8	4201
548.0	4193
548.2	4183
548.4	4175
548.6	4167
548.8	4158
549.0	4149
549.2	4140
549.4	4126
549.6	4117
549.8	4104
550.0	4090
550.2	4078
550.4	4068
550.6	4059
550.8	4052
551.0	4041
551.2	4031
551.4	4021
551.6	4009
551.8	3995
552.0	3985
552.2	3973
552.4	3963
552.6	3955
552.8	3943
553.0	3935
553.2	3928
553.4	3922
553.6	3913
553.8	3900
554.0	3886
554.2	3875
554.4	3861
554.6	3854
554.8	3845
555.0	3834
555.2	3821
555.4	3808
555.6	3793
555.8	3780
556.0	3767
556.2	3756
556.4	3744
556.6	3732
556.8	3722
557.0	3712
557.2	3700
557.4	3690
557.6	3678
557.8	3667
558.0	3663
558.2	3656
558.4	3647
558.6	3636
558.8	3622
559.0	3610
559.2	3599
559.4	3588
559.6	3578
559.8	3564
560.0	3553
560.2	3540
560.4	3524
560.6	3510
560.8	3498
561.0	3486
561.2	3475
561.4	3463
561.6	3451
561.8	3436
562.0	3426
562.2	3415
562.4	3402
562.6	3392
562.8	3379
563.0	3366
563.2	3359
563.4	3350
563.6	3341
563.8	3329
564.0	3314
564.2	3300
564.4	3288
564.6	3281
564.8	3274
565.0	3262
565.2	3248
565.4	3232
565.6	3219
565.8	3205
566.0	3195
566.2	3181
566.4	3169
566.6	3156
566.8	3147
567.0	3132
567.2	3121
567.4	3107
567.6	3097
567.8	3084
568.0	3075
568.2	3064
568.4	3054
568.6	3045
568.8	3035
569.0	3023
569.2	3011
569.4	3000
569.6	2988
569.8	2975
570.0	2965
570.2	2954
570.4	2941
570.6	2928
570.8	2914
571.0	2901
571.2	2890
571.4	2880
571.6	2869
571.8	2855
572.0	2841
572.2	2827
572.4	2815
572.6	2806
572.8	2796
573.0	2787
573.2	2776
573.4	2763
573.6	2753
573.8	2742
574.0	2732
574.2	2723
574.4	2713
574.6	2701
574.8	2691
575.0	2681
575.2	2668
575.4	2656
575.6	2644
575.8	2631
576.0	2619
576.2	2606
576.4	2593
576.6	2582
576.8	2570
577.0	2560
577.2	2550
577.4	2539
577.6	2530
577.8	2519
578.0	2508
578.2	2498
578.4	2487
578.6	2478
578.8	2470
579.0	2462
579.2	2453
579.4	2442
579.6	2430
579.8	2419
580.0	2409
580.2	2400
580.4	2390
580.6	2377
580.8	2363
581.0	2349
581.2	2335
581.4	2323
581.6	2312
581.8	2300
582.0	2291
582.2	2282
582.4	2275
582.6	2265
582.8	2255
583.0	2245
583.2	2234
583.4	2227
583.6	2219
583.8	2209
584.0	2201
584.2	2191
584.4	2180
584.6	2168
584.8	2156
585.0	2146
585.2	2139
585.4	2130
585.6	2121
585.8	2109
586.0	2098
586.2	2086
586.4	2077
586.6	2067
586.8	2058
587.0	2048
587.2	2039
587.4	2030
587.6	2021
587.8	2012
588.0	2003
588.2	1993
588.4	1986
588.6	1980
588.8	1970
589.0	1960
589.2	1949
589.4	1940
589.6	1931
589.8	1924
590.0	1915
590.2	1904
590.4	1895
590.6	1885
590.8	1874
591.0	1865
591.2	1855
591.4	1844
591.6	1836
591.8	1827
592.0	1818
592.2	1809
592.4	1802
592.6	1793
592.8	1785
593.0	1777
593.2	1767
593.4	1759
593.6	1751
593.8	1744
594.0	1737
594.2	1728
594.4	1720
594.6	1712
594.8	1703
595.0	1695
595.2	1686
595.4	1676
595.6	1668
595.8	1660
596.0	1652
596.2	1643
596.4	1634
596.6	1625
596.8	1618
597.0	1610
597.2	1601
597.4	1592
597.6	1583
597.8	1575
598.0	1568
598.2	1561
598.4	1553
598.6	1546
598.8	1538
599.0	1532
599.2	1524
599.4	1516
599.6	1509
599.8	1502
600.0	1495
600.2	1485
600.4	1476
600.6	1468
600.8	1460
601.0	1453
601.2	1446
601.4	1439
601.6	1432
601.8	1425
602.0	1418
602.2	1411
602.4	1404
602.6	1396
602.8	1389
603.0	1381
603.2	1374
603.4	1367
603.6	1359
603.8	1351
604.0	1344
604.2	1336
604.4	1329
604.6	1323
604.8	1317
605.0	1311
605.2	1303
605.4	1295
605.6	1287
605.8	1279
606.0	1272
606.2	1265
606.4	1258
606.6	1251
606.8	1244
607.0	1237
607.2	1230
607.4	1222
607.6	1215
607.8	1209
608.0	1203
608.2	1196
608.4	1191
608.6	1183
608.8	1178
609.0	1172
609.2	1166
609.4	1159
609.6	1152
609.8	1145
610.0	1139
610.2	1132
610.4	1126
610.6	1120
610.8	1115
611.0	1108
611.2	1100
611.4	1093
611.6	1086
611.8	1079
612.0	1073
612.2	1068
612.4	1062
612.6	1056
612.8	1050
613.0	1044
613.2	1038
613.4	1033
613.6	1028
613.8	1021
614.0	1015
614.2	1008
614.4	1003
614.6	996.3
614.8	990.3
615.0	984.9
615.2	979.2
615.4	974.0
615.6	968.2
615.8	961.1
616.0	954.3
616.2	949.1
616.4	944.5
616.6	938.4
616.8	931.4
617.0	925.3
617.2	919.6
617.4	914.4
617.6	908.3
617.8	902.0
618.0	896.0
618.2	891.2
618.4	886.3
618.6	880.7
618.8	875.6
619.0	870.8
619.2	865.9
619.4	861.8
619.6	856.4
619.8	852.1
620.0	846.6
620.2	840.4
620.4	835.2
620.6	830.9
620.8	826.5
621.0	822.4
621.2	816.5
621.4	809.9
621.6	803.9
621.8	798.4
622.0	793.0
622.2	787.4
622.4	782.6
622.6	777.2
622.8	772.4
623.0	768.1
623.2	764.8
623.4	761.2
623.6	755.4
623.8	749.7
624.0	744.3
624.2	739.8
624.4	736.8
624.6	733.1
624.8	728.1
625.0	722.8
625.2	718.2
625.4	714.6
625.6	710.3
625.8	705.8
626.0	701.2
626.2	695.5
626.4	690.6
626.6	686.3
626.8	681.4
627.0	676.7
627.2	671.7
627.4	666.7
627.6	661.7
627.8	657.0
628.0	652.9
628.2	648.9
628.4	645.5
628.6	642.2
628.8	638.5
629.0	634.3
629.2	629.6
629.4	624.9
629.6	620.5
629.8	617.4
630.0	614.1
630.2	610.2
630.4	607.1
630.6	602.7
630.8	597.9
631.0	593.8
631.2	590.3
631.4	586.0
631.6	582.4
631.8	577.6
632.0	573.6
632.2	569.5
632.4	566.9
632.6	562.5
632.8	558.3
633.0	554.0
633.2	550.7
633.4	547.4
633.6	544.3
633.8	540.6
634.0	537.4
634.2	534.3
634.4	531.4
634.6	528.3
634.8	524.9
635.0	520.9
635.2	516.7
635.4	512.7
635.6	509.2
635.8	505.7
636.0	502.9
636.2	499.1
636.4	496.3
636.6	493.6
636.8	490.7
637.0	487.2
637.2	483.3
637.4	479.0
637.6	475.6
637.8	472.4
638.0	469.8
638.2	466.8
638.4	463.2
638.6	459.7
638.8	456.6
639.0	453.0
639.2	450.6
639.4	448.3
639.6	445.6
639.8	443.0
640.0	440.5
640.2	437.4
640.4	434.0
640.6	430.8
640.8	427.3
641.0	424.3
641.2	421.5
641.4	419.2
641.6	416.4
641.8	413.5
642.0	410.3
642.2	407.5
642.4	404.2
642.6	401.3
642.8	398.8
643.0	396.4
643.2	394.3
643.4	391.5
643.6	388.3
643.8	385.3
644.0	382.5
644.2	379.6
644.4	377.5
644.6	374.9
644.8	372.9
645.0	370.4
645.2	367.5
645.4	364.1
645.6	361.4
645.8	359.1
646.0	357.0
646.2	355.1
646.4	352.4
646.6	349.9
646.8	347.4
647.0	345.0
647.2	341.8
647.4	339.7
647.6	336.6
647.8	334.2
648.0	332.0
648.2	330.1
648.4	327.9
648.6	326.0
648.8	323.0
649.0	320.5
649.2	318.4
649.4	316.4
649.6	314.9
649.8	312.9
650.0	310.7
650.2	308.5
650.4	306.0
650.6	303.3
650.8	301.1
651.0	299.4
651.2	297.8
651.4	295.9
651.6	293.9
651.8	291.4
652.0	289.0
652.2	286.6
652.4	284.1
652.6	281.9
652.8	280.0
653.0	278.0
653.2	276.3
653.4	273.8
653.6	272.2
653.8	270.5
654.0	269.0
654.2	266.9
654.4	265.0
654.6	262.5
654.8	260.5
655.0	259.1
655.2	258.0
655.4	256.2
655.6	254.6
655.8	252.4
656.0	250.4
656.2	248.9
656.4	247.2
656.6	245.5
656.8	243.9
657.0	241.9
657.2	240.0
657.4	237.8
657.6	236.0
657.8	234.7
658.0	233.2
658.2	231.4
658.4	229.8
658.6	227.7
658.8	226.4
659.0	224.9
659.2	223.4
659.4	221.7
659.6	220.1
659.8	218.3
660.0	216.4
660.2	214.6
660.4	213.0
660.6	211.4
660.8	209.9
661.0	209.1
661.2	207.5
661.4	206.3
661.6	204.8
661.8	202.6
662.0	201.2
662.2	199.9
662.4	198.1
662.6	196.6
662.8	195.3
663.0	193.4
663.2	192.2
663.4	190.7
663.6	189.8
663.8	188.7
664.0	187.6
664.2	186.3
664.4	184.4
664.6	182.7
664.8	181.6
665.0	180.5
665.2	179.0
665.4	177.6
665.6	176.1
665.8	174.8
666.0	173.8
666.2	172.6
666.4	171.2
666.6	169.7
666.8	168.6
667.0	167.5
667.2	166.6
667.4	165.3
667.6	164.5
667.8	162.8
668.0	161.4
668.2	160.0
668.4	158.5
668.6	157.5
668.8	156.6
669.0	155.6
669.2	154.9
669.4	153.7
669.6	152.1
669.8	151.4
670.0	150.2
670.2	148.9
670.4	147.7
670.6	146.4
670.8	145.0
671.0	144.4
671.2	143.6
671.4	142.4
671.6	141.3
671.8	140.2
672.0	138.9
672.2	137.7
672.4	136.5
672.6	135.5
672.8	134.8
673.0	133.7
673.2	132.9
673.4	132.0
673.6	131.1
673.8	130.2
674.0	129.4
674.2	128.3
674.4	127.2
674.6	126.1
674.8	125.1
675.0	124.1
675.2	123.4
675.4	122.7
675.6	121.7
675.8	120.7
676.0	119.7
676.2	118.4
676.4	117.5
676.6	116.9
676.8	115.8
677.0	115.1
677.2	114.4
677.4	113.3
677.6	112.3
677.8	111.3
678.0	110.1
678.2	109.5
678.4	108.8
678.6	108.0
678.8	107.2
679.0	106.3
679.2	105.4
679.4	104.4
679.6	103.6
679.8	102.8
680.0	102.1
680.2	101.4
680.4	100.5
680.6	99.71
680.8	99.14
681.0	98.51
681.2	97.89
681.4	97.36
681.6	96.69
681.8	96.12
682.0	95.28
682.2	94.14
682.4	93.21
682.6	92.52
682.8	91.85
683.0	91.15
683.2	90.59
683.4	89.80
683.6	89.21
683.8	88.51
684.0	87.66
684.2	86.87
684.4	86.06
684.6	85.16
684.8	84.82
685.0	84.40
685.2	83.93
685.4	83.48
685.6	82.77
685.8	82.11
686.0	81.87
686.2	81.12
686.4	80.44
686.6	79.63
686.8	78.85
687.0	78.29
687.2	77.75
687.4	77.00
687.6	76.50
687.8	75.92
688.0	75.23
688.2	74.59
688.4	74.08
688.6	73.32
688.8	72.93
689.0	72.37
689.2	71.96
689.4	71.52
689.6	70.88
689.8	69.97
690.0	69.56
690.2	68.88
690.4	68.59
690.6	68.32
690.8	67.83
691.0	67.44
691.2	66.93
691.4	66.26
691.6	65.62
691.8	65.03
692.0	64.55
692.2	64.24
692.4	63.70
692.6	63.41
692.8	63.04
693.0	62.41
693.2	61.88
693.4	61.52
693.6	60.99
693.8	60.66
694.0	60.29
694.2	59.44
694.4	59.02
694.6	58.63
694.8	58.33
695.0	58.34
695.2	58.13
695.4	57.48
695.6	56.97
695.8	56.30
696.0	55.79
696.2	55.55
696.4	55.11
696.6	54.88
696.8	54.54
697.0	54.22
697.2	53.88
697.4	53.51
697.6	52.85
697.8	52.41
698.0	51.85
698.2	51.55
698.4	51.61
698.6	51.57
698.8	51.30
699.0	50.90
699.2	50.17
699.4	49.74
699.6	49.34
699.8	49.08
700.0	48.90
700.2	48.47
700.4	48.08
700.6	47.87
700.8	47.51
701.0	47.40
701.2	47.22
701.4	46.77
701.6	46.44
701.8	46.07
702.0	45.76
702.2	45.34
702.4	45.04
702.6	44.90
702.8	44.67
703.0	44.40
703.2	44.03
703.4	43.53
703.6	43.28
703.8	43.04
704.0	42.67
704.2	42.46
704.4	42.19
704.6	42.02
704.8	41.85
705.0	41.57
705.2	41.22
705.4	40.89
705.6	40.44
705.8	40.08
706.0	39.85
706.2	39.68
706.4	39.60
706.6	39.37
706.8	38.96
707.0	38.60
707.2	38.20
707.4	37.86
707.6	37.82
707.8	37.76
708.0	37.49
708.2	37.03
708.4	36.71
708.6	36.48
708.8	36.24
709.0	36.12
709.2	35.79
709.4	35.43
709.6	35.29
709.8	35.22
710.0	35.00
710.2	34.92
710.4	34.62
710.6	34.26
710.8	33.80
711.0	33.70
711.2	33.41
711.4	33.27
711.6	32.88
711.8	32.63
712.0	32.26
712.2	32.19
712.4	31.89
712.6	31.80
712.8	31.37
713.0	31.31
713.2	31.06
713.4	30.84
713.6	30.78
713.8	30.78
714.0	30.55
714.2	30.48
714.4	30.13
714.6	29.73
714.8	29.49
715.0	29.22
715.2	28.86
715.4	28.62
715.6	28.34
715.8	28.18
716.0	28.06
716.2	27.89
716.4	27.57
716.6	27.38
716.8	27.18
717.0	26.98
717.2	26.75
717.4	26.51
717.6	26.19
717.8	26.08
718.0	25.99
718.2	25.85
718.4	25.62
718.6	25.54
718.8	25.26
719.0	25.01
719.2	24.90
719.4	24.68
719.6	24.50
719.8	24.34
720.0	24.13
720.2	23.82
720.4	23.68
720.6	23.51
720.8	23.45
721.0	23.21
721.2	22.92
721.4	22.69
721.6	22.52
721.8	22.32
722.0	22.27
722.2	22.11
722.4	21.93
722.6	21.85
722.8	21.53
723.0	21.22
723.2	21.11
723.4	21.06
723.6	21.02
