Sample:	'20211010A(EM)
File name:	ԭʼ.FDS
Run date:	'15:05:47, 03/23/2023
Operator:	Administrator
Comment:	'

Instrument
Model:	F-4700 FL Spectrophotometer
Serial number:	2019-001
ROM Version:	5J24010 00

Instrument parameters
Measurement type:	Wavelength scan
Scan mode:	Emission
Data mode:	Fluorescence
EX WL:	400.0 nm
EM  Start WL:	420.0 nm
EM  End WL:	850.0 nm
Scan speed:	1200 nm/min
Delay:	0.0 s
EX Slit:	10.0 nm
EM Slit:	10.0 nm
PMT Voltage:	380 V
Response:	0.002 s
Corrected spectra:	Off
Shutter control:	On

Processing performed
Savitsky-Golay smoothed
Smoothing order:	3
Number of points:	7
Number of times:	1

Peak integration
Integration method:	Rectangular
Sensitivity:	1
Threshold:	1.000

Peaks
No.	Start(nm)	Apex(nm)	End(nm)	Height(Data)	Valley(nm)	Valley(Data)
1	420.0	525.4	781.6	5146	781.6	3.407
2	781.6	804.0	850.0	15.57	850.0	1.651

Data points
nm	Data
420.0	33.95
420.2	33.51
420.4	33.62
420.6	34.05
420.8	34.50
421.0	35.04
421.2	35.35
421.4	35.41
421.6	35.45
421.8	35.73
422.0	36.00
422.2	36.57
422.4	36.97
422.6	37.11
422.8	37.21
423.0	37.57
423.2	37.91
423.4	38.49
423.6	38.85
423.8	39.04
424.0	39.25
424.2	39.54
424.4	39.76
424.6	40.08
424.8	40.46
425.0	40.57
425.2	40.72
425.4	40.99
425.6	41.41
425.8	42.00
426.0	42.48
426.2	42.74
426.4	43.00
426.6	43.51
426.8	43.79
427.0	44.17
427.2	44.18
427.4	44.47
427.6	44.88
427.8	45.39
428.0	45.77
428.2	46.20
428.4	46.32
428.6	46.70
428.8	47.10
429.0	47.68
429.2	48.09
429.4	48.31
429.6	48.40
429.8	48.68
430.0	49.17
430.2	49.80
430.4	49.93
430.6	50.31
430.8	50.56
431.0	50.88
431.2	51.52
431.4	51.95
431.6	52.28
431.8	52.88
432.0	53.31
432.2	53.75
432.4	54.39
432.6	54.85
432.8	55.25
433.0	55.65
433.2	56.03
433.4	56.36
433.6	56.87
433.8	57.49
434.0	57.86
434.2	58.27
434.4	58.76
434.6	59.06
434.8	59.60
435.0	60.14
435.2	60.60
435.4	61.27
435.6	61.86
435.8	62.46
436.0	62.96
436.2	63.52
436.4	64.03
436.6	64.65
436.8	65.08
437.0	65.70
437.2	66.07
437.4	66.92
437.6	67.57
437.8	68.11
438.0	68.67
438.2	69.34
438.4	69.90
438.6	70.79
438.8	71.72
439.0	72.43
439.2	73.29
439.4	74.00
439.6	74.76
439.8	75.59
440.0	76.40
440.2	76.97
440.4	77.62
440.6	78.32
440.8	79.20
441.0	80.09
441.2	80.89
441.4	81.88
441.6	82.70
441.8	83.63
442.0	84.35
442.2	85.23
442.4	86.02
442.6	87.26
442.8	88.25
443.0	89.20
443.2	90.16
443.4	91.31
443.6	92.33
443.8	93.38
444.0	94.52
444.2	95.74
444.4	96.92
444.6	98.00
444.8	99.00
445.0	100.0
445.2	101.5
445.4	103.4
445.6	104.9
445.8	106.2
446.0	107.2
446.2	108.4
446.4	109.8
446.6	111.3
446.8	112.8
447.0	114.2
447.2	115.5
447.4	117.0
447.6	118.5
447.8	119.7
448.0	121.2
448.2	122.8
448.4	124.5
448.6	126.2
448.8	127.8
449.0	129.3
449.2	130.6
449.4	132.3
449.6	134.3
449.8	136.4
450.0	138.5
450.2	140.6
450.4	142.3
450.6	144.2
450.8	146.2
451.0	148.2
451.2	150.4
451.4	152.6
451.6	154.8
451.8	157.0
452.0	159.4
452.2	161.7
452.4	164.0
452.6	166.4
452.8	168.6
453.0	170.7
453.2	173.3
453.4	176.3
453.6	179.0
453.8	181.6
454.0	184.0
454.2	186.5
454.4	189.3
454.6	193.0
454.8	196.5
455.0	199.8
455.2	203.4
455.4	206.4
455.6	209.2
455.8	212.5
456.0	215.4
456.2	219.3
456.4	223.4
456.6	227.1
456.8	231.0
457.0	235.2
457.2	238.5
457.4	242.8
457.6	246.8
457.8	251.2
458.0	255.8
458.2	260.8
458.4	265.3
458.6	270.1
458.8	274.7
459.0	279.5
459.2	284.7
459.4	290.4
459.6	296.3
459.8	302.0
460.0	307.7
460.2	313.4
460.4	319.8
460.6	326.4
460.8	333.0
461.0	338.8
461.2	345.1
461.4	351.7
461.6	359.1
461.8	366.8
462.0	374.0
462.2	381.2
462.4	388.2
462.6	395.6
462.8	404.0
463.0	412.6
463.2	421.5
463.4	430.3
463.6	438.3
463.8	446.6
464.0	455.4
464.2	464.4
464.4	474.0
464.6	484.2
464.8	494.5
465.0	505.0
465.2	515.2
465.4	524.7
465.6	533.9
465.8	545.3
466.0	557.4
466.2	569.5
466.4	581.5
466.6	593.4
466.8	603.8
467.0	615.7
467.2	627.4
467.4	639.1
467.6	652.1
467.8	666.2
468.0	680.2
468.2	694.0
468.4	706.6
468.6	719.3
468.8	731.9
469.0	746.1
469.2	761.4
469.4	776.0
469.6	790.5
469.8	805.6
470.0	820.7
470.2	837.1
470.4	853.8
470.6	870.1
470.8	885.7
471.0	901.4
471.2	917.2
471.4	933.5
471.6	950.0
471.8	966.2
472.0	983.1
472.2	1001
472.4	1019
472.6	1038
472.8	1055
473.0	1072
473.2	1090
473.4	1108
473.6	1127
473.8	1146
474.0	1164
474.2	1183
474.4	1202
474.6	1222
474.8	1242
475.0	1261
475.2	1280
475.4	1299
475.6	1319
475.8	1338
476.0	1359
476.2	1379
476.4	1399
476.6	1419
476.8	1440
477.0	1461
477.2	1482
477.4	1503
477.6	1524
477.8	1547
478.0	1569
478.2	1591
478.4	1612
478.6	1633
478.8	1653
479.0	1675
479.2	1695
479.4	1718
479.6	1743
479.8	1764
480.0	1786
480.2	1809
480.4	1829
480.6	1852
480.8	1874
481.0	1896
481.2	1918
481.4	1939
481.6	1961
481.8	1984
482.0	2006
482.2	2029
482.4	2052
482.6	2074
482.8	2095
483.0	2117
483.2	2138
483.4	2161
483.6	2186
483.8	2212
484.0	2235
484.2	2257
484.4	2277
484.6	2298
484.8	2320
485.0	2343
485.2	2366
485.4	2388
485.6	2410
485.8	2431
486.0	2453
486.2	2476
486.4	2500
486.6	2523
486.8	2545
487.0	2568
487.2	2591
487.4	2616
487.6	2639
487.8	2660
488.0	2680
488.2	2700
488.4	2721
488.6	2745
488.8	2767
489.0	2789
489.2	2810
489.4	2830
489.6	2852
489.8	2874
490.0	2894
490.2	2915
490.4	2935
490.6	2957
490.8	2976
491.0	2999
491.2	3020
491.4	3043
491.6	3068
491.8	3089
492.0	3105
492.2	3124
492.4	3143
492.6	3168
492.8	3195
493.0	3217
493.2	3239
493.4	3258
493.6	3277
493.8	3297
494.0	3316
494.2	3336
494.4	3356
494.6	3373
494.8	3393
495.0	3413
495.2	3434
495.4	3453
495.6	3471
495.8	3487
496.0	3507
496.2	3528
496.4	3549
496.6	3568
496.8	3585
497.0	3603
497.2	3621
497.4	3641
497.6	3662
497.8	3684
498.0	3705
498.2	3724
498.4	3743
498.6	3764
498.8	3784
499.0	3800
499.2	3814
499.4	3831
499.6	3851
499.8	3873
500.0	3895
500.2	3911
500.4	3926
500.6	3945
500.8	3961
501.0	3976
501.2	3990
501.4	4003
501.6	4020
501.8	4039
502.0	4057
502.2	4077
502.4	4098
502.6	4116
502.8	4131
503.0	4148
503.2	4167
503.4	4186
503.6	4210
503.8	4228
504.0	4242
504.2	4255
504.4	4269
504.6	4282
504.8	4295
505.0	4310
505.2	4323
505.4	4337
505.6	4353
505.8	4365
506.0	4378
506.2	4394
506.4	4408
506.6	4420
506.8	4431
507.0	4446
507.2	4465
507.4	4483
507.6	4502
507.8	4514
508.0	4524
508.2	4537
508.4	4552
508.6	4568
508.8	4587
509.0	4605
509.2	4620
509.4	4632
509.6	4641
509.8	4650
510.0	4662
510.2	4673
510.4	4681
510.6	4694
510.8	4704
511.0	4714
511.2	4722
511.4	4726
511.6	4734
511.8	4746
512.0	4763
512.2	4779
512.4	4793
512.6	4804
512.8	4814
513.0	4825
513.2	4839
513.4	4852
513.6	4864
513.8	4873
514.0	4879
514.2	4883
514.4	4890
514.6	4899
514.8	4909
515.0	4920
515.2	4928
515.4	4935
515.6	4943
515.8	4950
516.0	4957
516.2	4964
516.4	4970
516.6	4976
516.8	4984
517.0	4988
517.2	4992
517.4	5000
517.6	5005
517.8	5010
518.0	5019
518.2	5024
518.4	5033
518.6	5045
518.8	5050
519.0	5058
519.2	5065
519.4	5069
519.6	5072
519.8	5074
520.0	5076
520.2	5083
520.4	5091
520.6	5095
520.8	5097
521.0	5098
521.2	5100
521.4	5102
521.6	5106
521.8	5105
522.0	5109
522.2	5113
522.4	5115
522.6	5118
522.8	5122
523.0	5125
523.2	5128
523.4	5131
523.6	5130
523.8	5130
524.0	5132
524.2	5135
524.4	5138
524.6	5140
524.8	5141
525.0	5144
525.2	5144
525.4	5146
525.6	5144
525.8	5140
526.0	5136
526.2	5137
526.4	5135
526.6	5137
526.8	5137
527.0	5137
527.2	5136
527.4	5135
527.6	5135
527.8	5136
528.0	5135
528.2	5131
528.4	5127
528.6	5125
528.8	5127
529.0	5131
529.2	5132
529.4	5130
529.6	5127
529.8	5121
530.0	5116
530.2	5108
530.4	5104
530.6	5103
530.8	5104
531.0	5102
531.2	5095
531.4	5089
531.6	5085
531.8	5083
532.0	5081
532.2	5077
532.4	5074
532.6	5070
532.8	5064
533.0	5058
533.2	5054
533.4	5050
533.6	5048
533.8	5047
534.0	5045
534.2	5042
534.4	5041
534.6	5035
534.8	5030
535.0	5024
535.2	5016
535.4	5009
535.6	5001
535.8	4992
536.0	4990
536.2	4979
536.4	4971
536.6	4963
536.8	4955
537.0	4952
537.2	4951
537.4	4944
537.6	4939
537.8	4930
538.0	4923
538.2	4917
538.4	4915
538.6	4908
538.8	4904
539.0	4898
539.2	4891
539.4	4885
539.6	4880
539.8	4869
540.0	4862
540.2	4853
540.4	4848
540.6	4844
540.8	4836
541.0	4825
541.2	4813
541.4	4801
541.6	4791
541.8	4780
542.0	4768
542.2	4759
542.4	4750
542.6	4743
542.8	4737
543.0	4731
543.2	4724
543.4	4718
543.6	4708
543.8	4702
544.0	4699
544.2	4694
544.4	4690
544.6	4679
544.8	4667
545.0	4660
545.2	4653
545.4	4641
545.6	4632
545.8	4618
546.0	4606
546.2	4593
546.4	4585
546.6	4573
546.8	4564
547.0	4551
547.2	4538
547.4	4528
547.6	4519
547.8	4512
548.0	4505
548.2	4493
548.4	4484
548.6	4475
548.8	4468
549.0	4460
549.2	4452
549.4	4444
549.6	4433
549.8	4421
550.0	4412
550.2	4402
550.4	4394
550.6	4382
550.8	4367
551.0	4350
551.2	4333
551.4	4321
551.6	4310
551.8	4299
552.0	4291
552.2	4276
552.4	4264
552.6	4252
552.8	4244
553.0	4237
553.2	4229
553.4	4215
553.6	4203
553.8	4190
554.0	4181
554.2	4172
554.4	4165
554.6	4156
554.8	4149
555.0	4139
555.2	4127
555.4	4112
555.6	4095
555.8	4080
556.0	4065
556.2	4053
556.4	4043
556.6	4032
556.8	4020
557.0	4009
557.2	3994
557.4	3979
557.6	3965
557.8	3953
558.0	3942
558.2	3936
558.4	3926
558.6	3910
558.8	3898
559.0	3885
559.2	3875
559.4	3867
559.6	3854
559.8	3842
560.0	3833
560.2	3822
560.4	3811
560.6	3796
560.8	3782
561.0	3768
561.2	3754
561.4	3743
561.6	3730
561.8	3715
562.0	3703
562.2	3687
562.4	3674
562.6	3661
562.8	3648
563.0	3636
563.2	3625
563.4	3615
563.6	3605
563.8	3593
564.0	3579
564.2	3568
564.4	3557
564.6	3543
564.8	3531
565.0	3516
565.2	3502
565.4	3492
565.6	3482
565.8	3470
566.0	3461
566.2	3445
566.4	3430
566.6	3416
566.8	3403
567.0	3390
567.2	3378
567.4	3365
567.6	3351
567.8	3338
568.0	3325
568.2	3313
568.4	3301
568.6	3288
568.8	3276
569.0	3268
569.2	3257
569.4	3246
569.6	3231
569.8	3218
570.0	3203
570.2	3193
570.4	3184
570.6	3170
570.8	3160
571.0	3147
571.2	3132
571.4	3118
571.6	3104
571.8	3090
572.0	3079
572.2	3065
572.4	3051
572.6	3037
572.8	3026
573.0	3016
573.2	3005
573.4	2993
573.6	2979
573.8	2967
574.0	2958
574.2	2947
574.4	2937
574.6	2923
574.8	2912
575.0	2900
575.2	2890
575.4	2878
575.6	2865
575.8	2849
576.0	2837
576.2	2825
576.4	2815
576.6	2800
576.8	2788
577.0	2776
577.2	2764
577.4	2753
577.6	2742
577.8	2730
578.0	2720
578.2	2709
578.4	2698
578.6	2684
578.8	2672
579.0	2662
579.2	2653
579.4	2641
579.6	2629
579.8	2618
580.0	2607
580.2	2598
580.4	2588
580.6	2575
580.8	2564
581.0	2552
581.2	2542
581.4	2531
581.6	2516
581.8	2503
582.0	2491
582.2	2479
582.4	2468
582.6	2459
582.8	2449
583.0	2437
583.2	2425
583.4	2415
583.6	2403
583.8	2393
584.0	2382
584.2	2370
584.4	2361
584.6	2352
584.8	2341
585.0	2330
585.2	2320
585.4	2312
585.6	2305
585.8	2296
586.0	2285
586.2	2272
586.4	2260
586.6	2248
586.8	2237
587.0	2225
587.2	2217
587.4	2205
587.6	2195
587.8	2186
588.0	2173
588.2	2164
588.4	2155
588.6	2145
588.8	2136
589.0	2125
589.2	2114
589.4	2106
589.6	2095
589.8	2086
590.0	2077
590.2	2068
590.4	2058
590.6	2050
590.8	2040
591.0	2028
591.2	2019
591.4	2010
591.6	2000
591.8	1992
592.0	1982
592.2	1970
592.4	1961
592.6	1950
592.8	1941
593.0	1933
593.2	1925
593.4	1913
593.6	1904
593.8	1895
594.0	1885
594.2	1876
594.4	1866
594.6	1855
594.8	1847
595.0	1839
595.2	1832
595.4	1824
595.6	1816
595.8	1811
596.0	1803
596.2	1794
596.4	1783
596.6	1773
596.8	1762
597.0	1753
597.2	1742
597.4	1733
597.6	1724
597.8	1717
598.0	1709
598.2	1701
598.4	1691
598.6	1680
598.8	1671
599.0	1663
599.2	1659
599.4	1652
599.6	1643
599.8	1634
600.0	1624
600.2	1616
600.4	1610
600.6	1601
600.8	1595
601.0	1590
601.2	1581
601.4	1573
601.6	1565
601.8	1555
602.0	1545
602.2	1537
602.4	1529
602.6	1520
602.8	1512
603.0	1504
603.2	1496
603.4	1487
603.6	1480
603.8	1470
604.0	1460
604.2	1452
604.4	1447
604.6	1442
604.8	1437
605.0	1429
605.2	1421
605.4	1412
605.6	1405
605.8	1398
606.0	1391
606.2	1384
606.4	1377
606.6	1369
606.8	1361
607.0	1352
607.2	1345
607.4	1338
607.6	1331
607.8	1322
608.0	1312
608.2	1304
608.4	1296
608.6	1290
608.8	1284
609.0	1276
609.2	1269
609.4	1262
609.6	1255
609.8	1249
610.0	1242
610.2	1236
610.4	1228
610.6	1222
610.8	1216
611.0	1210
611.2	1204
611.4	1198
611.6	1190
611.8	1184
612.0	1176
612.2	1168
612.4	1161
612.6	1153
612.8	1146
613.0	1138
613.2	1131
613.4	1124
613.6	1118
613.8	1111
614.0	1105
614.2	1099
614.4	1094
614.6	1089
614.8	1083
615.0	1076
615.2	1070
615.4	1064
615.6	1059
615.8	1053
616.0	1047
616.2	1042
616.4	1036
616.6	1030
616.8	1024
617.0	1017
617.2	1010
617.4	1004
617.6	997.0
617.8	990.5
618.0	984.0
618.2	976.9
618.4	971.1
618.6	965.9
618.8	960.7
619.0	954.3
619.2	947.8
619.4	940.5
619.6	934.9
619.8	928.8
620.0	925.5
620.2	920.9
620.4	917.0
620.6	912.1
620.8	906.6
621.0	899.9
621.2	894.9
621.4	887.8
621.6	882.5
621.8	877.3
622.0	872.5
622.2	866.1
622.4	859.5
622.6	852.8
622.8	846.6
623.0	841.3
623.2	836.9
623.4	830.5
623.6	824.7
623.8	820.1
624.0	815.3
624.2	810.7
624.4	806.4
624.6	801.7
624.8	796.2
625.0	791.6
625.2	787.2
625.4	781.6
625.6	776.6
625.8	771.2
626.0	765.6
626.2	761.0
626.4	757.0
626.6	752.3
626.8	747.6
627.0	742.0
627.2	737.2
627.4	732.5
627.6	728.1
627.8	723.5
628.0	718.4
628.2	712.8
628.4	708.2
628.6	703.5
628.8	698.8
629.0	693.9
629.2	689.0
629.4	684.8
629.6	681.0
629.8	677.7
630.0	673.9
630.2	669.4
630.4	664.4
630.6	661.0
630.8	656.2
631.0	652.2
631.2	647.5
631.4	642.9
631.6	639.1
631.8	636.4
632.0	632.7
632.2	628.6
632.4	623.8
632.6	619.5
632.8	616.0
633.0	611.8
633.2	607.1
633.4	602.2
633.6	598.2
633.8	593.9
634.0	590.1
634.2	585.9
634.4	581.1
634.6	577.1
634.8	574.2
635.0	570.2
635.2	566.9
635.4	563.7
635.6	560.1
635.8	556.0
636.0	552.9
636.2	549.2
636.4	545.7
636.6	542.9
636.8	538.9
637.0	534.8
637.2	531.1
637.4	527.1
637.6	523.8
637.8	521.3
638.0	518.6
638.2	516.0
638.4	512.5
638.6	508.8
638.8	504.8
639.0	501.3
639.2	498.4
639.4	494.4
639.6	490.2
639.8	486.1
640.0	481.8
640.2	478.9
640.4	476.6
640.6	473.5
640.8	470.2
641.0	467.2
641.2	464.1
641.4	461.9
641.6	459.7
641.8	456.5
642.0	452.8
642.2	449.1
642.4	445.6
642.6	442.3
642.8	439.8
643.0	436.8
643.2	433.3
643.4	430.4
643.6	428.2
643.8	425.2
644.0	422.7
644.2	419.5
644.4	415.9
644.6	412.9
644.8	410.1
645.0	407.3
645.2	404.6
645.4	402.2
645.6	399.5
645.8	396.3
646.0	393.3
646.2	390.4
646.4	387.8
646.6	385.2
646.8	382.7
647.0	379.5
647.2	377.0
647.4	374.8
647.6	372.4
647.8	370.5
648.0	368.6
648.2	365.1
648.4	362.5
648.6	360.1
648.8	357.9
649.0	355.6
649.2	353.5
649.4	350.3
649.6	347.7
649.8	344.8
650.0	342.4
650.2	339.2
650.4	336.8
650.6	334.3
650.8	332.5
651.0	330.6
651.2	328.8
651.4	326.7
651.6	324.3
651.8	322.2
652.0	319.7
652.2	317.0
652.4	314.8
652.6	312.8
652.8	310.9
653.0	309.3
653.2	307.1
653.4	304.9
653.6	302.4
653.8	300.2
654.0	298.0
654.2	295.1
654.4	293.2
654.6	290.9
654.8	288.6
655.0	286.7
655.2	284.9
655.4	282.0
655.6	280.5
655.8	278.6
656.0	277.3
656.2	275.7
656.4	273.8
656.6	271.2
656.8	269.2
657.0	267.0
657.2	265.3
657.4	263.4
657.6	261.3
657.8	259.5
658.0	257.5
658.2	255.3
658.4	253.9
658.6	252.0
658.8	250.6
659.0	249.0
659.2	246.9
659.4	244.9
659.6	243.6
659.8	241.9
660.0	240.6
660.2	238.6
660.4	236.8
660.6	235.4
660.8	233.8
661.0	231.8
661.2	230.2
661.4	228.3
661.6	226.7
661.8	225.2
662.0	223.6
662.2	221.7
662.4	220.3
662.6	218.3
662.8	216.5
663.0	214.7
663.2	213.2
663.4	211.8
663.6	210.1
663.8	208.3
664.0	207.0
664.2	205.9
664.4	204.8
664.6	203.9
664.8	201.9
665.0	200.0
665.2	198.2
665.4	196.4
665.6	195.0
665.8	194.2
666.0	192.7
666.2	191.5
666.4	190.0
666.6	188.2
666.8	186.5
667.0	185.3
667.2	183.9
667.4	182.9
667.6	181.8
667.8	180.3
668.0	178.7
668.2	177.4
668.4	175.9
668.6	174.8
668.8	173.8
669.0	172.4
669.2	171.3
669.4	170.1
669.6	168.7
669.8	167.6
670.0	166.4
670.2	165.0
670.4	163.7
670.6	162.5
670.8	161.5
671.0	160.2
671.2	159.1
671.4	158.0
671.6	156.5
671.8	155.4
672.0	154.0
672.2	152.5
672.4	151.5
672.6	150.5
672.8	149.5
673.0	148.7
673.2	147.6
673.4	146.7
673.6	146.0
673.8	144.9
674.0	143.5
674.2	142.3
674.4	141.3
674.6	140.2
674.8	139.2
675.0	138.1
675.2	136.9
675.4	136.2
675.6	135.6
675.8	134.3
676.0	132.9
676.2	131.4
676.4	130.4
676.6	129.7
676.8	128.9
677.0	127.8
677.2	127.2
677.4	126.4
677.6	125.5
677.8	124.8
678.0	123.6
678.2	122.6
678.4	122.0
678.6	121.1
678.8	120.1
679.0	118.8
679.2	117.4
679.4	116.3
679.6	115.6
679.8	115.1
680.0	114.8
680.2	113.9
680.4	112.7
680.6	111.5
680.8	110.5
681.0	109.7
681.2	109.1
681.4	108.4
681.6	107.3
681.8	106.5
682.0	105.7
682.2	105.2
682.4	104.4
682.6	103.7
682.8	102.6
683.0	101.8
683.2	100.9
683.4	100.4
683.6	99.64
683.8	98.78
684.0	97.84
684.2	97.25
684.4	96.50
684.6	95.80
684.8	94.97
685.0	94.13
685.2	93.32
685.4	92.84
685.6	92.02
685.8	91.37
686.0	90.55
686.2	89.69
686.4	88.99
686.6	88.33
686.8	87.72
687.0	87.48
687.2	86.92
687.4	86.09
687.6	85.34
687.8	84.94
688.0	84.24
688.2	83.54
688.4	82.84
688.6	81.99
688.8	81.31
689.0	81.15
689.2	80.44
689.4	79.76
689.6	79.10
689.8	78.61
690.0	78.15
690.2	77.57
690.4	76.92
690.6	76.21
690.8	75.50
691.0	74.96
691.2	74.46
691.4	73.94
691.6	73.53
691.8	73.16
692.0	72.61
692.2	71.87
692.4	71.17
692.6	70.55
692.8	70.12
693.0	69.74
693.2	69.22
693.4	68.61
693.6	68.15
693.8	67.60
694.0	67.18
694.2	66.82
694.4	66.24
694.6	65.74
694.8	65.49
695.0	65.02
695.2	64.45
695.4	63.94
695.6	63.30
695.8	62.87
696.0	62.69
696.2	62.22
696.4	61.76
696.6	61.24
696.8	60.82
697.0	60.30
697.2	60.24
697.4	59.91
697.6	59.45
697.8	58.94
698.0	58.26
698.2	57.57
698.4	57.33
698.6	56.93
698.8	56.65
699.0	56.56
699.2	56.23
699.4	55.75
699.6	55.32
699.8	54.76
700.0	54.47
700.2	54.07
700.4	53.83
700.6	53.34
700.8	52.89
701.0	52.47
701.2	52.16
701.4	51.77
701.6	51.77
701.8	51.51
702.0	51.17
702.2	50.60
702.4	50.14
702.6	49.82
702.8	49.73
703.0	49.67
703.2	49.39
703.4	48.83
703.6	48.35
703.8	47.85
704.0	47.48
704.2	47.32
704.4	46.95
704.6	46.67
704.8	46.44
705.0	46.14
705.2	45.84
705.4	45.46
705.6	45.09
705.8	44.90
706.0	44.69
706.2	44.29
706.4	43.99
706.6	43.55
706.8	43.15
707.0	42.88
707.2	42.75
707.4	42.47
707.6	42.24
707.8	41.99
708.0	41.67
708.2	41.53
708.4	41.35
708.6	40.93
708.8	40.41
709.0	40.00
709.2	39.69
709.4	39.61
709.6	39.49
709.8	39.34
710.0	39.13
710.2	38.86
710.4	38.58
710.6	38.26
710.8	37.96
711.0	37.70
711.2	37.35
711.4	36.94
711.6	36.60
711.8	36.31
712.0	36.04
712.2	35.91
712.4	35.72
712.6	35.58
712.8	35.33
713.0	35.02
713.2	34.83
713.4	34.65
713.6	34.47
713.8	34.16
714.0	33.68
714.2	33.23
714.4	32.90
714.6	32.55
714.8	32.57
715.0	32.50
715.2	32.31
715.4	32.19
715.6	31.85
715.8	31.49
716.0	31.34
716.2	31.06
716.4	30.79
716.6	30.63
716.8	30.48
717.0	30.28
717.2	30.00
717.4	29.57
717.6	29.29
717.8	29.09
718.0	29.08
718.2	29.07
718.4	29.02
718.6	28.74
718.8	28.35
719.0	27.95
719.2	27.72
719.4	27.74
719.6	27.67
719.8	27.61
720.0	27.41
720.2	27.03
720.4	26.66
720.6	26.46
720.8	26.10
721.0	26.04
721.2	25.98
721.4	25.79
721.6	25.52
721.8	25.24
722.0	24.94
722.2	24.83
722.4	24.72
722.6	24.57
722.8	24.35
723.0	24.19
723.2	24.05
723.4	23.89
723.6	23.78
723.8	23.55
724.0	23.27
724.2	23.11
724.4	22.93
