Sample:	'20211010A(EM)
File name:	G-CDs 3.FDS
Run date:	'16:10:10, 06/10/2023
Operator:	Administrator
Comment:	'

Instrument
Model:	F-4700 FL Spectrophotometer
Serial number:	2019-001
ROM Version:	5J24010 00

Instrument parameters
Measurement type:	Wavelength scan
Scan mode:	Emission
Data mode:	Fluorescence
EX WL:	400.0 nm
EM  Start WL:	420.0 nm
EM  End WL:	800.0 nm
Scan speed:	1200 nm/min
Delay:	0.0 s
EX Slit:	10.0 nm
EM Slit:	10.0 nm
PMT Voltage:	435 V
Response:	0.002 s
Corrected spectra:	Off
Shutter control:	On

Processing performed
Savitsky-Golay smoothed
Smoothing order:	3
Number of points:	7
Number of times:	1

Peak integration
Integration method:	Rectangular
Sensitivity:	1
Threshold:	1.000

Peaks
No.	Start(nm)	Apex(nm)	End(nm)	Height(Data)	Valley(nm)	Valley(Data)
1	420.0	450.2	450.8	145.7	450.8	144.2
2	450.8	537.4	800.0	9672	800.0	6.319

Data points
nm	Data
420.0	60.85
420.2	60.94
420.4	61.51
420.6	62.36
420.8	63.48
421.0	63.34
421.2	64.14
421.4	64.31
421.6	64.44
421.8	65.00
422.0	65.87
422.2	66.34
422.4	67.53
422.6	68.23
422.8	68.79
423.0	68.92
423.2	69.07
423.4	68.97
423.6	69.31
423.8	69.55
424.0	70.23
424.2	70.87
424.4	71.31
424.6	71.51
424.8	71.78
425.0	72.56
425.2	73.52
425.4	74.45
425.6	74.59
425.8	74.74
426.0	74.17
426.2	74.35
426.4	75.29
426.6	76.12
426.8	76.72
427.0	77.41
427.2	77.03
427.4	76.69
427.6	77.49
427.8	78.09
428.0	79.16
428.2	80.07
428.4	80.10
428.6	80.23
428.8	80.85
429.0	81.01
429.2	81.27
429.4	81.49
429.6	81.58
429.8	82.00
430.0	82.68
430.2	83.61
430.4	84.38
430.6	84.82
430.8	85.20
431.0	85.43
431.2	85.36
431.4	85.60
431.6	86.27
431.8	86.79
432.0	88.02
432.2	89.28
432.4	89.77
432.6	90.08
432.8	90.41
433.0	90.30
433.2	90.32
433.4	91.32
433.6	91.91
433.8	92.42
434.0	92.85
434.2	93.14
434.4	92.77
434.6	94.38
434.8	95.16
435.0	96.17
435.2	96.89
435.4	97.92
435.6	98.47
435.8	99.43
436.0	99.53
436.2	99.49
436.4	99.77
436.6	100.7
436.8	102.1
437.0	102.8
437.2	103.2
437.4	103.5
437.6	104.8
437.8	105.8
438.0	106.7
438.2	107.0
438.4	107.3
438.6	107.4
438.8	108.7
439.0	109.5
439.2	110.7
439.4	111.7
439.6	112.8
439.8	112.6
440.0	112.7
440.2	112.4
440.4	113.0
440.6	114.2
440.8	115.8
441.0	116.8
441.2	117.8
441.4	118.4
441.6	118.9
441.8	119.5
442.0	120.3
442.2	120.5
442.4	120.8
442.6	121.4
442.8	121.7
443.0	122.6
443.2	124.2
443.4	124.8
443.6	125.1
443.8	126.2
444.0	127.1
444.2	127.6
444.4	129.1
444.6	129.5
444.8	129.3
445.0	130.2
445.2	130.9
445.4	131.6
445.6	133.2
445.8	134.0
446.0	134.7
446.2	135.6
446.4	136.3
446.6	136.5
446.8	137.2
447.0	137.0
447.2	137.7
447.4	138.8
447.6	139.6
447.8	139.8
448.0	139.9
448.2	139.3
448.4	140.3
448.6	141.8
448.8	142.0
449.0	142.4
449.2	141.8
449.4	141.7
449.6	142.8
449.8	144.6
450.0	145.4
450.2	145.7
450.4	145.3
450.6	144.9
450.8	144.2
451.0	144.4
451.2	144.3
451.4	144.6
451.6	145.3
451.8	146.5
452.0	147.2
452.2	148.2
452.4	148.4
452.6	148.8
452.8	149.8
453.0	150.1
453.2	150.7
453.4	151.2
453.6	151.6
453.8	151.5
454.0	151.8
454.2	151.8
454.4	152.3
454.6	153.1
454.8	154.0
455.0	154.3
455.2	155.3
455.4	156.8
455.6	158.0
455.8	159.5
456.0	160.0
456.2	159.6
456.4	159.2
456.6	159.2
456.8	158.8
457.0	159.6
457.2	160.8
457.4	162.3
457.6	163.7
457.8	165.0
458.0	164.8
458.2	165.6
458.4	166.1
458.6	167.3
458.8	168.4
459.0	169.3
459.2	170.7
459.4	172.8
459.6	173.5
459.8	176.1
460.0	177.5
460.2	178.8
460.4	181.5
460.6	182.9
460.8	184.5
461.0	187.1
461.2	188.3
461.4	190.7
461.6	193.0
461.8	194.5
462.0	197.3
462.2	199.5
462.4	201.5
462.6	204.8
462.8	206.8
463.0	208.9
463.2	211.5
463.4	214.2
463.6	217.9
463.8	221.9
464.0	224.8
464.2	227.6
464.4	230.3
464.6	233.8
464.8	237.5
465.0	241.4
465.2	244.2
465.4	247.5
465.6	250.7
465.8	254.6
466.0	258.8
466.2	264.0
466.4	269.1
466.6	274.4
466.8	278.9
467.0	282.6
467.2	287.4
467.4	292.7
467.6	296.9
467.8	301.3
468.0	305.5
468.2	310.7
468.4	316.5
468.6	322.3
468.8	327.9
469.0	333.3
469.2	337.4
469.4	343.1
469.6	349.1
469.8	357.1
470.0	365.6
470.2	372.9
470.4	377.9
470.6	383.6
470.8	390.7
471.0	398.4
471.2	405.0
471.4	411.4
471.6	417.3
471.8	423.8
472.0	430.9
472.2	437.8
472.4	444.2
472.6	453.0
472.8	462.4
473.0	472.0
473.2	480.4
473.4	487.2
473.6	492.3
473.8	500.5
474.0	508.5
474.2	517.9
474.4	527.6
474.6	537.3
474.8	545.5
475.0	554.5
475.2	562.5
475.4	571.1
475.6	580.5
475.8	592.1
476.0	601.6
476.2	611.6
476.4	620.5
476.6	628.4
476.8	639.0
477.0	649.5
477.2	659.0
477.4	669.2
477.6	678.4
477.8	688.8
478.0	700.8
478.2	710.2
478.4	720.2
478.6	730.0
478.8	739.6
479.0	751.6
479.2	763.9
479.4	774.2
479.6	784.4
479.8	795.3
480.0	806.1
480.2	819.2
480.4	832.0
480.6	843.9
480.8	856.1
481.0	867.9
481.2	881.4
481.4	895.5
481.6	907.9
481.8	921.7
482.0	934.3
482.2	946.0
482.4	961.0
482.6	975.7
482.8	990.0
483.0	1006
483.2	1018
483.4	1030
483.6	1044
483.8	1058
484.0	1072
484.2	1089
484.4	1106
484.6	1124
484.8	1138
485.0	1151
485.2	1164
485.4	1180
485.6	1198
485.8	1217
486.0	1234
486.2	1251
486.4	1266
486.6	1283
486.8	1301
487.0	1320
487.2	1341
487.4	1359
487.6	1376
487.8	1397
488.0	1419
488.2	1440
488.4	1458
488.6	1473
488.8	1493
489.0	1518
489.2	1543
489.4	1566
489.6	1587
489.8	1612
490.0	1636
490.2	1661
490.4	1685
490.6	1705
490.8	1730
491.0	1759
491.2	1783
491.4	1808
491.6	1833
491.8	1857
492.0	1883
492.2	1915
492.4	1945
492.6	1975
492.8	2002
493.0	2027
493.2	2054
493.4	2084
493.6	2114
493.8	2145
494.0	2176
494.2	2208
494.4	2240
494.6	2274
494.8	2308
495.0	2343
495.2	2376
495.4	2412
495.6	2445
495.8	2481
496.0	2517
496.2	2555
496.4	2585
496.6	2623
496.8	2657
497.0	2694
497.2	2733
497.4	2769
497.6	2806
497.8	2847
498.0	2885
498.2	2928
498.4	2974
498.6	3013
498.8	3052
499.0	3092
499.2	3125
499.4	3171
499.6	3220
499.8	3265
500.0	3310
500.2	3356
500.4	3396
500.6	3441
500.8	3484
501.0	3529
501.2	3574
501.4	3620
501.6	3663
501.8	3709
502.0	3755
502.2	3810
502.4	3864
502.6	3917
502.8	3960
503.0	4003
503.2	4047
503.4	4094
503.6	4139
503.8	4188
504.0	4238
504.2	4290
504.4	4347
504.6	4398
504.8	4449
505.0	4495
505.2	4545
505.4	4596
505.6	4649
505.8	4700
506.0	4755
506.2	4801
506.4	4848
506.6	4898
506.8	4949
507.0	5003
507.2	5056
507.4	5106
507.6	5153
507.8	5209
508.0	5264
508.2	5323
508.4	5372
508.6	5418
508.8	5463
509.0	5512
509.2	5563
509.4	5616
509.6	5663
509.8	5713
510.0	5762
510.2	5814
510.4	5866
510.6	5914
510.8	5967
511.0	6021
511.2	6076
511.4	6136
511.6	6186
511.8	6232
512.0	6277
512.2	6322
512.4	6369
512.6	6414
512.8	6459
513.0	6506
513.2	6549
513.4	6600
513.6	6657
513.8	6712
514.0	6764
514.2	6814
514.4	6858
514.6	6905
514.8	6948
515.0	6989
515.2	7031
515.4	7084
515.6	7134
515.8	7182
516.0	7221
516.2	7259
516.4	7304
516.6	7351
516.8	7394
517.0	7436
517.2	7475
517.4	7519
517.6	7557
517.8	7595
518.0	7632
518.2	7674
518.4	7721
518.6	7770
518.8	7809
519.0	7853
519.2	7887
519.4	7924
519.6	7956
519.8	7988
520.0	8021
520.2	8067
520.4	8116
520.6	8158
520.8	8199
521.0	8236
521.2	8266
521.4	8303
521.6	8335
521.8	8359
522.0	8391
522.2	8424
522.4	8457
522.6	8495
522.8	8527
523.0	8555
523.2	8580
523.4	8608
523.6	8640
523.8	8675
524.0	8708
524.2	8733
524.4	8757
524.6	8782
524.8	8819
525.0	8858
525.2	8888
525.4	8916
525.6	8938
525.8	8960
526.0	8982
526.2	9008
526.4	9026
526.6	9052
526.8	9072
527.0	9092
527.2	9115
527.4	9142
527.6	9162
527.8	9189
528.0	9209
528.2	9220
528.4	9242
528.6	9260
528.8	9276
529.0	9295
529.2	9310
529.4	9330
529.6	9357
529.8	9375
530.0	9398
530.2	9409
530.4	9420
530.6	9435
530.8	9447
531.0	9460
531.2	9474
531.4	9487
531.6	9494
531.8	9507
532.0	9522
532.2	9540
532.4	9555
532.6	9563
532.8	9558
533.0	9570
533.2	9580
533.4	9588
533.6	9600
533.8	9600
534.0	9609
534.2	9623
534.4	9630
534.6	9636
534.8	9635
535.0	9630
535.2	9629
535.4	9626
535.6	9627
535.8	9641
536.0	9643
536.2	9646
536.4	9643
536.6	9639
536.8	9642
537.0	9663
537.2	9668
537.4	9672
537.6	9671
537.8	9662
538.0	9652
538.2	9653
538.4	9652
538.6	9658
538.8	9652
539.0	9648
539.2	9636
539.4	9620
539.6	9611
539.8	9607
540.0	9609
540.2	9621
540.4	9624
540.6	9618
540.8	9607
541.0	9584
541.2	9570
541.4	9556
541.6	9550
541.8	9552
542.0	9550
542.2	9535
542.4	9519
542.6	9504
542.8	9499
543.0	9494
543.2	9487
543.4	9481
543.6	9471
543.8	9457
544.0	9445
544.2	9423
544.4	9406
544.6	9394
544.8	9385
545.0	9370
545.2	9362
545.4	9351
545.6	9342
545.8	9328
546.0	9316
546.2	9297
546.4	9277
546.6	9260
546.8	9243
547.0	9226
547.2	9214
547.4	9201
547.6	9187
547.8	9173
548.0	9157
548.2	9139
548.4	9122
548.6	9108
548.8	9092
549.0	9077
549.2	9062
549.4	9037
549.6	9020
549.8	9001
550.0	8987
550.2	8973
550.4	8952
550.6	8927
550.8	8904
551.0	8876
551.2	8862
551.4	8855
551.6	8847
551.8	8835
552.0	8810
552.2	8781
552.4	8753
552.6	8731
552.8	8712
553.0	8687
553.2	8666
553.4	8650
553.6	8627
553.8	8605
554.0	8580
554.2	8551
554.4	8522
554.6	8508
554.8	8481
555.0	8458
555.2	8441
555.4	8411
555.6	8382
555.8	8367
556.0	8345
556.2	8338
556.4	8323
556.6	8293
556.8	8266
557.0	8238
557.2	8214
557.4	8195
557.6	8166
557.8	8142
558.0	8122
558.2	8100
558.4	8073
558.6	8038
558.8	8007
559.0	7978
559.2	7961
559.4	7949
559.6	7934
559.8	7912
560.0	7885
560.2	7849
560.4	7823
560.6	7800
560.8	7775
561.0	7748
561.2	7720
561.4	7692
561.6	7664
561.8	7636
562.0	7611
562.2	7586
562.4	7558
562.6	7535
562.8	7509
563.0	7482
563.2	7453
563.4	7429
563.6	7402
563.8	7376
564.0	7344
564.2	7318
564.4	7293
564.6	7275
564.8	7254
565.0	7216
565.2	7183
565.4	7159
565.6	7134
565.8	7115
566.0	7091
566.2	7065
566.4	7044
566.6	7021
566.8	6993
567.0	6963
567.2	6925
567.4	6893
567.6	6864
567.8	6836
568.0	6812
568.2	6786
568.4	6760
568.6	6732
568.8	6712
569.0	6687
569.2	6661
569.4	6634
569.6	6605
569.8	6581
570.0	6562
570.2	6542
570.4	6523
570.6	6498
570.8	6469
571.0	6440
571.2	6402
571.4	6366
571.6	6339
571.8	6310
572.0	6283
572.2	6261
572.4	6233
572.6	6215
572.8	6198
573.0	6168
573.2	6135
573.4	6108
573.6	6083
573.8	6063
574.0	6038
574.2	6012
574.4	5981
574.6	5960
574.8	5941
575.0	5914
575.2	5887
575.4	5859
575.6	5827
575.8	5797
576.0	5772
576.2	5749
576.4	5731
576.6	5711
576.8	5693
577.0	5671
577.2	5646
577.4	5619
577.6	5595
577.8	5569
578.0	5546
578.2	5521
578.4	5492
578.6	5463
578.8	5441
579.0	5417
579.2	5394
579.4	5367
579.6	5338
579.8	5316
580.0	5296
580.2	5270
580.4	5250
580.6	5224
580.8	5201
581.0	5176
581.2	5149
581.4	5121
581.6	5103
581.8	5082
582.0	5065
582.2	5037
582.4	5016
582.6	4986
582.8	4967
583.0	4942
583.2	4925
583.4	4897
583.6	4872
583.8	4844
584.0	4826
584.2	4806
584.4	4796
584.6	4780
584.8	4755
585.0	4727
585.2	4702
585.4	4678
585.6	4651
585.8	4628
586.0	4604
586.2	4587
586.4	4574
586.6	4556
586.8	4531
587.0	4504
587.2	4478
587.4	4460
587.6	4442
587.8	4425
588.0	4408
588.2	4384
588.4	4359
588.6	4334
588.8	4313
589.0	4295
589.2	4274
589.4	4252
589.6	4228
589.8	4206
590.0	4186
590.2	4165
590.4	4147
590.6	4130
590.8	4109
591.0	4091
591.2	4069
591.4	4050
591.6	4032
591.8	4014
592.0	3996
592.2	3973
592.4	3946
592.6	3925
592.8	3904
593.0	3887
593.2	3874
593.4	3861
593.6	3842
593.8	3822
594.0	3803
594.2	3783
594.4	3764
594.6	3748
594.8	3727
595.0	3706
595.2	3688
595.4	3666
595.6	3646
595.8	3624
596.0	3606
596.2	3591
596.4	3576
596.6	3558
596.8	3539
597.0	3520
597.2	3500
597.4	3486
597.6	3470
597.8	3454
598.0	3440
598.2	3426
598.4	3408
598.6	3388
598.8	3366
599.0	3349
599.2	3333
599.4	3317
599.6	3296
599.8	3275
600.0	3255
600.2	3241
600.4	3226
600.6	3207
600.8	3190
601.0	3174
601.2	3157
601.4	3142
601.6	3126
601.8	3104
602.0	3088
602.2	3071
602.4	3054
602.6	3037
602.8	3023
603.0	3007
603.2	2993
603.4	2978
603.6	2961
603.8	2942
604.0	2927
604.2	2912
604.4	2895
604.6	2877
604.8	2862
605.0	2844
605.2	2830
605.4	2816
605.6	2799
605.8	2782
606.0	2766
606.2	2751
606.4	2737
606.6	2725
606.8	2707
607.0	2693
607.2	2678
607.4	2663
607.6	2648
607.8	2635
608.0	2616
608.2	2603
608.4	2587
608.6	2569
608.8	2553
609.0	2538
609.2	2527
609.4	2517
609.6	2503
609.8	2487
610.0	2468
610.2	2449
610.4	2434
610.6	2421
610.8	2412
611.0	2400
611.2	2386
611.4	2370
611.6	2355
611.8	2340
612.0	2327
612.2	2311
612.4	2296
612.6	2283
612.8	2269
613.0	2256
613.2	2246
613.4	2233
613.6	2220
613.8	2205
614.0	2190
614.2	2175
614.4	2164
614.6	2152
614.8	2139
615.0	2125
615.2	2112
615.4	2095
615.6	2081
615.8	2073
616.0	2063
616.2	2049
616.4	2038
616.6	2022
616.8	2007
617.0	1994
617.2	1983
617.4	1967
617.6	1959
617.8	1950
618.0	1942
618.2	1929
618.4	1915
618.6	1900
618.8	1888
619.0	1876
619.2	1865
619.4	1851
619.6	1834
619.8	1822
620.0	1812
620.2	1802
620.4	1791
620.6	1780
620.8	1765
621.0	1756
621.2	1747
621.4	1735
621.6	1723
621.8	1713
622.0	1699
622.2	1689
622.4	1680
622.6	1672
622.8	1661
623.0	1650
623.2	1638
623.4	1629
623.6	1620
623.8	1613
624.0	1601
624.2	1588
624.4	1576
624.6	1567
624.8	1556
625.0	1548
625.2	1537
625.4	1528
625.6	1516
625.8	1504
626.0	1494
626.2	1485
626.4	1473
626.6	1464
626.8	1453
627.0	1445
627.2	1436
627.4	1429
627.6	1419
627.8	1408
628.0	1398
628.2	1389
628.4	1378
628.6	1371
628.8	1362
629.0	1351
629.2	1343
629.4	1335
629.6	1328
629.8	1322
630.0	1310
630.2	1297
630.4	1286
630.6	1277
630.8	1270
631.0	1266
631.2	1256
631.4	1246
631.6	1237
631.8	1229
632.0	1223
632.2	1215
632.4	1206
632.6	1198
632.8	1189
633.0	1180
633.2	1171
633.4	1163
633.6	1156
633.8	1150
634.0	1144
634.2	1136
634.4	1127
634.6	1119
634.8	1113
635.0	1107
635.2	1100
635.4	1092
635.6	1081
635.8	1074
636.0	1068
636.2	1065
636.4	1059
636.6	1051
636.8	1043
637.0	1037
637.2	1030
637.4	1025
637.6	1018
637.8	1009
638.0	1003
638.2	996.4
638.4	989.2
638.6	983.1
638.8	975.7
639.0	967.6
639.2	961.9
639.4	955.2
639.6	948.1
639.8	940.5
640.0	933.2
640.2	927.7
640.4	922.4
640.6	916.1
640.8	909.0
641.0	901.9
641.2	896.0
641.4	891.3
641.6	887.8
641.8	882.5
642.0	874.0
642.2	866.8
642.4	860.7
642.6	854.1
642.8	849.8
643.0	844.9
643.2	837.1
643.4	832.4
643.6	827.0
643.8	821.9
644.0	817.8
644.2	812.6
644.4	805.9
644.6	799.0
644.8	791.4
645.0	785.3
645.2	781.9
645.4	777.0
645.6	772.0
645.8	766.9
646.0	761.3
646.2	755.7
646.4	750.0
646.6	743.4
646.8	737.3
647.0	733.6
647.2	729.1
647.4	725.7
647.6	720.7
647.8	715.1
648.0	710.0
648.2	704.6
648.4	697.8
648.6	692.6
648.8	688.3
649.0	682.6
649.2	679.7
649.4	675.2
649.6	670.1
649.8	666.2
650.0	662.7
650.2	657.5
650.4	653.5
650.6	647.0
650.8	643.0
651.0	638.8
651.2	635.8
651.4	632.0
651.6	627.5
651.8	622.2
652.0	617.1
652.2	611.3
652.4	607.6
652.6	603.4
652.8	599.2
653.0	595.3
653.2	589.5
653.4	585.0
653.6	581.1
653.8	576.1
654.0	570.8
654.2	566.5
654.4	563.1
654.6	560.3
654.8	557.8
655.0	553.3
655.2	549.5
655.4	545.7
655.6	542.3
655.8	538.5
656.0	536.0
656.2	531.6
656.4	528.4
656.6	522.5
656.8	519.5
657.0	514.8
657.2	512.1
657.4	508.9
657.6	505.6
657.8	502.2
658.0	499.6
658.2	494.7
658.4	491.0
658.6	486.5
658.8	481.4
659.0	479.1
659.2	475.1
659.4	471.9
659.6	468.6
659.8	463.6
660.0	459.3
660.2	456.4
660.4	453.5
660.6	451.1
660.8	447.3
661.0	443.2
661.2	440.9
661.4	438.4
661.6	435.3
661.8	431.7
662.0	427.9
662.2	424.2
662.4	421.9
662.6	418.3
662.8	414.9
663.0	411.3
663.2	409.3
663.4	407.0
663.6	404.6
663.8	401.8
664.0	399.7
664.2	396.5
664.4	394.1
664.6	391.0
664.8	386.7
665.0	382.8
665.2	379.1
665.4	376.5
665.6	374.4
665.8	371.8
666.0	368.9
666.2	365.6
666.4	363.5
666.6	361.0
666.8	358.7
667.0	355.0
667.2	352.8
667.4	349.6
667.6	348.0
667.8	344.1
668.0	342.0
668.2	339.0
668.4	337.8
668.6	335.1
668.8	333.3
669.0	329.4
669.2	327.3
669.4	325.1
669.6	322.9
669.8	320.6
670.0	319.2
670.2	315.7
670.4	313.1
670.6	310.3
670.8	307.1
671.0	305.5
671.2	305.1
671.4	302.6
671.6	300.5
671.8	298.3
672.0	295.5
672.2	294.2
672.4	292.8
672.6	289.8
672.8	286.9
673.0	284.3
673.2	280.8
673.4	279.1
673.6	277.4
673.8	274.8
674.0	272.6
674.2	270.7
674.4	268.3
674.6	267.1
674.8	266.4
675.0	263.5
675.2	261.7
675.4	259.8
675.6	257.2
675.8	256.0
676.0	254.6
676.2	252.6
676.4	250.8
676.6	248.3
676.8	245.6
677.0	242.8
677.2	240.0
677.4	238.5
677.6	237.2
677.8	235.3
678.0	233.9
678.2	231.6
678.4	230.2
678.6	228.6
678.8	227.0
679.0	224.6
679.2	222.6
679.4	220.9
679.6	219.7
679.8	217.6
680.0	216.2
680.2	214.6
680.4	213.3
680.6	211.8
680.8	210.3
681.0	208.3
681.2	206.6
681.4	205.7
681.6	204.4
681.8	203.1
682.0	202.3
682.2	201.9
682.4	199.6
682.6	198.9
682.8	196.4
683.0	194.4
683.2	192.5
683.4	191.0
683.6	190.0
683.8	189.5
684.0	187.4
684.2	186.2
684.4	184.2
684.6	181.9
684.8	180.7
685.0	179.4
685.2	177.8
685.4	176.5
685.6	175.0
685.8	173.3
686.0	172.4
686.2	171.2
686.4	170.1
686.6	168.6
686.8	166.9
687.0	165.8
687.2	165.4
687.4	164.2
687.6	163.1
687.8	161.5
688.0	160.3
688.2	158.8
688.4	157.6
688.6	155.9
688.8	154.3
689.0	152.9
689.2	152.1
689.4	150.4
689.6	149.6
689.8	148.7
690.0	148.7
690.2	148.5
690.4	147.2
690.6	145.5
690.8	144.1
691.0	142.9
691.2	141.8
691.4	140.9
691.6	139.3
691.8	138.0
692.0	137.3
692.2	136.3
692.4	135.3
692.6	134.7
692.8	133.7
693.0	132.4
693.2	131.0
693.4	129.8
693.6	129.8
693.8	129.4
694.0	128.8
694.2	127.5
694.4	126.5
694.6	125.7
694.8	124.9
695.0	123.7
695.2	122.0
695.4	120.3
695.6	120.0
695.8	119.8
696.0	119.0
696.2	118.4
696.4	117.3
696.6	116.7
696.8	116.0
697.0	115.4
697.2	114.7
697.4	113.8
697.6	112.9
697.8	112.8
698.0	112.5
698.2	112.2
698.4	111.3
698.6	109.9
698.8	108.6
699.0	107.5
699.2	106.4
699.4	106.3
699.6	105.6
699.8	105.0
700.0	104.6
700.2	104.3
700.4	103.5
700.6	103.0
700.8	102.4
701.0	101.8
701.2	101.2
701.4	100.9
701.6	100.1
701.8	99.09
702.0	98.29
702.2	97.45
702.4	96.39
702.6	95.30
702.8	94.35
703.0	94.32
703.2	93.89
703.4	93.20
703.6	92.81
703.8	91.83
704.0	91.23
704.2	91.29
704.4	90.59
704.6	90.33
704.8	90.41
705.0	89.96
705.2	89.02
705.4	88.01
705.6	86.94
705.8	86.61
706.0	86.11
706.2	85.94
706.4	85.37
706.6	84.70
706.8	84.01
707.0	83.27
707.2	82.65
707.4	82.39
707.6	81.60
707.8	81.22
708.0	80.58
708.2	79.89
708.4	79.29
708.6	78.91
708.8	77.49
709.0	76.92
709.2	76.32
709.4	76.01
709.6	74.85
709.8	74.67
710.0	74.11
710.2	74.34
710.4	74.04
710.6	73.38
710.8	72.02
711.0	71.47
711.2	71.29
711.4	71.68
711.6	71.48
711.8	70.91
712.0	70.15
712.2	69.60
712.4	68.86
712.6	68.65
712.8	68.43
713.0	68.39
713.2	67.65
713.4	66.80
713.6	65.56
713.8	65.38
714.0	65.09
714.2	65.28
714.4	65.15
714.6	64.59
714.8	63.80
715.0	63.14
715.2	62.32
715.4	61.91
715.6	62.26
715.8	62.18
716.0	61.40
716.2	60.05
716.4	58.87
716.6	58.11
716.8	58.56
717.0	58.60
717.2	58.79
717.4	58.58
717.6	57.61
717.8	56.80
718.0	56.38
718.2	55.90
718.4	55.89
718.6	55.64
718.8	54.94
719.0	54.57
719.2	54.09
719.4	53.90
719.6	53.45
719.8	52.90
720.0	52.87
720.2	52.27
720.4	51.69
720.6	51.57
720.8	50.67
721.0	50.12
721.2	50.54
721.4	49.72
721.6	49.23
721.8	48.78
722.0	48.02
722.2	47.87
722.4	48.06
722.6	47.09
722.8	46.79
723.0	46.47
723.2	46.47
723.4	46.98
723.6	46.87
723.8	45.95
724.0	45.43
724.2	44.39
724.4	43.66
724.6	43.63
724.8	43.28
725.0	43.23
725.2	43.24
