Sample:	'20211010A(EM)
File name:	G-CDs 7.FDS
Run date:	'16:34:04, 06/10/2023
Operator:	Administrator
Comment:	'

Instrument
Model:	F-4700 FL Spectrophotometer
Serial number:	2019-001
ROM Version:	5J24010 00

Instrument parameters
Measurement type:	Wavelength scan
Scan mode:	Emission
Data mode:	Fluorescence
EX WL:	400.0 nm
EM  Start WL:	420.0 nm
EM  End WL:	800.0 nm
Scan speed:	1200 nm/min
Delay:	0.0 s
EX Slit:	10.0 nm
EM Slit:	10.0 nm
PMT Voltage:	455 V
Response:	0.002 s
Corrected spectra:	Off
Shutter control:	On

Processing performed
Savitsky-Golay smoothed
Smoothing order:	3
Number of points:	7
Number of times:	1

Peak integration
Integration method:	Rectangular
Sensitivity:	1
Threshold:	1.000

Peaks
No.	Start(nm)	Apex(nm)	End(nm)	Height(Data)	Valley(nm)	Valley(Data)
1	420.0	536.2	536.8	9646	536.8	9633
2	536.8	538.2	783.8	9669	783.8	6.053

Data points
nm	Data
420.0	58.41
420.2	58.76
420.4	59.45
420.6	60.25
420.8	60.88
421.0	61.40
421.2	61.36
421.4	61.40
421.6	61.50
421.8	61.74
422.0	62.52
422.2	63.24
422.4	64.02
422.6	65.00
422.8	65.31
423.0	65.83
423.2	66.18
423.4	66.16
423.6	66.88
423.8	67.60
424.0	68.05
424.2	68.48
424.4	67.95
424.6	68.37
424.8	68.66
425.0	68.58
425.2	69.52
425.4	70.10
425.6	70.39
425.8	71.28
426.0	71.91
426.2	72.67
426.4	73.64
426.6	73.65
426.8	73.70
427.0	73.39
427.2	73.19
427.4	73.93
427.6	74.50
427.8	74.53
428.0	75.25
428.2	75.90
428.4	75.66
428.6	76.19
428.8	76.79
429.0	77.29
429.2	78.05
429.4	78.28
429.6	78.39
429.8	78.62
430.0	79.64
430.2	80.79
430.4	81.73
430.6	81.80
430.8	81.73
431.0	81.80
431.2	82.17
431.4	83.17
431.6	84.44
431.8	84.95
432.0	84.64
432.2	84.78
432.4	84.79
432.6	85.89
432.8	86.38
433.0	86.52
433.2	86.50
433.4	86.77
433.6	87.38
433.8	88.44
434.0	89.44
434.2	90.05
434.4	90.75
434.6	91.40
434.8	91.81
435.0	92.05
435.2	92.97
435.4	93.71
435.6	93.85
435.8	94.48
436.0	95.18
436.2	95.20
436.4	96.03
436.6	97.67
436.8	98.05
437.0	98.92
437.2	98.89
437.4	97.59
437.6	98.12
437.8	99.14
438.0	100.6
438.2	102.3
438.4	102.7
438.6	102.7
438.8	103.1
439.0	103.8
439.2	105.1
439.4	106.5
439.6	106.9
439.8	108.0
440.0	108.5
440.2	109.6
440.4	109.6
440.6	109.8
440.8	110.5
441.0	111.8
441.2	112.7
441.4	113.8
441.6	113.6
441.8	113.8
442.0	115.0
442.2	115.5
442.4	116.1
442.6	116.5
442.8	116.6
443.0	117.2
443.2	117.9
443.4	119.5
443.6	121.1
443.8	121.5
444.0	121.6
444.2	122.3
444.4	121.9
444.6	122.6
444.8	123.6
445.0	123.9
445.2	124.5
445.4	126.1
445.6	126.1
445.8	126.8
446.0	128.2
446.2	129.3
446.4	130.3
446.6	130.8
446.8	130.3
447.0	130.2
447.2	130.1
447.4	130.4
447.6	131.5
447.8	133.0
448.0	134.1
448.2	134.7
448.4	134.2
448.6	133.7
448.8	133.3
449.0	134.7
449.2	135.9
449.4	136.9
449.6	136.8
449.8	136.2
450.0	135.6
450.2	136.7
450.4	137.6
450.6	138.6
450.8	138.2
451.0	137.7
451.2	138.4
451.4	139.9
451.6	140.4
451.8	141.2
452.0	141.2
452.2	141.2
452.4	140.8
452.6	140.8
452.8	140.6
453.0	142.1
453.2	143.2
453.4	143.5
453.6	143.6
453.8	144.3
454.0	145.4
454.2	146.8
454.4	147.1
454.6	146.3
454.8	145.7
455.0	144.9
455.2	144.9
455.4	145.7
455.6	147.6
455.8	148.8
456.0	149.3
456.2	148.8
456.4	149.5
456.6	149.9
456.8	150.5
457.0	150.8
457.2	151.0
457.4	151.8
457.6	152.5
457.8	154.2
458.0	156.0
458.2	157.4
458.4	158.8
458.6	160.1
458.8	161.0
459.0	161.9
459.2	163.6
459.4	165.1
459.6	166.4
459.8	167.1
460.0	168.4
460.2	169.0
460.4	170.1
460.6	170.8
460.8	172.8
461.0	174.1
461.2	176.1
461.4	178.9
461.6	180.3
461.8	181.7
462.0	184.0
462.2	186.0
462.4	188.9
462.6	192.2
462.8	194.3
463.0	197.0
463.2	199.0
463.4	201.4
463.6	203.8
463.8	206.3
464.0	209.5
464.2	212.8
464.4	216.4
464.6	220.3
464.8	223.0
465.0	226.6
465.2	230.9
465.4	234.0
465.6	237.3
465.8	241.2
466.0	244.2
466.2	247.2
466.4	251.3
466.6	256.0
466.8	260.0
467.0	264.1
467.2	267.5
467.4	272.0
467.6	277.6
467.8	283.4
468.0	289.6
468.2	293.7
468.4	297.9
468.6	302.0
468.8	306.4
469.0	310.9
469.2	316.2
469.4	322.1
469.6	327.9
469.8	333.8
470.0	339.2
470.2	345.9
470.4	352.5
470.6	360.4
470.8	367.3
471.0	375.0
471.2	380.5
471.4	386.6
471.6	392.2
471.8	398.8
472.0	406.1
472.2	413.9
472.4	422.2
472.6	429.6
472.8	434.6
473.0	440.5
473.2	446.9
473.4	454.4
473.6	463.6
473.8	473.7
474.0	481.8
474.2	488.7
474.4	496.5
474.6	503.3
474.8	510.8
475.0	520.6
475.2	530.8
475.4	540.2
475.6	549.2
475.8	557.8
476.0	566.5
476.2	576.6
476.4	586.7
476.6	596.5
476.8	603.0
477.0	611.7
477.2	620.1
477.4	629.4
477.6	639.1
477.8	649.6
478.0	660.1
478.2	669.7
478.4	680.5
478.6	690.8
478.8	702.0
479.0	712.8
479.2	722.8
479.4	732.1
479.6	744.3
479.8	756.1
480.0	769.4
480.2	781.4
480.4	790.6
480.6	801.1
480.8	812.7
481.0	825.5
481.2	836.2
481.4	847.7
481.6	857.7
481.8	868.1
482.0	880.3
482.2	896.3
482.4	910.3
482.6	925.3
482.8	938.6
483.0	950.1
483.2	961.1
483.4	973.1
483.6	987.3
483.8	1000
484.0	1015
484.2	1031
484.4	1046
484.6	1060
484.8	1076
485.0	1089
485.2	1104
485.4	1119
485.6	1136
485.8	1156
486.0	1176
486.2	1194
486.4	1211
486.6	1222
486.8	1235
487.0	1253
487.2	1269
487.4	1288
487.6	1308
487.8	1328
488.0	1345
488.2	1368
488.4	1386
488.6	1409
488.8	1425
489.0	1447
489.2	1466
489.4	1491
489.6	1512
489.8	1536
490.0	1557
490.2	1579
490.4	1600
490.6	1623
490.8	1646
491.0	1675
491.2	1703
491.4	1728
491.6	1750
491.8	1775
492.0	1803
492.2	1831
492.4	1855
492.6	1874
492.8	1900
493.0	1929
493.2	1960
493.4	1991
493.6	2026
493.8	2054
494.0	2086
494.2	2117
494.4	2147
494.6	2179
494.8	2213
495.0	2245
495.2	2275
495.4	2307
495.6	2343
495.8	2376
496.0	2412
496.2	2447
496.4	2481
496.6	2516
496.8	2555
497.0	2586
497.2	2626
497.4	2660
497.6	2697
497.8	2735
498.0	2774
498.2	2811
498.4	2852
498.6	2893
498.8	2933
499.0	2975
499.2	3015
499.4	3059
499.6	3101
499.8	3145
500.0	3186
500.2	3229
500.4	3271
500.6	3319
500.8	3360
501.0	3406
501.2	3450
501.4	3494
501.6	3540
501.8	3591
502.0	3635
502.2	3687
502.4	3731
502.6	3773
502.8	3821
503.0	3864
503.2	3906
503.4	3958
503.6	4006
503.8	4053
504.0	4104
504.2	4151
504.4	4199
504.6	4252
504.8	4300
505.0	4353
505.2	4408
505.4	4462
505.6	4515
505.8	4568
506.0	4614
506.2	4662
506.4	4710
506.6	4758
506.8	4808
507.0	4859
507.2	4913
507.4	4960
507.6	5007
507.8	5051
508.0	5101
508.2	5156
508.4	5217
508.6	5269
508.8	5317
509.0	5364
509.2	5410
509.4	5458
509.6	5509
509.8	5559
510.0	5612
510.2	5664
510.4	5717
510.6	5765
510.8	5816
511.0	5869
511.2	5921
511.4	5968
511.6	6017
511.8	6061
512.0	6112
512.2	6170
512.4	6217
512.6	6264
512.8	6312
513.0	6357
513.2	6404
513.4	6450
513.6	6488
513.8	6535
514.0	6592
514.2	6641
514.4	6693
514.6	6739
514.8	6788
515.0	6839
515.2	6892
515.4	6935
515.6	6983
515.8	7033
516.0	7079
516.2	7115
516.4	7154
516.6	7192
516.8	7235
517.0	7281
517.2	7331
517.4	7373
517.6	7418
517.8	7462
518.0	7512
518.2	7555
518.4	7598
518.6	7633
518.8	7661
519.0	7687
519.2	7732
519.4	7776
519.6	7827
519.8	7876
520.0	7920
520.2	7952
520.4	7996
520.6	8034
520.8	8068
521.0	8093
521.2	8125
521.4	8163
521.6	8207
521.8	8246
522.0	8277
522.2	8313
522.4	8354
522.6	8396
522.8	8428
523.0	8454
523.2	8472
523.4	8492
523.6	8519
523.8	8541
524.0	8571
524.2	8608
524.4	8640
524.6	8668
524.8	8702
525.0	8737
525.2	8771
525.4	8806
525.6	8841
525.8	8871
526.0	8896
526.2	8931
526.4	8946
526.6	8961
526.8	8976
527.0	8993
527.2	9017
527.4	9039
527.6	9065
527.8	9094
528.0	9119
528.2	9148
528.4	9178
528.6	9196
528.8	9216
529.0	9238
529.2	9252
529.4	9266
529.6	9286
529.8	9308
530.0	9320
530.2	9335
530.4	9338
530.6	9338
530.8	9351
531.0	9374
531.2	9395
531.4	9418
531.6	9443
531.8	9459
532.0	9473
532.2	9488
532.4	9494
532.6	9506
532.8	9520
533.0	9530
533.2	9542
533.4	9548
533.6	9551
533.8	9562
534.0	9573
534.2	9587
534.4	9604
534.6	9614
534.8	9628
535.0	9637
535.2	9644
535.4	9645
535.6	9638
535.8	9641
536.0	9643
536.2	9646
536.4	9642
536.6	9639
536.8	9633
537.0	9636
537.2	9636
537.4	9643
537.6	9651
537.8	9664
538.0	9668
538.2	9669
538.4	9663
538.6	9653
538.8	9649
539.0	9644
539.2	9639
539.4	9644
539.6	9641
539.8	9634
540.0	9623
540.2	9609
540.4	9599
540.6	9592
540.8	9592
541.0	9584
541.2	9573
541.4	9568
541.6	9566
541.8	9558
542.0	9558
542.2	9545
542.4	9537
542.6	9537
542.8	9540
543.0	9529
543.2	9516
543.4	9493
543.6	9474
543.8	9467
544.0	9455
544.2	9442
544.4	9439
544.6	9428
544.8	9422
545.0	9416
545.2	9405
545.4	9393
545.6	9380
545.8	9362
546.0	9345
546.2	9330
546.4	9318
546.6	9300
546.8	9293
547.0	9292
547.2	9290
547.4	9281
547.6	9256
547.8	9222
548.0	9193
548.2	9176
548.4	9161
548.6	9149
548.8	9133
549.0	9116
549.2	9091
549.4	9078
549.6	9055
549.8	9046
550.0	9040
550.2	9030
550.4	9012
550.6	8993
550.8	8958
551.0	8934
551.2	8916
551.4	8898
551.6	8873
551.8	8851
552.0	8824
552.2	8805
552.4	8793
552.6	8771
552.8	8750
553.0	8732
553.2	8717
553.4	8709
553.6	8694
553.8	8666
554.0	8633
554.2	8593
554.4	8560
554.6	8533
554.8	8515
555.0	8500
555.2	8489
555.4	8478
555.6	8457
555.8	8429
556.0	8399
556.2	8365
556.4	8347
556.6	8337
556.8	8321
557.0	8298
557.2	8263
557.4	8236
557.6	8211
557.8	8197
558.0	8179
558.2	8151
558.4	8122
558.6	8103
558.8	8080
559.0	8061
559.2	8040
559.4	8007
559.6	7970
559.8	7941
560.0	7906
560.2	7880
560.4	7866
560.6	7851
560.8	7830
561.0	7804
561.2	7774
561.4	7750
561.6	7726
561.8	7703
562.0	7678
562.2	7638
562.4	7604
562.6	7579
562.8	7552
563.0	7528
563.2	7506
563.4	7483
563.6	7457
563.8	7442
564.0	7414
564.2	7376
564.4	7340
564.6	7307
564.8	7275
565.0	7261
565.2	7239
565.4	7211
565.6	7184
565.8	7154
566.0	7128
566.2	7110
566.4	7091
566.6	7067
566.8	7043
567.0	7009
567.2	6973
567.4	6944
567.6	6920
567.8	6889
568.0	6868
568.2	6840
568.4	6811
568.6	6792
568.8	6772
569.0	6743
569.2	6718
569.4	6692
569.6	6661
569.8	6624
570.0	6589
570.2	6561
570.4	6541
570.6	6527
570.8	6505
571.0	6475
571.2	6449
571.4	6431
571.6	6407
571.8	6382
572.0	6352
572.2	6319
572.4	6290
572.6	6264
572.8	6235
573.0	6207
573.2	6183
573.4	6157
573.6	6140
573.8	6121
574.0	6106
574.2	6085
574.4	6062
574.6	6036
574.8	6006
575.0	5969
575.2	5940
575.4	5906
575.6	5885
575.8	5863
576.0	5831
576.2	5807
576.4	5779
576.6	5750
576.8	5728
577.0	5703
577.2	5676
577.4	5654
577.6	5627
577.8	5598
578.0	5575
578.2	5554
578.4	5533
578.6	5511
578.8	5483
579.0	5449
579.2	5426
579.4	5404
579.6	5388
579.8	5366
580.0	5344
580.2	5315
580.4	5289
580.6	5265
580.8	5242
581.0	5211
581.2	5190
581.4	5165
581.6	5147
581.8	5126
582.0	5102
582.2	5073
582.4	5044
582.6	5024
582.8	5000
583.0	4971
583.2	4947
583.4	4928
583.6	4910
583.8	4897
584.0	4868
584.2	4840
584.4	4812
584.6	4790
584.8	4768
585.0	4746
585.2	4721
585.4	4702
585.6	4684
585.8	4668
586.0	4650
586.2	4631
586.4	4610
586.6	4586
586.8	4563
587.0	4542
587.2	4514
587.4	4498
587.6	4475
587.8	4457
588.0	4436
588.2	4417
588.4	4391
588.6	4375
588.8	4356
589.0	4338
589.2	4318
589.4	4296
589.6	4275
589.8	4254
590.0	4231
590.2	4209
590.4	4186
590.6	4167
590.8	4151
591.0	4130
591.2	4107
591.4	4078
591.6	4052
591.8	4033
592.0	4015
592.2	3996
592.4	3979
592.6	3956
592.8	3939
593.0	3924
593.2	3906
593.4	3889
593.6	3867
593.8	3851
594.0	3835
594.2	3817
594.4	3794
594.6	3769
594.8	3750
595.0	3728
595.2	3715
595.4	3699
595.6	3677
595.8	3653
596.0	3637
596.2	3615
596.4	3601
596.6	3588
596.8	3571
597.0	3552
597.2	3539
597.4	3524
597.6	3503
597.8	3479
598.0	3456
598.2	3440
598.4	3429
598.6	3414
598.8	3397
599.0	3377
599.2	3356
599.4	3338
599.6	3323
599.8	3309
600.0	3290
600.2	3275
600.4	3254
600.6	3232
600.8	3217
601.0	3203
601.2	3185
601.4	3172
601.6	3152
601.8	3133
602.0	3116
602.2	3099
602.4	3085
602.6	3069
602.8	3047
603.0	3031
603.2	3016
603.4	3003
603.6	2990
603.8	2972
604.0	2951
604.2	2932
604.4	2914
604.6	2896
604.8	2879
605.0	2861
605.2	2846
605.4	2830
605.6	2822
605.8	2810
606.0	2796
606.2	2783
606.4	2766
606.6	2743
606.8	2729
607.0	2712
607.2	2697
607.4	2686
607.6	2673
607.8	2656
608.0	2640
608.2	2621
608.4	2606
608.6	2590
608.8	2576
609.0	2562
609.2	2550
609.4	2536
609.6	2522
609.8	2507
610.0	2489
610.2	2474
610.4	2460
610.6	2445
610.8	2429
611.0	2414
611.2	2396
611.4	2383
611.6	2370
611.8	2358
612.0	2341
612.2	2327
612.4	2312
612.6	2298
612.8	2288
613.0	2273
613.2	2256
613.4	2243
613.6	2234
613.8	2221
614.0	2213
614.2	2198
614.4	2182
614.6	2165
614.8	2153
615.0	2140
615.2	2129
615.4	2118
615.6	2107
615.8	2093
616.0	2081
616.2	2064
616.4	2048
616.6	2033
616.8	2019
617.0	2007
617.2	1995
617.4	1984
617.6	1973
617.8	1963
618.0	1952
618.2	1938
618.4	1922
618.6	1909
618.8	1895
619.0	1886
619.2	1877
619.4	1867
619.6	1856
619.8	1846
620.0	1833
620.2	1819
620.4	1806
620.6	1799
620.8	1787
621.0	1776
621.2	1761
621.4	1747
621.6	1734
621.8	1726
622.0	1716
622.2	1705
622.4	1695
622.6	1686
622.8	1673
623.0	1662
623.2	1652
623.4	1643
623.6	1635
623.8	1626
624.0	1613
624.2	1599
624.4	1585
624.6	1572
624.8	1564
625.0	1554
625.2	1542
625.4	1532
625.6	1526
625.8	1513
626.0	1506
626.2	1496
626.4	1485
626.6	1477
626.8	1472
627.0	1460
627.2	1453
627.4	1442
627.6	1432
627.8	1423
628.0	1412
628.2	1399
628.4	1388
628.6	1380
628.8	1370
629.0	1362
629.2	1352
629.4	1342
629.6	1333
629.8	1327
630.0	1317
630.2	1308
630.4	1300
630.6	1292
630.8	1283
631.0	1275
631.2	1266
631.4	1258
631.6	1250
631.8	1241
632.0	1234
632.2	1226
632.4	1218
632.6	1211
632.8	1198
633.0	1187
633.2	1180
633.4	1173
633.6	1169
633.8	1163
634.0	1154
634.2	1145
634.4	1137
634.6	1128
634.8	1121
635.0	1113
635.2	1107
635.4	1097
635.6	1090
635.8	1082
636.0	1075
636.2	1069
636.4	1063
636.6	1056
636.8	1049
637.0	1044
637.2	1037
637.4	1031
637.6	1024
637.8	1016
638.0	1006
638.2	1001
638.4	993.7
638.6	987.2
638.8	982.7
639.0	975.7
639.2	969.1
639.4	963.3
639.6	955.9
639.8	950.2
640.0	943.4
640.2	937.5
640.4	929.1
640.6	922.4
640.8	915.1
641.0	911.5
641.2	904.5
641.4	898.7
641.6	891.9
641.8	886.1
642.0	881.1
642.2	877.4
642.4	869.9
642.6	863.0
642.8	857.4
643.0	851.1
643.2	845.6
643.4	840.2
643.6	833.4
643.8	826.9
644.0	821.5
644.2	813.6
644.4	805.5
644.6	800.3
644.8	795.7
645.0	790.2
645.2	789.7
645.4	783.2
645.6	775.9
645.8	770.4
646.0	763.4
646.2	758.4
646.4	756.2
646.6	751.6
646.8	745.6
647.0	740.6
647.2	735.6
647.4	731.9
647.6	727.3
647.8	722.0
648.0	715.6
648.2	710.0
648.4	704.3
648.6	699.0
648.8	694.4
649.0	689.5
649.2	685.8
649.4	681.6
649.6	675.5
649.8	669.3
650.0	662.8
650.2	658.2
650.4	655.1
650.6	653.3
650.8	651.0
651.0	649.0
651.2	643.5
651.4	636.4
651.6	629.4
651.8	622.1
652.0	617.3
652.2	615.4
652.4	614.4
652.6	613.0
652.8	609.8
653.0	604.7
653.2	598.5
653.4	592.0
653.6	587.6
653.8	582.4
654.0	576.7
654.2	572.6
654.4	569.3
654.6	564.4
654.8	561.6
655.0	556.5
655.2	552.5
655.4	548.8
655.6	546.1
655.8	544.5
656.0	541.5
656.2	537.1
656.4	532.7
656.6	528.1
656.8	523.0
657.0	518.9
657.2	514.1
657.4	509.5
657.6	505.9
657.8	505.0
658.0	501.6
658.2	496.8
658.4	494.6
658.6	490.5
658.8	488.1
659.0	485.1
659.2	481.7
659.4	475.8
659.6	471.7
659.8	467.3
660.0	464.4
660.2	460.3
660.4	458.0
660.6	454.8
660.8	451.9
661.0	446.6
661.2	443.2
661.4	441.2
661.6	438.7
661.8	436.8
662.0	433.8
662.2	430.3
662.4	427.6
662.6	424.8
662.8	419.8
663.0	415.2
663.2	411.8
663.4	410.6
663.6	408.6
663.8	405.6
664.0	401.8
664.2	400.2
664.4	398.3
664.6	396.8
664.8	393.9
665.0	390.5
665.2	386.5
665.4	383.3
665.6	380.3
665.8	378.9
666.0	375.5
666.2	371.9
666.4	368.3
666.6	364.2
666.8	362.6
667.0	361.0
667.2	358.1
667.4	356.2
667.6	353.9
667.8	350.7
668.0	347.2
668.2	343.4
668.4	339.1
668.6	337.7
668.8	335.7
669.0	333.8
669.2	332.5
669.4	329.1
669.6	325.7
669.8	323.5
670.0	321.1
670.2	318.6
670.4	317.2
670.6	312.8
670.8	310.4
671.0	308.0
671.2	305.9
671.4	303.0
671.6	300.2
671.8	297.5
672.0	295.1
672.2	294.4
672.4	293.2
672.6	291.3
672.8	289.7
673.0	288.0
673.2	285.1
673.4	283.3
673.6	280.1
673.8	276.4
674.0	273.9
674.2	272.5
674.4	272.7
674.6	271.3
674.8	267.1
675.0	263.4
675.2	261.1
675.4	259.3
675.6	258.9
675.8	256.9
676.0	254.0
676.2	252.3
676.4	251.9
676.6	250.1
676.8	248.3
677.0	246.6
677.2	244.8
677.4	242.4
677.6	240.6
677.8	238.6
678.0	236.3
678.2	234.6
678.4	233.4
678.6	231.6
678.8	230.3
679.0	228.9
679.2	226.2
679.4	224.2
679.6	222.6
679.8	221.8
680.0	221.0
680.2	218.7
680.4	215.5
680.6	213.0
680.8	210.7
681.0	209.8
681.2	208.8
681.4	207.9
681.6	206.8
681.8	205.1
682.0	203.1
682.2	200.8
682.4	198.8
682.6	197.7
682.8	196.1
683.0	194.9
683.2	192.8
683.4	191.2
683.6	189.5
683.8	188.6
684.0	188.0
684.2	187.6
684.4	186.0
684.6	183.6
684.8	181.6
685.0	180.1
685.2	179.0
685.4	178.1
685.6	177.0
685.8	174.3
686.0	173.0
686.2	172.1
686.4	171.3
686.6	170.7
686.8	169.5
687.0	167.4
687.2	166.0
687.4	164.9
687.6	163.3
687.8	162.4
688.0	160.9
688.2	159.5
688.4	158.2
688.6	157.6
688.8	155.8
689.0	154.6
689.2	153.7
689.4	153.6
689.6	152.8
689.8	151.7
690.0	150.1
690.2	148.7
690.4	147.7
690.6	147.8
690.8	147.3
691.0	145.2
691.2	144.1
691.4	143.2
691.6	141.5
691.8	140.7
692.0	139.7
692.2	138.5
692.4	137.2
692.6	136.9
692.8	136.5
693.0	135.0
693.2	133.2
693.4	131.9
693.6	130.4
693.8	130.2
694.0	130.6
694.2	130.0
694.4	128.5
694.6	127.2
694.8	125.4
695.0	124.3
695.2	124.1
695.4	123.7
695.6	122.6
695.8	122.7
696.0	121.2
696.2	120.4
696.4	120.2
696.6	119.5
696.8	118.1
697.0	118.4
697.2	116.8
697.4	115.6
697.6	115.0
697.8	114.5
698.0	114.1
698.2	114.0
698.4	112.5
698.6	110.8
698.8	109.6
699.0	108.1
699.2	107.4
699.4	106.9
699.6	107.0
699.8	107.0
700.0	106.8
700.2	106.1
700.4	104.8
700.6	103.6
700.8	103.1
701.0	102.3
701.2	101.6
701.4	101.8
701.6	101.4
701.8	101.0
702.0	99.82
702.2	98.41
702.4	96.68
702.6	95.43
702.8	94.87
703.0	95.07
703.2	94.75
703.4	95.35
703.6	95.21
703.8	94.43
704.0	93.29
704.2	91.73
704.4	90.36
704.6	90.03
704.8	89.53
705.0	89.14
705.2	88.41
705.4	87.28
705.6	87.28
705.8	87.60
706.0	87.55
706.2	87.14
706.4	86.49
706.6	84.91
706.8	84.15
707.0	83.30
707.2	82.66
707.4	81.75
707.6	81.62
707.8	80.73
708.0	80.02
708.2	80.07
708.4	80.14
708.6	80.20
708.8	80.74
709.0	79.99
709.2	78.30
709.4	77.36
709.6	76.52
709.8	75.85
710.0	75.53
710.2	74.79
710.4	74.20
710.6	73.97
710.8	74.38
711.0	74.23
711.2	73.97
711.4	73.50
711.6	72.95
711.8	72.14
712.0	71.71
712.2	70.58
712.4	70.09
712.6	69.82
712.8	69.94
713.0	69.21
713.2	68.79
713.4	67.92
713.6	66.98
713.8	66.27
714.0	66.41
714.2	65.36
714.4	65.20
714.6	65.07
714.8	64.97
715.0	64.26
715.2	64.00
715.4	63.16
715.6	62.15
715.8	60.95
716.0	60.98
716.2	60.17
716.4	60.20
716.6	59.98
716.8	59.62
717.0	58.92
717.2	58.75
717.4	58.05
717.6	57.83
717.8	57.92
718.0	57.86
718.2	57.35
718.4	56.06
718.6	55.00
718.8	54.46
719.0	54.51
719.2	54.80
719.4	54.85
719.6	54.58
719.8	53.75
720.0	53.36
720.2	52.90
720.4	52.24
720.6	51.29
720.8	50.77
721.0	50.22
721.2	50.49
721.4	50.97
721.6	50.29
721.8	49.84
722.0	49.22
722.2	48.77
722.4	48.14
722.6	47.54
722.8	46.96
723.0	46.69
723.2	46.81
723.4	46.54
723.6	46.40
723.8	46.07
724.0	46.08
724.2	45.14
724.4	44.74
724.6	44.22
724.8	43.45
725.0	43.09
725.2	43.19
