Sample:	'20211010A(EM)
File name:	G-CDs 2.FDS
Run date:	'16:02:33, 06/10/2023
Operator:	Administrator
Comment:	'

Instrument
Model:	F-4700 FL Spectrophotometer
Serial number:	2019-001
ROM Version:	5J24010 00

Instrument parameters
Measurement type:	Wavelength scan
Scan mode:	Emission
Data mode:	Fluorescence
EX WL:	400.0 nm
EM  Start WL:	420.0 nm
EM  End WL:	800.0 nm
Scan speed:	1200 nm/min
Delay:	0.0 s
EX Slit:	10.0 nm
EM Slit:	10.0 nm
PMT Voltage:	460 V
Response:	0.002 s
Corrected spectra:	Off
Shutter control:	On

Processing performed
Savitsky-Golay smoothed
Smoothing order:	3
Number of points:	7
Number of times:	1

Peak integration
Integration method:	Rectangular
Sensitivity:	1
Threshold:	1.000

Peaks
No.	Start(nm)	Apex(nm)	End(nm)	Height(Data)	Valley(nm)	Valley(Data)
1	420.0	539.2	785.8	9519	785.8	6.095

Data points
nm	Data
420.0	61.46
420.2	62.65
420.4	63.09
420.6	63.12
420.8	63.20
421.0	63.41
421.2	63.84
421.4	64.44
421.6	64.79
421.8	65.19
422.0	65.80
422.2	66.49
422.4	67.16
422.6	67.63
422.8	68.25
423.0	68.73
423.2	68.98
423.4	68.94
423.6	68.63
423.8	69.27
424.0	70.11
424.2	71.73
424.4	72.59
424.6	72.71
424.8	72.37
425.0	72.65
425.2	73.31
425.4	73.91
425.6	74.68
425.8	74.77
426.0	74.48
426.2	74.80
426.4	75.35
426.6	75.34
426.8	76.27
427.0	76.99
427.2	77.48
427.4	78.16
427.6	78.78
427.8	78.34
428.0	79.09
428.2	79.68
428.4	80.13
428.6	80.61
428.8	81.78
429.0	81.65
429.2	82.15
429.4	82.48
429.6	82.71
429.8	82.70
430.0	82.83
430.2	82.60
430.4	83.16
430.6	84.31
430.8	85.19
431.0	85.97
431.2	85.90
431.4	86.23
431.6	87.04
431.8	88.15
432.0	88.36
432.2	89.29
432.4	90.51
432.6	91.17
432.8	91.76
433.0	92.12
433.2	91.66
433.4	91.33
433.6	91.59
433.8	91.69
434.0	92.24
434.2	93.56
434.4	94.67
434.6	95.32
434.8	95.81
435.0	96.14
435.2	95.84
435.4	96.89
435.6	97.12
435.8	97.81
436.0	98.27
436.2	98.74
436.4	99.33
436.6	101.2
436.8	102.0
437.0	102.2
437.2	102.2
437.4	103.6
437.6	104.4
437.8	105.9
438.0	107.0
438.2	106.7
438.4	107.1
438.6	107.7
438.8	107.7
439.0	108.4
439.2	109.2
439.4	110.1
439.6	111.0
439.8	111.3
440.0	111.9
440.2	112.6
440.4	113.3
440.6	114.7
440.8	115.1
441.0	116.4
441.2	117.3
441.4	118.5
441.6	119.5
441.8	120.9
442.0	121.1
442.2	121.4
442.4	120.9
442.6	121.4
442.8	121.7
443.0	122.3
443.2	123.2
443.4	124.9
443.6	125.4
443.8	126.5
444.0	126.8
444.2	126.3
444.4	126.4
444.6	127.7
444.8	127.9
445.0	128.7
445.2	129.5
445.4	130.0
445.6	130.3
445.8	131.6
446.0	131.7
446.2	132.4
446.4	133.2
446.6	133.1
446.8	133.1
447.0	135.0
447.2	135.5
447.4	136.0
447.6	136.0
447.8	135.8
448.0	136.2
448.2	137.9
448.4	139.2
448.6	139.5
448.8	139.0
449.0	139.1
449.2	139.8
449.4	141.5
449.6	142.7
449.8	142.5
450.0	141.5
450.2	140.8
450.4	141.2
450.6	142.4
450.8	143.4
451.0	144.0
451.2	144.4
451.4	144.0
451.6	144.6
451.8	145.2
452.0	145.2
452.2	145.6
452.4	146.4
452.6	146.2
452.8	146.9
453.0	147.5
453.2	147.8
453.4	148.7
453.6	149.0
453.8	148.9
454.0	149.4
454.2	150.4
454.4	151.5
454.6	151.7
454.8	150.8
455.0	151.0
455.2	151.8
455.4	154.0
455.6	155.4
455.8	155.5
456.0	155.6
456.2	156.1
456.4	157.1
456.6	158.3
456.8	158.8
457.0	157.4
457.2	158.0
457.4	158.6
457.6	161.1
457.8	162.4
458.0	163.5
458.2	163.5
458.4	164.5
458.6	165.3
458.8	167.4
459.0	168.4
459.2	169.7
459.4	170.6
459.6	171.9
459.8	173.0
460.0	174.7
460.2	175.6
460.4	177.8
460.6	179.0
460.8	181.4
461.0	183.3
461.2	185.5
461.4	187.2
461.6	189.9
461.8	191.6
462.0	193.5
462.2	195.0
462.4	198.0
462.6	200.5
462.8	201.9
463.0	203.8
463.2	207.1
463.4	211.2
463.6	215.3
463.8	218.6
464.0	219.5
464.2	222.1
464.4	226.0
464.6	230.5
464.8	233.4
465.0	237.3
465.2	239.9
465.4	242.5
465.6	245.1
465.8	248.2
466.0	252.6
466.2	257.8
466.4	263.0
466.6	267.5
466.8	271.8
467.0	274.3
467.2	280.0
467.4	285.5
467.6	291.1
467.8	295.4
468.0	300.1
468.2	303.9
468.4	309.5
468.6	315.5
468.8	321.0
469.0	325.7
469.2	331.2
469.4	337.2
469.6	343.2
469.8	349.8
470.0	355.3
470.2	360.2
470.4	366.4
470.6	373.5
470.8	382.7
471.0	390.4
471.2	397.2
471.4	402.5
471.6	408.4
471.8	415.3
472.0	422.7
472.2	431.1
472.4	438.2
472.6	446.0
472.8	453.5
473.0	462.3
473.2	469.3
473.4	478.4
473.6	484.9
473.8	492.2
474.0	500.5
474.2	508.2
474.4	516.6
474.6	525.6
474.8	534.7
475.0	541.4
475.2	548.7
475.4	556.6
475.6	565.6
475.8	577.3
476.0	588.8
476.2	597.4
476.4	605.6
476.6	617.1
476.8	624.8
477.0	634.0
477.2	642.8
477.4	654.3
477.6	665.2
477.8	678.3
478.0	686.6
478.2	692.2
478.4	697.9
478.6	709.5
478.8	721.6
479.0	736.1
479.2	746.1
479.4	756.3
479.6	766.8
479.8	779.6
480.0	791.6
480.2	804.6
480.4	815.5
480.6	825.7
480.8	838.0
481.0	848.1
481.2	857.7
481.4	869.1
481.6	882.6
481.8	896.5
482.0	912.6
482.2	927.1
482.4	941.2
482.6	952.8
482.8	964.4
483.0	976.9
483.2	990.4
483.4	1005
483.6	1020
483.8	1036
484.0	1049
484.2	1064
484.4	1078
484.6	1092
484.8	1109
485.0	1126
485.2	1141
485.4	1157
485.6	1170
485.8	1189
486.0	1205
486.2	1222
486.4	1240
486.6	1254
486.8	1269
487.0	1288
487.2	1302
487.4	1322
487.6	1342
487.8	1362
488.0	1381
488.2	1404
488.4	1425
488.6	1446
488.8	1464
489.0	1481
489.2	1502
489.4	1527
489.6	1553
489.8	1578
490.0	1601
490.2	1622
490.4	1647
490.6	1672
490.8	1698
491.0	1722
491.2	1743
491.4	1765
491.6	1791
491.8	1819
492.0	1849
492.2	1875
492.4	1898
492.6	1921
492.8	1945
493.0	1973
493.2	2006
493.4	2038
493.6	2067
493.8	2097
494.0	2125
494.2	2156
494.4	2189
494.6	2221
494.8	2249
495.0	2285
495.2	2319
495.4	2353
495.6	2387
495.8	2423
496.0	2457
496.2	2495
496.4	2530
496.6	2566
496.8	2600
497.0	2640
497.2	2678
497.4	2712
497.6	2743
497.8	2780
498.0	2814
498.2	2857
498.4	2904
498.6	2943
498.8	2985
499.0	3030
499.2	3064
499.4	3101
499.6	3147
499.8	3192
500.0	3239
500.2	3289
500.4	3330
500.6	3374
500.8	3417
501.0	3465
501.2	3506
501.4	3554
501.6	3595
501.8	3643
502.0	3686
502.2	3735
502.4	3775
502.6	3825
502.8	3863
503.0	3908
503.2	3955
503.4	4006
503.6	4051
503.8	4102
504.0	4147
504.2	4195
504.4	4247
504.6	4305
504.8	4356
505.0	4408
505.2	4457
505.4	4502
505.6	4553
505.8	4609
506.0	4656
506.2	4703
506.4	4755
506.6	4801
506.8	4855
507.0	4910
507.2	4956
507.4	5010
507.6	5060
507.8	5100
508.0	5144
508.2	5189
508.4	5238
508.6	5293
508.8	5347
509.0	5403
509.2	5456
509.4	5507
509.6	5555
509.8	5600
510.0	5650
510.2	5701
510.4	5751
510.6	5805
510.8	5856
511.0	5904
511.2	5952
511.4	5997
511.6	6041
511.8	6097
512.0	6148
512.2	6196
512.4	6247
512.6	6291
512.8	6335
513.0	6383
513.2	6422
513.4	6473
513.6	6527
513.8	6577
514.0	6628
514.2	6675
514.4	6713
514.6	6760
514.8	6800
515.0	6847
515.2	6890
515.4	6932
515.6	6973
515.8	7019
516.0	7061
516.2	7108
516.4	7149
516.6	7194
516.8	7241
517.0	7289
517.2	7337
517.4	7387
517.6	7422
517.8	7461
518.0	7497
518.2	7527
518.4	7559
518.6	7607
518.8	7647
519.0	7693
519.2	7744
519.4	7781
519.6	7817
519.8	7852
520.0	7892
520.2	7933
520.4	7972
520.6	8010
520.8	8052
521.0	8089
521.2	8125
521.4	8158
521.6	8169
521.8	8199
522.0	8236
522.2	8279
522.4	8321
522.6	8365
522.8	8383
523.0	8413
523.2	8438
523.4	8474
523.6	8500
523.8	8529
524.0	8551
524.2	8574
524.4	8601
524.6	8633
524.8	8660
525.0	8696
525.2	8739
525.4	8765
525.6	8797
525.8	8816
526.0	8833
526.2	8852
526.4	8884
526.6	8901
526.8	8930
527.0	8957
527.2	8976
527.4	8988
527.6	9004
527.8	9019
528.0	9048
528.2	9086
528.4	9115
528.6	9136
528.8	9140
529.0	9145
529.2	9157
529.4	9178
529.6	9198
529.8	9222
530.0	9234
530.2	9257
530.4	9282
530.6	9307
530.8	9318
531.0	9327
531.2	9328
531.4	9336
531.6	9342
531.8	9360
532.0	9371
532.2	9388
532.4	9398
532.6	9398
532.8	9401
533.0	9414
533.2	9429
533.4	9448
533.6	9462
533.8	9469
534.0	9475
534.2	9477
534.4	9476
534.6	9478
534.8	9476
535.0	9486
535.2	9488
535.4	9497
535.6	9498
535.8	9500
536.0	9500
536.2	9512
536.4	9508
536.6	9505
536.8	9507
537.0	9508
537.2	9507
537.4	9511
537.6	9509
537.8	9509
538.0	9519
538.2	9512
538.4	9508
538.6	9504
538.8	9514
539.0	9519
539.2	9519
539.4	9508
539.6	9498
539.8	9496
540.0	9494
540.2	9482
540.4	9476
540.6	9466
540.8	9454
541.0	9445
541.2	9440
541.4	9423
541.6	9422
541.8	9423
542.0	9423
542.2	9416
542.4	9413
542.6	9386
542.8	9376
543.0	9363
543.2	9349
543.4	9349
543.6	9352
543.8	9342
544.0	9338
544.2	9319
544.4	9292
544.6	9278
544.8	9274
545.0	9267
545.2	9262
545.4	9259
545.6	9245
545.8	9226
546.0	9207
546.2	9182
546.4	9168
546.6	9158
546.8	9157
547.0	9147
547.2	9132
547.4	9115
547.6	9093
547.8	9066
548.0	9043
548.2	9015
548.4	8996
548.6	8989
548.8	8982
549.0	8969
549.2	8950
549.4	8924
549.6	8910
549.8	8891
550.0	8879
550.2	8857
550.4	8834
550.6	8813
550.8	8797
551.0	8777
551.2	8770
551.4	8756
551.6	8731
551.8	8710
552.0	8686
552.2	8655
552.4	8639
552.6	8619
552.8	8592
553.0	8571
553.2	8556
553.4	8537
553.6	8526
553.8	8512
554.0	8489
554.2	8451
554.4	8426
554.6	8408
554.8	8392
555.0	8380
555.2	8358
555.4	8327
555.6	8302
555.8	8278
556.0	8249
556.2	8220
556.4	8201
556.6	8178
556.8	8153
557.0	8130
557.2	8104
557.4	8081
557.6	8070
557.8	8045
558.0	8021
558.2	7998
558.4	7975
558.6	7958
558.8	7937
559.0	7912
559.2	7896
559.4	7865
559.6	7839
559.8	7811
560.0	7782
560.2	7758
560.4	7735
560.6	7709
560.8	7689
561.0	7664
561.2	7632
561.4	7605
561.6	7576
561.8	7553
562.0	7526
562.2	7497
562.4	7469
562.6	7447
562.8	7422
563.0	7400
563.2	7368
563.4	7336
563.6	7316
563.8	7295
564.0	7270
564.2	7250
564.4	7215
564.6	7188
564.8	7169
565.0	7140
565.2	7113
565.4	7081
565.6	7049
565.8	7029
566.0	7015
566.2	6981
566.4	6958
566.6	6924
566.8	6897
567.0	6881
567.2	6862
567.4	6829
567.6	6802
567.8	6761
568.0	6730
568.2	6708
568.4	6691
568.6	6675
568.8	6654
569.0	6623
569.2	6601
569.4	6567
569.6	6543
569.8	6522
570.0	6493
570.2	6472
570.4	6445
570.6	6412
570.8	6383
571.0	6354
571.2	6330
571.4	6303
571.6	6282
571.8	6259
572.0	6237
572.2	6210
572.4	6186
572.6	6155
572.8	6131
573.0	6107
573.2	6087
573.4	6062
573.6	6036
573.8	6007
574.0	5974
574.2	5948
574.4	5926
574.6	5903
574.8	5876
575.0	5846
575.2	5819
575.4	5795
575.6	5778
575.8	5754
576.0	5724
576.2	5694
576.4	5663
576.6	5639
576.8	5626
577.0	5605
577.2	5584
577.4	5562
577.6	5531
577.8	5506
578.0	5472
578.2	5439
578.4	5413
578.6	5393
578.8	5375
579.0	5362
579.2	5342
579.4	5316
579.6	5285
579.8	5262
580.0	5234
580.2	5217
580.4	5199
580.6	5177
580.8	5147
581.0	5129
581.2	5096
581.4	5076
581.6	5058
581.8	5036
582.0	5010
582.2	4994
582.4	4968
582.6	4947
582.8	4932
583.0	4906
583.2	4882
583.4	4855
583.6	4831
583.8	4805
584.0	4786
584.2	4766
584.4	4742
584.6	4715
584.8	4690
585.0	4666
585.2	4652
585.4	4635
585.6	4612
585.8	4591
586.0	4570
586.2	4549
586.4	4530
586.6	4505
586.8	4480
587.0	4455
587.2	4438
587.4	4420
587.6	4402
587.8	4385
588.0	4365
588.2	4341
588.4	4323
588.6	4300
588.8	4281
589.0	4262
589.2	4242
589.4	4223
589.6	4201
589.8	4175
590.0	4153
590.2	4129
590.4	4110
590.6	4092
590.8	4074
591.0	4052
591.2	4031
591.4	4009
591.6	3985
591.8	3972
592.0	3955
592.2	3936
592.4	3923
592.6	3905
592.8	3881
593.0	3865
593.2	3841
593.4	3821
593.6	3800
593.8	3779
594.0	3757
594.2	3739
594.4	3722
594.6	3709
594.8	3691
595.0	3673
595.2	3655
595.4	3633
595.6	3611
595.8	3592
596.0	3574
596.2	3556
596.4	3545
596.6	3529
596.8	3518
597.0	3500
597.2	3479
597.4	3460
597.6	3439
597.8	3426
598.0	3415
598.2	3397
598.4	3377
598.6	3357
598.8	3335
599.0	3320
599.2	3303
599.4	3285
599.6	3268
599.8	3251
600.0	3237
600.2	3219
600.4	3204
600.6	3185
600.8	3169
601.0	3153
601.2	3137
601.4	3120
601.6	3106
601.8	3092
602.0	3078
602.2	3064
602.4	3051
602.6	3030
602.8	3010
603.0	2990
603.2	2969
603.4	2958
603.6	2941
603.8	2922
604.0	2901
604.2	2882
604.4	2868
604.6	2855
604.8	2842
605.0	2833
605.2	2817
605.4	2802
605.6	2783
605.8	2760
606.0	2741
606.2	2729
606.4	2716
606.6	2708
606.8	2693
607.0	2680
607.2	2662
607.4	2648
607.6	2629
607.8	2611
608.0	2592
608.2	2576
608.4	2563
608.6	2552
608.8	2535
609.0	2520
609.2	2506
609.4	2494
609.6	2486
609.8	2469
610.0	2452
610.2	2434
610.4	2419
610.6	2402
610.8	2388
611.0	2370
611.2	2354
611.4	2343
611.6	2332
611.8	2315
612.0	2304
612.2	2289
612.4	2276
612.6	2266
612.8	2254
613.0	2242
613.2	2229
613.4	2214
613.6	2200
613.8	2184
614.0	2173
614.2	2159
614.4	2147
614.6	2135
614.8	2123
615.0	2111
615.2	2100
615.4	2083
615.6	2071
615.8	2057
616.0	2045
616.2	2032
616.4	2020
616.6	2006
616.8	1994
617.0	1981
617.2	1969
617.4	1956
617.6	1945
617.8	1933
618.0	1922
618.2	1908
618.4	1896
618.6	1884
618.8	1872
619.0	1857
619.2	1846
619.4	1833
619.6	1824
619.8	1815
620.0	1802
620.2	1785
620.4	1772
620.6	1763
620.8	1758
621.0	1750
621.2	1740
621.4	1726
621.6	1712
621.8	1698
622.0	1689
622.2	1680
622.4	1671
622.6	1664
622.8	1654
623.0	1640
623.2	1630
623.4	1622
623.6	1611
623.8	1602
624.0	1593
624.2	1581
624.4	1570
624.6	1557
624.8	1545
625.0	1536
625.2	1527
625.4	1517
625.6	1506
625.8	1494
626.0	1484
626.2	1475
626.4	1467
626.6	1457
626.8	1449
627.0	1436
627.2	1424
627.4	1412
627.6	1404
627.8	1394
628.0	1386
628.2	1377
628.4	1370
628.6	1360
628.8	1352
629.0	1344
629.2	1337
629.4	1326
629.6	1317
629.8	1305
630.0	1296
630.2	1289
630.4	1284
630.6	1275
630.8	1268
631.0	1262
631.2	1255
631.4	1248
631.6	1240
631.8	1229
632.0	1217
632.2	1205
632.4	1196
632.6	1190
632.8	1182
633.0	1177
633.2	1168
633.4	1157
633.6	1150
633.8	1142
634.0	1135
634.2	1127
634.4	1119
634.6	1109
634.8	1103
635.0	1097
635.2	1092
635.4	1082
635.6	1073
635.8	1065
636.0	1058
636.2	1052
636.4	1047
636.6	1038
636.8	1031
637.0	1025
637.2	1018
637.4	1012
637.6	1005
637.8	997.5
638.0	992.6
638.2	986.1
638.4	979.5
638.6	971.6
638.8	962.7
639.0	956.3
639.2	952.0
639.4	946.9
639.6	940.9
639.8	936.1
640.0	928.0
640.2	920.1
640.4	915.8
640.6	909.5
640.8	903.5
641.0	899.7
641.2	894.4
641.4	886.9
641.6	880.8
641.8	871.5
642.0	865.4
642.2	860.2
642.4	855.4
642.6	850.3
642.8	844.0
643.0	836.8
643.2	833.0
643.4	827.1
643.6	821.8
643.8	817.8
644.0	811.9
644.2	806.0
644.4	800.4
644.6	793.5
644.8	786.5
645.0	782.3
645.2	777.4
645.4	770.5
645.6	764.8
645.8	759.3
646.0	755.2
646.2	752.0
646.4	747.7
646.6	742.4
646.8	737.5
647.0	730.5
647.2	724.7
647.4	718.1
647.6	712.4
647.8	707.4
648.0	702.6
648.2	698.2
648.4	692.5
648.6	688.6
648.8	685.2
649.0	680.6
649.2	676.5
649.4	672.4
649.6	666.0
649.8	660.9
650.0	656.7
650.2	651.4
650.4	647.6
650.6	642.2
650.8	637.2
651.0	633.3
651.2	630.2
651.4	626.6
651.6	622.5
651.8	617.0
652.0	613.1
652.2	608.4
652.4	604.3
652.6	600.6
652.8	595.8
653.0	591.3
653.2	588.2
653.4	584.2
653.6	578.3
653.8	574.4
654.0	570.0
654.2	567.0
654.4	563.4
654.6	560.1
654.8	555.2
655.0	551.1
655.2	547.4
655.4	545.3
655.6	540.0
655.8	534.8
656.0	532.3
656.2	527.1
656.4	525.8
656.6	524.1
656.8	519.7
657.0	512.8
657.2	508.0
657.4	503.4
657.6	501.4
657.8	499.8
658.0	497.4
658.2	491.7
658.4	485.6
658.6	482.4
658.8	478.2
659.0	475.8
659.2	472.9
659.4	469.7
659.6	466.5
659.8	463.7
660.0	460.1
660.2	457.7
660.4	455.3
660.6	452.1
660.8	449.2
661.0	444.2
661.2	440.2
661.4	435.7
661.6	433.5
661.8	430.2
662.0	427.6
662.2	424.3
662.4	420.6
662.6	416.0
662.8	413.6
663.0	411.1
663.2	407.9
663.4	404.2
663.6	400.6
663.8	397.7
664.0	396.8
664.2	394.4
664.4	391.3
664.6	387.2
664.8	383.8
665.0	381.2
665.2	379.7
665.4	375.8
665.6	372.9
665.8	369.0
666.0	365.3
666.2	363.4
666.4	361.8
666.6	359.7
666.8	356.6
667.0	353.1
667.2	349.8
667.4	347.7
667.6	346.5
667.8	344.5
668.0	340.1
668.2	337.3
668.4	334.4
668.6	331.1
668.8	328.9
669.0	327.5
669.2	325.1
669.4	322.7
669.6	320.9
669.8	318.6
670.0	317.1
670.2	315.7
670.4	312.9
670.6	308.8
670.8	305.2
671.0	302.6
671.2	301.3
671.4	299.5
671.6	297.7
671.8	296.3
672.0	293.8
672.2	291.9
672.4	289.9
672.6	287.9
672.8	285.3
673.0	282.9
673.2	281.1
673.4	279.0
673.6	276.5
673.8	273.2
674.0	270.9
674.2	268.2
674.4	267.1
674.6	266.1
674.8	263.6
675.0	260.2
675.2	258.5
675.4	256.3
675.6	254.9
675.8	253.5
676.0	251.4
676.2	250.0
676.4	249.0
676.6	247.5
676.8	245.1
677.0	242.8
677.2	240.8
677.4	238.5
677.6	236.1
677.8	234.6
678.0	233.1
678.2	231.6
678.4	230.4
678.6	227.7
678.8	226.0
679.0	224.7
679.2	223.2
679.4	221.6
679.6	219.5
679.8	217.3
680.0	216.6
680.2	215.4
680.4	213.2
680.6	211.9
680.8	210.1
681.0	208.6
681.2	207.5
681.4	206.4
681.6	204.2
681.8	202.4
682.0	201.4
682.2	198.8
682.4	195.8
682.6	194.3
682.8	193.0
683.0	192.1
683.2	191.3
683.4	189.5
683.6	187.5
683.8	185.8
684.0	184.7
684.2	184.4
684.4	183.3
684.6	182.1
684.8	180.3
685.0	178.8
685.2	177.7
685.4	177.0
685.6	175.4
685.8	173.2
686.0	170.5
686.2	170.2
686.4	169.0
686.6	168.3
686.8	167.7
687.0	166.7
687.2	165.7
687.4	164.6
687.6	162.3
687.8	160.1
688.0	159.3
688.2	158.7
688.4	157.8
688.6	155.3
688.8	153.1
689.0	151.8
689.2	151.9
689.4	151.8
689.6	150.9
689.8	149.5
690.0	148.6
690.2	147.3
690.4	145.7
690.6	144.0
690.8	141.6
691.0	141.1
691.2	140.7
691.4	140.2
691.6	139.8
691.8	139.2
692.0	138.1
692.2	137.4
692.4	136.4
692.6	135.7
692.8	134.9
693.0	133.1
693.2	132.2
693.4	130.8
693.6	130.3
693.8	129.9
694.0	128.8
694.2	127.0
694.4	126.0
694.6	124.8
694.8	123.9
695.0	123.7
695.2	122.6
695.4	121.7
695.6	120.9
695.8	120.3
696.0	119.6
696.2	119.1
696.4	117.6
696.6	116.1
696.8	115.0
697.0	113.7
697.2	113.2
697.4	112.7
697.6	111.9
697.8	111.3
698.0	111.4
698.2	110.5
698.4	110.4
698.6	109.6
698.8	108.5
699.0	107.7
699.2	106.8
699.4	105.8
699.6	105.4
699.8	104.7
700.0	104.1
700.2	103.7
700.4	102.8
700.6	102.0
700.8	101.4
701.0	100.8
701.2	100.2
701.4	99.98
701.6	100.3
701.8	99.66
702.0	98.37
702.2	96.61
702.4	95.35
702.6	94.57
702.8	94.89
703.0	94.89
703.2	94.46
703.4	94.01
703.6	94.26
703.8	93.81
704.0	93.12
704.2	92.84
704.4	91.88
704.6	90.47
704.8	89.22
705.0	87.89
705.2	87.44
705.4	87.60
705.6	87.51
705.8	87.17
706.0	86.96
706.2	86.77
706.4	86.77
706.6	85.63
706.8	84.00
707.0	82.91
707.2	82.53
707.4	82.56
707.6	82.17
707.8	81.84
708.0	81.08
708.2	80.34
708.4	79.13
708.6	78.69
708.8	77.24
709.0	77.07
709.2	77.07
709.4	76.84
709.6	76.50
709.8	76.56
710.0	75.42
710.2	74.67
710.4	74.31
710.6	73.46
710.8	73.30
711.0	72.93
711.2	72.45
711.4	71.49
711.6	71.26
711.8	70.78
712.0	70.68
712.2	70.47
712.4	70.35
712.6	69.57
712.8	68.64
713.0	67.67
713.2	66.74
713.4	66.29
713.6	66.44
713.8	66.33
714.0	65.84
714.2	65.50
714.4	64.91
714.6	64.49
714.8	64.84
715.0	64.29
715.2	64.21
715.4	63.18
715.6	62.64
715.8	61.76
716.0	61.47
716.2	60.83
716.4	60.44
716.6	59.37
716.8	59.00
717.0	58.64
717.2	58.39
717.4	57.98
717.6	56.97
717.8	56.31
718.0	56.01
718.2	56.16
718.4	55.70
718.6	54.83
718.8	54.47
719.0	54.25
719.2	54.21
719.4	54.17
719.6	53.74
719.8	53.35
720.0	53.12
720.2	52.32
720.4	51.85
720.6	51.21
720.8	51.11
721.0	50.81
721.2	50.46
721.4	49.33
721.6	48.92
721.8	48.27
722.0	48.48
722.2	48.08
722.4	48.03
722.6	47.39
722.8	47.03
723.0	46.67
723.2	47.03
723.4	46.47
723.6	46.04
723.8	45.58
724.0	44.81
724.2	44.27
724.4	44.68
724.6	44.58
724.8	44.51
725.0	44.63
725.2	43.88
725.4	43.01
725.6	42.69
