Sample:	'20211010A(EM)
File name:	100.FDS
Run date:	'16:21:20, 03/23/2023
Operator:	Administrator
Comment:	'

Instrument
Model:	F-4700 FL Spectrophotometer
Serial number:	2019-001
ROM Version:	5J24010 00

Instrument parameters
Measurement type:	Wavelength scan
Scan mode:	Emission
Data mode:	Fluorescence
EX WL:	530.0 nm
EM  Start WL:	550.0 nm
EM  End WL:	900.0 nm
Scan speed:	1200 nm/min
Delay:	0.0 s
EX Slit:	10.0 nm
EM Slit:	10.0 nm
PMT Voltage:	660 V
Response:	0.002 s
Corrected spectra:	Off
Shutter control:	On

Processing performed
Savitsky-Golay smoothed
Smoothing order:	3
Number of points:	7
Number of times:	1

Peak integration
Integration method:	Rectangular
Sensitivity:	1
Threshold:	1.000

Peaks
No.	Start(nm)	Apex(nm)	End(nm)	Height(Data)	Valley(nm)	Valley(Data)
1	550.0	623.2	624.2	5867	624.2	5782
2	624.2	625.2	626.8	5841	626.8	5772
3	626.8	628.0	753.8	5805	753.8	249.2
4	753.8	754.4	785.6	256.9	785.6	90.63
5	785.6	786.6	788.8	94.01	788.8	85.33
6	788.8	789.6	794.6	87.09	794.6	74.49
7	794.6	795.2	799.6	78.75	799.6	68.51
8	799.6	800.2	801.8	73.21	801.8	65.11
9	801.8	802.8	805.0	68.41	805.0	60.16
10	805.0	806.4	809.2	65.50	809.2	56.06
11	809.2	809.8	812.2	58.62	812.2	51.82
12	812.2	813.8	822.4	54.69	822.4	39.32
13	822.4	822.8	825.0	40.53	825.0	37.61
14	825.0	825.8	831.0	39.42	831.0	28.37
15	831.0	831.6	832.6	30.68	832.6	25.60
16	832.6	833.2	844.0	28.55	844.0	14.71
17	844.0	844.6	848.0	16.73	848.0	10.02
18	848.0	849.0	854.6	11.58	854.6	5.519
19	854.6	855.2	855.8	7.446	855.8	5.268
20	855.8	856.4	867.4	6.537	867.4	2.910
21	867.4	869.2	871.2	4.274	871.2	2.674
22	871.2	871.6	881.0	3.866	881.0	2.074
23	881.0	886.6	887.2	3.410	887.2	2.142
24	887.2	894.6	900.0	3.268	900.0	1.895

Data points
nm	Data
550.0	284.0
550.2	296.0
550.4	302.3
550.6	305.2
550.8	307.5
551.0	310.1
551.2	311.8
551.4	315.8
551.6	322.2
551.8	325.4
552.0	332.8
552.2	340.4
552.4	347.5
552.6	351.2
552.8	353.8
553.0	353.5
553.2	356.9
553.4	361.9
553.6	370.4
553.8	379.5
554.0	385.8
554.2	394.4
554.4	399.1
554.6	403.3
554.8	406.1
555.0	412.3
555.2	416.7
555.4	425.7
555.6	433.4
555.8	443.5
556.0	446.2
556.2	452.1
556.4	461.1
556.6	471.5
556.8	482.2
557.0	488.0
557.2	487.1
557.4	492.7
557.6	501.6
557.8	511.1
558.0	520.7
558.2	528.1
558.4	532.5
558.6	540.5
558.8	545.5
559.0	550.1
559.2	556.1
559.4	569.1
559.6	579.2
559.8	590.3
560.0	596.1
560.2	608.8
560.4	617.2
560.6	632.5
560.8	641.6
561.0	645.1
561.2	650.6
561.4	662.4
561.6	673.6
561.8	689.9
562.0	700.9
562.2	708.3
562.4	716.0
562.6	727.4
562.8	736.2
563.0	748.5
563.2	761.5
563.4	772.2
563.6	780.1
563.8	793.0
564.0	798.4
564.2	806.7
564.4	816.8
564.6	829.5
564.8	843.9
565.0	861.7
565.2	873.4
565.4	882.1
565.6	890.5
565.8	907.1
566.0	921.7
566.2	929.4
566.4	940.7
566.6	946.6
566.8	956.4
567.0	972.6
567.2	990.4
567.4	1003
567.6	1021
567.8	1024
568.0	1032
568.2	1046
568.4	1065
568.6	1088
568.8	1107
569.0	1113
569.2	1116
569.4	1127
569.6	1149
569.8	1173
570.0	1194
570.2	1210
570.4	1223
570.6	1227
570.8	1244
571.0	1256
571.2	1267
571.4	1286
571.6	1307
571.8	1328
572.0	1355
572.2	1371
572.4	1384
572.6	1401
572.8	1413
573.0	1435
573.2	1452
573.4	1462
573.6	1473
573.8	1494
574.0	1512
574.2	1535
574.4	1548
574.6	1558
574.8	1578
575.0	1606
575.2	1625
575.4	1646
575.6	1657
575.8	1667
576.0	1690
576.2	1716
576.4	1727
576.6	1742
576.8	1755
577.0	1781
577.2	1816
577.4	1851
577.6	1866
577.8	1870
578.0	1874
578.2	1893
578.4	1915
578.6	1935
578.8	1954
579.0	1967
579.2	1993
579.4	2028
579.6	2048
579.8	2067
580.0	2091
580.2	2115
580.4	2150
580.6	2171
580.8	2188
581.0	2207
581.2	2231
581.4	2252
581.6	2277
581.8	2282
582.0	2302
582.2	2316
582.4	2340
582.6	2365
582.8	2392
583.0	2418
583.2	2445
583.4	2455
583.6	2472
583.8	2490
584.0	2514
584.2	2545
584.4	2570
584.6	2595
584.8	2623
585.0	2646
585.2	2678
585.4	2699
585.6	2723
585.8	2757
586.0	2785
586.2	2798
586.4	2820
586.6	2840
586.8	2870
587.0	2902
587.2	2925
587.4	2933
587.6	2943
587.8	2959
588.0	2984
588.2	3018
588.4	3047
588.6	3072
588.8	3095
589.0	3116
589.2	3136
589.4	3166
589.6	3202
589.8	3231
590.0	3259
590.2	3286
590.4	3309
590.6	3329
590.8	3359
591.0	3379
591.2	3405
591.4	3430
591.6	3446
591.8	3467
592.0	3494
592.2	3516
592.4	3554
592.6	3581
592.8	3598
593.0	3621
593.2	3636
593.4	3649
593.6	3664
593.8	3694
594.0	3731
594.2	3764
594.4	3799
594.6	3807
594.8	3817
595.0	3837
595.2	3863
595.4	3892
595.6	3932
595.8	3940
596.0	3975
596.2	3998
596.4	4030
596.6	4054
596.8	4082
597.0	4101
597.2	4137
597.4	4156
597.6	4174
597.8	4205
598.0	4225
598.2	4239
598.4	4266
598.6	4286
598.8	4296
599.0	4327
599.2	4347
599.4	4355
599.6	4374
599.8	4383
600.0	4413
600.2	4446
600.4	4479
600.6	4498
600.8	4527
601.0	4553
601.2	4585
601.4	4620
601.6	4635
601.8	4654
602.0	4670
602.2	4694
602.4	4698
602.6	4720
602.8	4740
603.0	4765
603.2	4776
603.4	4792
603.6	4800
603.8	4818
604.0	4845
604.2	4848
604.4	4861
604.6	4881
604.8	4903
605.0	4931
605.2	4956
605.4	4974
605.6	4998
605.8	5027
606.0	5046
606.2	5062
606.4	5072
606.6	5084
606.8	5112
607.0	5123
607.2	5136
607.4	5145
607.6	5145
607.8	5161
608.0	5200
608.2	5236
608.4	5261
608.6	5283
608.8	5283
609.0	5301
609.2	5313
609.4	5330
609.6	5325
609.8	5339
610.0	5353
610.2	5382
610.4	5406
610.6	5423
610.8	5429
611.0	5419
611.2	5424
611.4	5438
611.6	5475
611.8	5502
612.0	5525
612.2	5502
612.4	5490
612.6	5496
612.8	5514
613.0	5529
613.2	5558
613.4	5567
613.6	5579
613.8	5583
614.0	5581
614.2	5588
614.4	5609
614.6	5621
614.8	5645
615.0	5655
615.2	5660
615.4	5659
615.6	5664
615.8	5651
616.0	5666
616.2	5682
616.4	5700
616.6	5710
616.8	5727
617.0	5731
617.2	5746
617.4	5749
617.6	5757
617.8	5763
618.0	5764
618.2	5765
618.4	5775
618.6	5771
618.8	5769
619.0	5761
619.2	5768
619.4	5783
619.6	5797
619.8	5798
620.0	5799
620.2	5786
620.4	5785
620.6	5797
620.8	5814
621.0	5818
621.2	5823
621.4	5829
621.6	5828
621.8	5835
622.0	5848
622.2	5829
622.4	5825
622.6	5833
622.8	5845
623.0	5855
623.2	5867
623.4	5852
623.6	5835
623.8	5817
624.0	5805
624.2	5782
624.4	5788
624.6	5805
624.8	5811
625.0	5830
625.2	5841
625.4	5822
625.6	5815
625.8	5818
626.0	5810
626.2	5803
626.4	5798
626.6	5779
626.8	5772
627.0	5777
627.2	5777
627.4	5781
627.6	5793
627.8	5792
628.0	5805
628.2	5804
628.4	5784
628.6	5761
628.8	5748
629.0	5725
629.2	5714
629.4	5717
629.6	5723
629.8	5711
630.0	5705
630.2	5684
630.4	5658
630.6	5652
630.8	5653
631.0	5652
631.2	5668
631.4	5676
631.6	5667
631.8	5659
632.0	5650
632.2	5639
632.4	5639
632.6	5627
632.8	5611
633.0	5598
633.2	5590
633.4	5576
633.6	5573
633.8	5572
634.0	5571
634.2	5566
634.4	5546
634.6	5509
634.8	5492
635.0	5486
635.2	5473
635.4	5472
635.6	5460
635.8	5451
636.0	5449
636.2	5450
636.4	5448
636.6	5444
636.8	5430
637.0	5435
637.2	5428
637.4	5412
637.6	5398
637.8	5369
638.0	5346
638.2	5342
638.4	5335
638.6	5297
638.8	5270
639.0	5246
639.2	5242
639.4	5242
639.6	5236
639.8	5222
640.0	5214
640.2	5201
640.4	5192
640.6	5171
640.8	5160
641.0	5146
641.2	5129
641.4	5122
641.6	5116
641.8	5096
642.0	5079
642.2	5057
642.4	5042
642.6	5037
642.8	5025
643.0	4997
643.2	4991
643.4	4993
643.6	4973
643.8	4961
644.0	4939
644.2	4920
644.4	4917
644.6	4909
644.8	4882
645.0	4867
645.2	4859
645.4	4845
645.6	4828
645.8	4805
646.0	4793
646.2	4785
646.4	4787
646.6	4773
646.8	4750
647.0	4730
647.2	4713
647.4	4696
647.6	4676
647.8	4660
648.0	4648
648.2	4639
648.4	4609
648.6	4587
648.8	4569
649.0	4562
649.2	4565
649.4	4558
649.6	4538
649.8	4525
650.0	4506
650.2	4487
650.4	4467
650.6	4438
650.8	4422
651.0	4407
651.2	4390
651.4	4388
651.6	4383
651.8	4365
652.0	4347
652.2	4315
652.4	4301
652.6	4295
652.8	4290
653.0	4278
653.2	4257
653.4	4223
653.6	4220
653.8	4201
654.0	4188
654.2	4163
654.4	4153
654.6	4137
654.8	4126
655.0	4110
655.2	4089
655.4	4074
655.6	4073
655.8	4059
656.0	4039
656.2	4025
656.4	3996
656.6	3987
656.8	3967
657.0	3943
657.2	3925
657.4	3909
657.6	3890
657.8	3877
658.0	3869
658.2	3870
658.4	3856
658.6	3837
658.8	3807
659.0	3768
659.2	3754
659.4	3750
659.6	3739
659.8	3738
660.0	3717
660.2	3687
660.4	3661
660.6	3651
660.8	3640
661.0	3639
661.2	3623
661.4	3599
661.6	3575
661.8	3564
662.0	3558
662.2	3551
662.4	3537
662.6	3515
662.8	3508
663.0	3487
663.2	3478
663.4	3453
663.6	3434
663.8	3412
664.0	3407
664.2	3387
664.4	3371
664.6	3352
664.8	3338
665.0	3320
665.2	3308
665.4	3288
665.6	3269
665.8	3254
666.0	3242
666.2	3215
666.4	3202
666.6	3193
666.8	3188
667.0	3180
667.2	3174
667.4	3137
667.6	3124
667.8	3110
668.0	3105
668.2	3097
668.4	3089
668.6	3072
668.8	3062
669.0	3043
669.2	3021
669.4	3003
669.6	2990
669.8	2989
670.0	2979
670.2	2964
670.4	2946
670.6	2938
670.8	2922
671.0	2908
671.2	2885
671.4	2873
671.6	2862
671.8	2858
672.0	2839
672.2	2815
672.4	2801
672.6	2796
672.8	2789
673.0	2770
673.2	2751
673.4	2725
673.6	2706
673.8	2690
674.0	2687
674.2	2670
674.4	2661
674.6	2636
674.8	2612
675.0	2604
675.2	2594
675.4	2586
675.6	2588
675.8	2577
676.0	2561
676.2	2549
676.4	2524
676.6	2508
676.8	2502
677.0	2497
677.2	2488
677.4	2469
677.6	2453
677.8	2438
678.0	2411
678.2	2403
678.4	2397
678.6	2390
678.8	2384
679.0	2367
679.2	2340
679.4	2323
679.6	2309
679.8	2307
680.0	2303
680.2	2300
680.4	2290
680.6	2267
680.8	2245
681.0	2233
681.2	2225
681.4	2226
681.6	2229
681.8	2213
682.0	2192
682.2	2169
682.4	2154
682.6	2146
682.8	2153
683.0	2153
683.2	2140
683.4	2122
683.6	2112
683.8	2096
684.0	2086
684.2	2079
684.4	2060
684.6	2040
684.8	2027
685.0	2011
685.2	2000
685.4	2002
685.6	2000
685.8	1993
686.0	1981
686.2	1969
686.4	1949
686.6	1935
686.8	1918
687.0	1904
687.2	1889
687.4	1889
687.6	1881
687.8	1879
688.0	1871
688.2	1862
688.4	1850
688.6	1839
688.8	1825
689.0	1820
689.2	1813
689.4	1810
689.6	1796
689.8	1771
690.0	1751
690.2	1741
690.4	1733
690.6	1738
690.8	1735
691.0	1722
691.2	1710
691.4	1699
691.6	1690
691.8	1689
692.0	1687
692.2	1677
692.4	1661
692.6	1648
692.8	1639
693.0	1632
693.2	1625
693.4	1621
693.6	1611
693.8	1602
694.0	1595
694.2	1586
694.4	1577
694.6	1573
694.8	1567
695.0	1556
695.2	1546
695.4	1538
695.6	1535
695.8	1522
696.0	1511
696.2	1504
696.4	1494
696.6	1495
696.8	1495
697.0	1481
697.2	1470
697.4	1464
697.6	1458
697.8	1458
698.0	1456
698.2	1444
698.4	1437
698.6	1426
698.8	1413
699.0	1403
699.2	1396
699.4	1391
699.6	1388
699.8	1384
700.0	1377
700.2	1371
700.4	1361
700.6	1356
700.8	1348
701.0	1343
701.2	1339
701.4	1335
701.6	1329
701.8	1325
702.0	1319
702.2	1311
702.4	1302
702.6	1294
702.8	1283
703.0	1275
703.2	1268
703.4	1267
703.6	1260
703.8	1263
704.0	1256
704.2	1242
704.4	1228
704.6	1222
704.8	1217
705.0	1218
705.2	1217
705.4	1207
705.6	1194
705.8	1190
706.0	1196
706.2	1188
706.4	1186
706.6	1174
706.8	1157
707.0	1153
707.2	1153
707.4	1144
707.6	1143
707.8	1132
708.0	1119
708.2	1114
708.4	1106
708.6	1099
708.8	1089
709.0	1089
709.2	1086
709.4	1080
709.6	1071
709.8	1067
710.0	1057
710.2	1060
710.4	1055
710.6	1047
710.8	1041
711.0	1042
711.2	1039
711.4	1035
711.6	1023
711.8	1010
712.0	1003
712.2	1000
712.4	997.6
712.6	995.5
712.8	988.3
713.0	985.2
713.2	974.2
713.4	967.5
713.6	956.0
713.8	954.6
714.0	947.3
714.2	947.2
714.4	935.3
714.6	933.6
714.8	929.4
715.0	928.9
715.2	920.8
715.4	915.4
715.6	908.5
715.8	906.8
716.0	899.0
716.2	895.4
716.4	886.7
716.6	881.0
716.8	879.0
717.0	873.9
717.2	865.3
717.4	861.4
717.6	855.1
717.8	852.8
718.0	851.5
718.2	849.4
718.4	847.7
718.6	840.2
718.8	827.1
719.0	816.1
719.2	812.6
719.4	807.4
719.6	803.4
719.8	797.5
720.0	789.8
720.2	781.0
720.4	784.9
720.6	785.5
720.8	783.8
721.0	774.1
721.2	765.2
721.4	757.0
721.6	756.4
721.8	754.1
722.0	751.0
722.2	741.5
722.4	733.7
722.6	731.1
722.8	727.7
723.0	719.5
723.2	713.4
723.4	711.4
723.6	705.6
723.8	699.6
724.0	694.1
724.2	686.0
724.4	682.1
724.6	683.5
724.8	679.2
725.0	671.3
725.2	666.4
725.4	665.9
725.6	663.4
725.8	659.2
726.0	653.8
726.2	648.9
726.4	647.5
726.6	649.4
726.8	645.6
727.0	637.4
727.2	628.1
727.4	621.0
727.6	612.4
727.8	605.9
728.0	600.5
728.2	599.9
728.4	596.9
728.6	591.1
728.8	589.1
729.0	587.6
729.2	583.3
729.4	583.1
729.6	578.6
729.8	567.9
730.0	566.1
730.2	560.2
730.4	555.4
730.6	554.2
730.8	556.2
731.0	553.2
731.2	552.3
731.4	544.7
731.6	536.4
731.8	528.0
732.0	525.6
732.2	524.5
732.4	520.9
732.6	523.2
732.8	518.6
733.0	514.0
733.2	511.3
733.4	509.7
733.6	502.8
733.8	502.8
734.0	494.0
734.2	493.1
734.4	491.6
734.6	492.0
734.8	482.8
735.0	471.1
735.2	461.8
735.4	458.9
735.6	462.1
735.8	468.1
736.0	468.0
736.2	465.9
736.4	461.6
736.6	452.6
736.8	446.6
737.0	437.3
737.2	438.0
737.4	442.3
737.6	442.8
737.8	440.3
738.0	437.6
738.2	426.3
738.4	423.3
738.6	420.5
738.8	418.6
739.0	415.3
739.2	413.5
739.4	411.9
739.6	410.9
739.8	405.6
740.0	402.9
740.2	396.5
740.4	394.1
740.6	394.3
740.8	395.0
741.0	390.4
741.2	391.5
741.4	388.3
741.6	387.3
741.8	385.2
742.0	384.9
742.2	381.3
742.4	379.8
742.6	373.6
742.8	365.9
743.0	360.1
743.2	358.2
743.4	358.2
743.6	360.3
743.8	358.8
744.0	356.2
744.2	349.6
744.4	345.7
744.6	343.1
744.8	343.8
745.0	341.9
745.2	342.9
745.4	338.9
745.6	333.2
745.8	330.7
746.0	326.6
746.2	322.2
746.4	319.6
746.6	314.8
746.8	312.1
747.0	310.0
747.2	312.1
747.4	310.3
747.6	309.2
747.8	305.1
748.0	304.7
748.2	303.6
748.4	307.6
748.6	304.1
748.8	300.3
749.0	295.3
749.2	290.4
749.4	288.4
749.6	287.4
749.8	287.6
750.0	285.4
750.2	284.5
750.4	283.8
750.6	282.4
750.8	281.3
751.0	280.2
751.2	277.9
751.4	275.2
751.6	273.1
751.8	271.6
752.0	270.6
752.2	270.7
752.4	272.3
752.6	270.2
752.8	265.2
753.0	260.9
753.2	254.2
753.4	252.0
753.6	249.2
753.8	249.2
754.0	252.2
754.2	255.7
754.4	256.9
754.6	256.3
754.8	251.2
755.0	245.6
755.2	241.2
755.4	236.5
755.6	235.1
755.8	235.9
756.0	236.5
756.2	234.1
756.4	231.8
756.6	228.2
756.8	228.7
757.0	229.9
757.2	232.1
757.4	229.7
757.6	225.0
757.8	224.3
758.0	221.7
758.2	222.3
758.4	223.2
758.6	218.5
758.8	215.2
759.0	214.2
759.2	211.7
759.4	211.2
759.6	207.3
759.8	203.8
760.0	205.8
760.2	207.1
760.4	209.5
760.6	204.3
760.8	197.5
761.0	194.8
761.2	196.5
761.4	197.7
761.6	198.9
761.8	195.5
762.0	192.0
762.2	191.8
762.4	191.5
762.6	189.5
762.8	188.2
763.0	186.2
763.2	184.6
763.4	182.0
763.6	180.1
763.8	179.9
764.0	178.1
764.2	176.2
764.4	173.9
764.6	170.6
764.8	171.1
765.0	172.8
765.2	173.3
765.4	174.0
765.6	170.9
765.8	168.6
766.0	165.4
766.2	163.2
766.4	163.4
766.6	165.7
766.8	164.5
767.0	162.2
767.2	160.0
767.4	156.8
767.6	154.9
767.8	157.6
768.0	159.7
768.2	158.2
768.4	157.6
768.6	153.6
768.8	150.1
769.0	149.6
769.2	150.0
769.4	146.1
769.6	144.3
769.8	140.6
770.0	140.0
770.2	138.5
770.4	139.0
770.6	138.0
770.8	140.1
771.0	139.6
771.2	141.5
771.4	139.1
771.6	138.0
771.8	136.1
772.0	134.9
772.2	133.4
772.4	131.5
772.6	129.4
772.8	128.1
773.0	126.7
773.2	126.3
773.4	125.5
773.6	125.2
773.8	124.3
774.0	124.5
774.2	124.3
774.4	124.8
774.6	122.4
774.8	121.6
775.0	119.3
775.2	120.1
775.4	119.9
775.6	121.4
775.8	119.2
776.0	117.9
776.2	115.6
776.4	113.3
776.6	111.4
776.8	111.2
777.0	110.9
777.2	113.5
777.4	114.0
777.6	113.9
777.8	113.2
778.0	111.0
778.2	111.2
778.4	111.1
778.6	108.0
778.8	108.1
779.0	108.4
779.2	107.8
779.4	109.1
779.6	107.6
779.8	104.5
780.0	105.3
780.2	105.8
780.4	105.6
780.6	105.0
780.8	104.3
781.0	102.2
781.2	101.2
781.4	98.71
781.6	99.15
781.8	99.35
782.0	102.4
782.2	101.7
782.4	100.6
782.6	99.37
782.8	99.85
783.0	98.53
783.2	99.65
783.4	96.96
783.6	95.62
783.8	95.09
784.0	95.31
784.2	95.65
784.4	96.53
784.6	96.45
784.8	95.06
785.0	93.08
785.2	91.83
785.4	92.02
785.6	90.63
785.8	90.77
786.0	91.61
786.2	92.83
786.4	93.74
786.6	94.01
786.8	91.26
787.0	88.66
787.2	89.76
787.4	89.54
787.6	90.40
787.8	89.08
788.0	87.74
788.2	85.69
788.4	86.10
788.6	85.70
788.8	85.33
789.0	85.87
789.2	85.68
789.4	85.84
789.6	87.09
789.8	85.90
790.0	84.97
790.2	84.47
790.4	82.30
790.6	82.85
790.8	83.74
791.0	80.31
791.2	81.54
791.4	82.80
791.6	82.68
791.8	82.75
792.0	81.83
792.2	78.05
792.4	77.77
792.6	78.37
792.8	78.43
793.0	78.53
793.2	78.25
793.4	76.43
793.6	74.86
793.8	75.51
794.0	76.71
794.2	76.71
794.4	75.41
794.6	74.49
794.8	74.94
795.0	77.20
795.2	78.75
795.4	77.46
795.6	75.05
795.8	74.52
796.0	74.39
796.2	76.39
796.4	75.75
796.6	74.06
796.8	73.98
797.0	73.94
797.2	74.08
797.4	75.57
797.6	73.71
797.8	72.62
798.0	72.51
798.2	73.02
798.4	73.16
798.6	73.10
798.8	71.95
799.0	71.04
799.2	68.90
799.4	68.92
799.6	68.51
799.8	70.11
800.0	71.45
800.2	73.21
800.4	71.79
800.6	71.24
800.8	70.11
801.0	68.64
801.2	67.11
801.4	66.54
801.6	65.36
801.8	65.11
802.0	66.05
802.2	66.15
802.4	66.41
802.6	68.21
802.8	68.41
803.0	66.82
803.2	65.70
803.4	64.53
803.6	62.85
803.8	63.13
804.0	63.40
804.2	62.57
804.4	62.58
804.6	62.64
804.8	60.50
805.0	60.16
805.2	60.49
805.4	60.66
805.6	61.77
805.8	63.24
806.0	63.28
806.2	64.95
806.4	65.50
806.6	65.28
806.8	64.04
807.0	63.10
807.2	61.57
807.4	61.04
807.6	60.79
807.8	60.17
808.0	60.27
808.2	60.72
808.4	59.49
808.6	58.74
808.8	57.39
809.0	56.62
809.2	56.06
809.4	56.85
809.6	57.14
809.8	58.62
810.0	58.30
810.2	57.67
810.4	57.52
810.6	58.20
810.8	58.39
811.0	58.19
811.2	57.40
811.4	55.92
811.6	55.00
811.8	53.84
812.0	52.69
812.2	51.82
812.4	52.40
812.6	53.37
812.8	53.56
813.0	53.15
813.2	51.85
813.4	53.19
813.6	54.69
813.8	54.69
814.0	53.84
814.2	52.08
814.4	50.63
814.6	51.56
814.8	51.79
815.0	51.24
815.2	50.34
815.4	49.72
815.6	50.35
815.8	49.69
816.0	49.36
816.2	49.96
816.4	49.41
816.6	49.64
816.8	50.11
817.0	48.59
817.2	48.21
817.4	48.28
817.6	48.37
817.8	48.27
818.0	48.41
818.2	47.17
818.4	45.18
818.6	44.29
818.8	43.53
819.0	43.44
819.2	44.90
819.4	44.79
819.6	43.91
819.8	43.15
820.0	42.37
820.2	42.57
820.4	43.91
820.6	43.39
820.8	42.81
821.0	41.45
821.2	41.45
821.4	42.54
821.6	43.14
821.8	41.82
822.0	40.19
822.2	39.43
822.4	39.32
822.6	40.25
822.8	40.53
823.0	39.56
823.2	40.09
823.4	40.52
823.6	40.15
823.8	40.39
824.0	40.42
824.2	39.36
824.4	39.93
824.6	39.04
824.8	38.02
825.0	37.61
825.2	38.13
825.4	38.42
825.6	38.95
825.8	39.42
826.0	38.92
826.2	38.19
826.4	38.25
826.6	38.07
826.8	36.96
827.0	35.86
827.2	34.00
827.4	33.22
827.6	32.77
827.8	33.19
828.0	33.17
828.2	33.41
828.4	32.06
828.6	32.07
828.8	32.18
829.0	31.85
829.2	32.26
829.4	32.64
829.6	31.81
829.8	31.68
830.0	32.14
830.2	30.80
830.4	30.10
830.6	28.80
830.8	28.65
831.0	28.37
831.2	29.51
831.4	30.19
831.6	30.68
831.8	30.52
832.0	30.12
832.2	27.97
832.4	25.95
832.6	25.60
832.8	25.87
833.0	27.30
833.2	28.55
833.4	27.91
833.6	27.21
833.8	27.18
834.0	26.41
834.2	26.44
834.4	26.86
834.6	26.26
834.8	25.95
835.0	25.08
835.2	24.67
835.4	24.39
835.6	24.22
835.8	24.55
836.0	24.30
836.2	23.27
836.4	23.10
836.6	22.75
836.8	22.55
837.0	24.06
837.2	24.74
837.4	23.80
837.6	22.54
837.8	20.39
838.0	19.76
838.2	20.20
838.4	20.21
838.6	20.58
838.8	20.45
839.0	19.65
839.2	19.80
839.4	19.97
839.6	19.36
839.8	19.09
840.0	18.58
840.2	17.91
840.4	17.67
840.6	18.01
840.8	16.92
841.0	15.95
