Sample:	'20211010A(EM)
File name:	200.FDS
Run date:	'16:22:36, 03/23/2023
Operator:	Administrator
Comment:	'

Instrument
Model:	F-4700 FL Spectrophotometer
Serial number:	2019-001
ROM Version:	5J24010 00

Instrument parameters
Measurement type:	Wavelength scan
Scan mode:	Emission
Data mode:	Fluorescence
EX WL:	530.0 nm
EM  Start WL:	550.0 nm
EM  End WL:	900.0 nm
Scan speed:	1200 nm/min
Delay:	0.0 s
EX Slit:	10.0 nm
EM Slit:	10.0 nm
PMT Voltage:	660 V
Response:	0.002 s
Corrected spectra:	Off
Shutter control:	On

Processing performed
Savitsky-Golay smoothed
Smoothing order:	3
Number of points:	7
Number of times:	1

Peak integration
Integration method:	Rectangular
Sensitivity:	1
Threshold:	1.000

Peaks
No.	Start(nm)	Apex(nm)	End(nm)	Height(Data)	Valley(nm)	Valley(Data)
1	550.0	623.6	780.6	6144	780.6	104.2
2	780.6	781.8	793.2	108.4	793.2	80.40
3	793.2	793.8	794.6	84.67	794.6	79.71
4	794.6	795.2	798.8	82.44	798.8	71.44
5	798.8	799.8	802.4	73.91	802.4	67.57
6	802.4	803.2	805.2	70.97	805.2	65.05
7	805.2	805.6	808.6	67.02	808.6	60.89
8	808.6	809.0	810.4	64.15	810.4	57.98
9	810.4	811.2	812.4	62.23	812.4	54.00
10	812.4	813.2	825.4	57.17	825.4	36.83
11	825.4	826.2	830.4	38.37	830.4	30.80
12	830.4	831.0	847.2	32.70	847.2	11.28
13	847.2	848.0	852.4	13.18	852.4	8.187
14	852.4	853.0	862.2	10.14	862.2	3.678
15	862.2	862.8	871.6	4.690	871.6	2.781
16	871.6	872.4	880.4	3.824	880.4	2.220
17	880.4	882.2	889.6	3.248	889.6	2.007
18	889.6	896.0	898.2	3.200	898.2	1.935

Data points
nm	Data
550.0	343.3
550.2	338.0
550.4	341.1
550.6	348.5
550.8	353.7
551.0	356.5
551.2	360.0
551.4	367.6
551.6	371.0
551.8	377.2
552.0	376.8
552.2	378.8
552.4	382.6
552.6	392.4
552.8	393.6
553.0	397.5
553.2	400.9
553.4	404.6
553.6	413.3
553.8	421.3
554.0	428.1
554.2	435.6
554.4	448.5
554.6	452.3
554.8	454.0
555.0	455.1
555.2	460.4
555.4	466.8
555.6	477.7
555.8	483.6
556.0	489.5
556.2	493.5
556.4	496.7
556.6	503.0
556.8	506.1
557.0	513.0
557.2	524.8
557.4	535.9
557.6	542.2
557.8	551.0
558.0	554.0
558.2	566.1
558.4	576.8
558.6	590.3
558.8	596.7
559.0	601.9
559.2	605.2
559.4	613.8
559.6	620.6
559.8	629.9
560.0	636.9
560.2	648.1
560.4	663.4
560.6	675.5
560.8	685.2
561.0	693.7
561.2	699.3
561.4	709.4
561.6	719.0
561.8	728.5
562.0	733.7
562.2	742.6
562.4	753.7
562.6	762.9
562.8	774.2
563.0	792.6
563.2	804.0
563.4	817.8
563.6	829.8
563.8	838.8
564.0	850.9
564.2	863.6
564.4	871.8
564.6	881.8
564.8	887.9
565.0	897.2
565.2	908.1
565.4	919.3
565.6	935.0
565.8	947.8
566.0	955.2
566.2	970.3
566.4	982.2
566.6	997.0
566.8	1017
567.0	1036
567.2	1050
567.4	1062
567.6	1070
567.8	1086
568.0	1100
568.2	1118
568.4	1137
568.6	1152
568.8	1162
569.0	1175
569.2	1184
569.4	1193
569.6	1208
569.8	1225
570.0	1246
570.2	1257
570.4	1280
570.6	1294
570.8	1307
571.0	1321
571.2	1344
571.4	1355
571.6	1380
571.8	1394
572.0	1407
572.2	1419
572.4	1430
572.6	1451
572.8	1475
573.0	1494
573.2	1502
573.4	1509
573.6	1519
573.8	1543
574.0	1575
574.2	1609
574.4	1626
574.6	1641
574.8	1648
575.0	1658
575.2	1679
575.4	1701
575.6	1723
575.8	1748
576.0	1764
576.2	1775
576.4	1792
576.6	1814
576.8	1841
577.0	1865
577.2	1887
577.4	1895
577.6	1914
577.8	1941
578.0	1966
578.2	1991
578.4	2007
578.6	2018
578.8	2034
579.0	2056
579.2	2082
579.4	2118
579.6	2138
579.8	2162
580.0	2176
580.2	2188
580.4	2201
580.6	2234
580.8	2267
581.0	2295
581.2	2314
581.4	2334
581.6	2346
581.8	2373
582.0	2396
582.2	2416
582.4	2435
582.6	2460
582.8	2483
583.0	2510
583.2	2533
583.4	2549
583.6	2568
583.8	2594
584.0	2624
584.2	2657
584.4	2691
584.6	2708
584.8	2731
585.0	2756
585.2	2781
585.4	2802
585.6	2836
585.8	2853
586.0	2884
586.2	2916
586.4	2946
586.6	2961
586.8	2980
587.0	2986
587.2	3010
587.4	3051
587.6	3086
587.8	3115
588.0	3127
588.2	3137
588.4	3163
588.6	3192
588.8	3217
589.0	3244
589.2	3261
589.4	3286
589.6	3325
589.8	3354
590.0	3380
590.2	3399
590.4	3425
590.6	3449
590.8	3479
591.0	3515
591.2	3548
591.4	3577
591.6	3597
591.8	3614
592.0	3630
592.2	3658
592.4	3692
592.6	3723
592.8	3744
593.0	3766
593.2	3784
593.4	3812
593.6	3853
593.8	3886
594.0	3914
594.2	3927
594.4	3942
594.6	3952
594.8	3983
595.0	4011
595.2	4039
595.4	4069
595.6	4104
595.8	4122
596.0	4148
596.2	4181
596.4	4201
596.6	4227
596.8	4254
597.0	4266
597.2	4283
597.4	4316
597.6	4337
597.8	4353
598.0	4382
598.2	4406
598.4	4444
598.6	4484
598.8	4511
599.0	4520
599.2	4547
599.4	4553
599.6	4566
599.8	4592
600.0	4610
600.2	4645
600.4	4677
600.6	4692
600.8	4707
601.0	4728
601.2	4749
601.4	4796
601.6	4830
601.8	4854
602.0	4873
602.2	4887
602.4	4900
602.6	4923
602.8	4939
603.0	4962
603.2	4980
603.4	5003
603.6	5032
603.8	5056
604.0	5078
604.2	5116
604.4	5133
604.6	5145
604.8	5159
605.0	5166
605.2	5189
605.4	5217
605.6	5238
605.8	5255
606.0	5270
606.2	5291
606.4	5322
606.6	5355
606.8	5373
607.0	5386
607.2	5394
607.4	5406
607.6	5416
607.8	5438
608.0	5452
608.2	5479
608.4	5510
608.6	5524
608.8	5521
609.0	5537
609.2	5555
609.4	5570
609.6	5601
609.8	5609
610.0	5626
610.2	5641
610.4	5658
610.6	5655
610.8	5667
611.0	5663
611.2	5666
611.4	5668
611.6	5699
611.8	5731
612.0	5770
612.2	5798
612.4	5806
612.6	5804
612.8	5800
613.0	5814
613.2	5836
613.4	5869
613.6	5892
613.8	5897
614.0	5890
614.2	5890
614.4	5895
614.6	5909
614.8	5927
615.0	5924
615.2	5942
615.4	5946
615.6	5948
615.8	5957
616.0	5982
616.2	5987
616.4	6000
616.6	6006
616.8	6001
617.0	6008
617.2	6035
617.4	6043
617.6	6035
617.8	6039
618.0	6035
618.2	6051
618.4	6056
618.6	6050
618.8	6048
619.0	6056
619.2	6061
619.4	6092
619.6	6090
619.8	6094
620.0	6104
620.2	6100
620.4	6106
620.6	6115
620.8	6112
621.0	6110
621.2	6107
621.4	6102
621.6	6124
621.8	6122
622.0	6128
622.2	6124
622.4	6121
622.6	6128
622.8	6133
623.0	6130
623.2	6139
623.4	6138
623.6	6144
623.8	6141
624.0	6130
624.2	6128
624.4	6129
624.6	6106
624.8	6097
625.0	6085
625.2	6101
625.4	6117
625.6	6122
625.8	6104
626.0	6096
626.2	6092
626.4	6108
626.6	6108
626.8	6106
627.0	6094
627.2	6083
627.4	6088
627.6	6086
627.8	6089
628.0	6095
628.2	6096
628.4	6084
628.6	6084
628.8	6055
629.0	6053
629.2	6038
629.4	6023
629.6	6024
629.8	6023
630.0	6010
630.2	6028
630.4	6020
630.6	5997
630.8	5995
631.0	6004
631.2	6009
631.4	6012
631.6	6005
631.8	5969
632.0	5930
632.2	5920
632.4	5930
632.6	5918
632.8	5928
633.0	5918
633.2	5901
633.4	5885
633.6	5898
633.8	5881
634.0	5869
634.2	5855
634.4	5842
634.6	5820
634.8	5802
635.0	5775
635.2	5760
635.4	5767
635.6	5770
635.8	5768
636.0	5755
636.2	5738
636.4	5725
636.6	5715
636.8	5708
637.0	5689
637.2	5664
637.4	5657
637.6	5649
637.8	5628
638.0	5623
638.2	5603
638.4	5600
638.6	5600
638.8	5590
639.0	5572
639.2	5532
639.4	5506
639.6	5513
639.8	5503
640.0	5497
640.2	5514
640.4	5485
640.6	5454
640.8	5436
641.0	5407
641.2	5392
641.4	5391
641.6	5385
641.8	5371
642.0	5362
642.2	5354
642.4	5341
642.6	5328
642.8	5314
643.0	5297
643.2	5279
643.4	5273
643.6	5244
643.8	5225
644.0	5204
644.2	5189
644.4	5176
644.6	5168
644.8	5124
645.0	5100
645.2	5092
645.4	5092
645.6	5089
645.8	5085
646.0	5065
646.2	5059
646.4	5051
646.6	5041
646.8	5013
647.0	4980
647.2	4957
647.4	4932
647.6	4919
647.8	4917
648.0	4901
648.2	4888
648.4	4886
648.6	4871
648.8	4856
649.0	4837
649.2	4800
649.4	4779
649.6	4776
649.8	4768
650.0	4757
650.2	4736
650.4	4714
650.6	4691
650.8	4668
651.0	4645
651.2	4626
651.4	4610
651.6	4606
651.8	4607
652.0	4594
652.2	4582
652.4	4561
652.6	4535
652.8	4513
653.0	4507
653.2	4497
653.4	4479
653.6	4451
653.8	4429
654.0	4402
654.2	4372
654.4	4363
654.6	4350
654.8	4348
655.0	4340
655.2	4332
655.4	4308
655.6	4283
655.8	4260
656.0	4251
656.2	4234
656.4	4235
656.6	4213
656.8	4187
657.0	4175
657.2	4169
657.4	4146
657.6	4129
657.8	4102
658.0	4074
658.2	4061
658.4	4053
658.6	4030
658.8	4016
659.0	3999
659.2	3973
659.4	3954
659.6	3941
659.8	3924
660.0	3914
660.2	3900
660.4	3878
660.6	3855
660.8	3840
661.0	3817
661.2	3803
661.4	3785
661.6	3756
661.8	3744
662.0	3745
662.2	3736
662.4	3722
662.6	3699
662.8	3662
663.0	3650
663.2	3647
663.4	3638
663.6	3622
663.8	3602
664.0	3576
664.2	3576
664.4	3572
664.6	3556
664.8	3539
665.0	3502
665.2	3479
665.4	3474
665.6	3464
665.8	3452
666.0	3424
666.2	3394
666.4	3379
666.6	3358
666.8	3357
667.0	3348
667.2	3332
667.4	3320
667.6	3306
667.8	3276
668.0	3269
668.2	3263
668.4	3254
668.6	3246
668.8	3232
669.0	3207
669.2	3184
669.4	3170
669.6	3157
669.8	3136
670.0	3121
670.2	3100
670.4	3083
670.6	3068
670.8	3059
671.0	3041
671.2	3030
671.4	3020
671.6	3015
671.8	2997
672.0	2972
672.2	2959
672.4	2936
672.6	2933
672.8	2926
673.0	2909
673.2	2891
673.4	2882
673.6	2859
673.8	2848
674.0	2846
674.2	2834
674.4	2817
674.6	2809
674.8	2793
675.0	2766
675.2	2759
675.4	2742
675.6	2719
675.8	2707
676.0	2703
676.2	2676
676.4	2664
676.6	2643
676.8	2627
677.0	2620
677.2	2613
677.4	2596
677.6	2586
677.8	2576
678.0	2571
678.2	2567
678.4	2547
678.6	2525
678.8	2510
679.0	2496
679.2	2485
679.4	2470
679.6	2457
679.8	2439
680.0	2427
680.2	2409
680.4	2392
680.6	2380
680.8	2376
681.0	2366
681.2	2350
681.4	2337
681.6	2332
681.8	2327
682.0	2314
682.2	2301
682.4	2275
682.6	2265
682.8	2259
683.0	2248
683.2	2231
683.4	2221
683.6	2213
683.8	2208
684.0	2195
684.2	2180
684.4	2167
684.6	2154
684.8	2148
685.0	2136
685.2	2120
685.4	2104
685.6	2097
685.8	2079
686.0	2072
686.2	2057
686.4	2043
686.6	2029
686.8	2016
687.0	2009
687.2	2011
687.4	2008
687.6	1999
687.8	1978
688.0	1956
688.2	1936
688.4	1923
688.6	1926
688.8	1921
689.0	1920
689.2	1920
689.4	1904
689.6	1888
689.8	1884
690.0	1872
690.2	1858
690.4	1846
690.6	1829
690.8	1818
691.0	1818
691.2	1813
691.4	1796
691.6	1786
691.8	1776
692.0	1769
692.2	1760
692.4	1749
692.6	1734
692.8	1718
693.0	1715
693.2	1707
693.4	1701
693.6	1690
693.8	1683
694.0	1666
694.2	1669
694.4	1659
694.6	1646
694.8	1634
695.0	1632
695.2	1628
695.4	1631
695.6	1627
695.8	1609
696.0	1595
696.2	1582
696.4	1568
696.6	1563
696.8	1560
697.0	1555
697.2	1558
697.4	1560
697.6	1551
697.8	1547
698.0	1536
698.2	1521
698.4	1509
698.6	1496
698.8	1479
699.0	1475
699.2	1479
699.4	1481
699.6	1476
699.8	1463
700.0	1449
700.2	1442
700.4	1441
700.6	1443
700.8	1439
701.0	1431
701.2	1424
701.4	1412
701.6	1398
701.8	1389
702.0	1380
702.2	1377
702.4	1375
702.6	1367
702.8	1361
703.0	1354
703.2	1343
703.4	1331
703.6	1326
703.8	1328
704.0	1327
704.2	1322
704.4	1309
704.6	1294
704.8	1286
705.0	1286
705.2	1286
705.4	1281
705.6	1277
705.8	1266
706.0	1252
706.2	1249
706.4	1249
706.6	1240
706.8	1233
707.0	1226
707.2	1214
707.4	1204
707.6	1199
707.8	1191
708.0	1188
708.2	1186
708.4	1184
708.6	1168
708.8	1165
709.0	1158
709.2	1152
709.4	1141
709.6	1133
709.8	1125
710.0	1125
710.2	1118
710.4	1117
710.6	1108
710.8	1104
711.0	1096
711.2	1088
711.4	1073
711.6	1072
711.8	1068
712.0	1067
712.2	1057
712.4	1054
712.6	1046
712.8	1043
713.0	1038
713.2	1033
713.4	1027
713.6	1026
713.8	1020
714.0	1016
714.2	1006
714.4	996.7
714.6	985.1
714.8	985.2
715.0	981.7
715.2	978.4
715.4	966.1
715.6	961.2
715.8	950.3
716.0	945.5
716.2	936.6
716.4	928.8
716.6	920.7
716.8	918.0
717.0	913.2
717.2	905.8
717.4	899.7
717.6	900.9
717.8	899.3
718.0	889.2
718.2	884.0
718.4	881.3
718.6	875.9
718.8	872.7
719.0	870.0
719.2	859.9
719.4	854.9
719.6	854.3
719.8	848.3
720.0	844.0
720.2	840.9
720.4	833.2
720.6	824.4
720.8	817.4
721.0	811.6
721.2	808.6
721.4	800.7
721.6	790.0
721.8	787.5
722.0	785.6
722.2	784.3
722.4	782.8
722.6	771.3
722.8	762.8
723.0	759.6
723.2	755.5
723.4	757.2
723.6	750.3
723.8	744.7
724.0	740.6
724.2	727.8
724.4	721.2
724.6	721.4
724.8	712.8
725.0	713.3
725.2	709.2
725.4	700.6
725.6	699.9
725.8	695.2
726.0	685.8
726.2	683.7
726.4	675.8
726.6	671.1
726.8	666.0
727.0	658.2
727.2	650.9
727.4	654.8
727.6	650.2
727.8	646.4
728.0	636.6
728.2	630.6
728.4	621.6
728.6	623.3
728.8	620.7
729.0	621.2
729.2	616.3
729.4	612.8
729.6	603.3
729.8	601.3
730.0	599.0
730.2	600.4
730.4	594.8
730.6	586.3
730.8	576.4
731.0	574.9
731.2	569.0
731.4	566.0
731.6	560.1
731.8	555.9
732.0	553.7
732.2	552.0
732.4	553.3
732.6	548.6
732.8	545.9
733.0	543.1
733.2	540.7
733.4	531.9
733.6	534.8
733.8	528.4
734.0	527.3
734.2	521.3
734.4	517.1
734.6	509.0
734.8	506.7
735.0	503.3
735.2	504.6
735.4	496.3
735.6	497.5
735.8	493.1
736.0	491.1
736.2	488.0
736.4	481.2
736.6	466.0
736.8	466.3
737.0	460.4
737.2	465.7
737.4	469.1
737.6	467.3
737.8	461.7
738.0	460.1
738.2	452.6
738.4	448.1
738.6	444.1
738.8	441.5
739.0	435.5
739.2	432.8
739.4	427.5
739.6	421.2
739.8	420.8
740.0	426.1
740.2	427.2
740.4	428.4
740.6	420.2
740.8	411.1
741.0	406.1
741.2	402.7
741.4	403.5
741.6	403.7
741.8	401.0
742.0	398.8
742.2	397.0
742.4	393.4
742.6	393.7
742.8	390.7
743.0	386.8
743.2	385.0
743.4	381.6
743.6	379.6
743.8	376.0
744.0	373.2
744.2	366.9
744.4	364.9
744.6	361.3
744.8	361.7
745.0	359.8
745.2	357.6
745.4	355.9
745.6	357.1
745.8	351.6
746.0	350.7
746.2	347.0
746.4	341.5
746.6	339.3
746.8	336.6
747.0	330.3
747.2	328.5
747.4	325.0
747.6	326.3
747.8	324.7
748.0	322.1
748.2	322.7
748.4	321.6
748.6	320.6
748.8	319.1
749.0	316.6
749.2	316.3
749.4	315.6
749.6	312.2
749.8	309.6
750.0	302.9
750.2	302.1
750.4	299.0
750.6	297.1
750.8	297.0
751.0	296.9
751.2	296.3
751.4	295.4
751.6	293.7
751.8	291.4
752.0	289.1
752.2	288.6
752.4	284.2
752.6	282.3
752.8	283.2
753.0	281.2
753.2	279.5
753.4	275.1
753.6	269.2
753.8	265.8
754.0	263.5
754.2	261.0
754.4	262.7
754.6	259.0
754.8	259.5
755.0	258.8
755.2	258.4
755.4	254.8
755.6	252.8
755.8	250.2
756.0	248.2
756.2	249.3
756.4	249.2
756.6	247.7
756.8	242.4
757.0	238.0
757.2	232.0
757.4	230.8
757.6	231.1
757.8	230.1
758.0	228.1
758.2	228.9
758.4	229.6
758.6	229.2
758.8	227.4
759.0	222.4
759.2	218.7
759.4	218.0
759.6	219.6
759.8	216.7
760.0	211.6
760.2	211.9
760.4	209.1
760.6	210.2
760.8	213.7
761.0	211.8
761.2	207.8
761.4	208.0
761.6	202.1
761.8	199.7
762.0	201.0
762.2	202.9
762.4	202.2
762.6	199.7
762.8	196.4
763.0	192.9
763.2	192.5
763.4	191.9
763.6	192.2
763.8	192.3
764.0	190.5
764.2	188.5
764.4	184.3
764.6	181.7
764.8	182.0
765.0	182.7
765.2	181.3
765.4	180.6
765.6	177.5
765.8	177.9
766.0	175.1
766.2	171.6
766.4	170.5
766.6	168.5
766.8	167.8
767.0	168.7
767.2	169.8
767.4	168.4
767.6	166.3
767.8	163.8
768.0	163.1
768.2	163.1
768.4	163.8
768.6	160.3
768.8	156.3
769.0	153.8
769.2	151.6
769.4	151.4
769.6	148.1
769.8	146.6
770.0	148.3
770.2	148.6
770.4	147.1
770.6	144.5
770.8	143.2
771.0	145.2
771.2	147.7
771.4	148.4
771.6	145.9
771.8	142.1
772.0	141.2
772.2	142.0
772.4	141.9
772.6	143.5
772.8	141.6
773.0	139.7
773.2	136.0
773.4	133.2
773.6	131.6
773.8	132.7
774.0	131.2
774.2	131.0
774.4	131.6
774.6	130.9
774.8	131.7
775.0	131.7
775.2	130.8
775.4	129.0
775.6	127.5
775.8	124.2
776.0	122.8
776.2	120.4
776.4	119.8
776.6	117.6
776.8	117.3
777.0	118.1
777.2	119.9
777.4	120.1
777.6	119.4
777.8	118.1
778.0	116.0
778.2	115.9
778.4	115.1
778.6	116.1
778.8	115.5
779.0	115.0
779.2	112.9
779.4	110.2
779.6	108.2
779.8	110.0
780.0	107.4
780.2	106.6
780.4	106.3
780.6	104.2
780.8	105.1
781.0	107.1
781.2	106.4
781.4	107.0
781.6	107.8
781.8	108.4
782.0	107.5
782.2	105.0
782.4	104.7
782.6	104.3
782.8	104.1
783.0	104.4
783.2	102.4
783.4	101.1
783.6	101.4
783.8	101.5
784.0	101.0
784.2	101.6
784.4	102.3
784.6	101.7
784.8	100.9
785.0	100.4
785.2	98.09
785.4	97.21
785.6	96.57
785.8	95.07
786.0	94.55
786.2	94.94
786.4	93.62
786.6	93.91
786.8	94.44
787.0	93.32
787.2	92.29
787.4	92.33
787.6	93.58
787.8	94.18
788.0	95.08
788.2	91.57
788.4	90.26
788.6	90.34
788.8	91.00
789.0	90.80
789.2	90.53
789.4	87.69
789.6	89.08
789.8	89.86
790.0	90.24
790.2	90.50
790.4	87.81
790.6	86.24
790.8	87.78
791.0	86.58
791.2	87.68
791.4	88.13
791.6	86.22
791.8	86.17
792.0	84.89
792.2	83.80
792.4	83.83
792.6	84.59
792.8	82.96
793.0	81.75
793.2	80.40
793.4	81.57
793.6	82.86
793.8	84.67
794.0	84.03
794.2	81.78
794.4	80.52
794.6	79.71
794.8	80.42
795.0	81.29
795.2	82.44
795.4	82.18
795.6	81.18
795.8	80.47
796.0	79.36
796.2	78.28
796.4	78.00
796.6	77.86
796.8	77.53
797.0	78.31
797.2	78.14
797.4	78.87
797.6	78.61
797.8	77.61
798.0	77.54
798.2	75.06
798.4	72.60
798.6	71.67
798.8	71.44
799.0	71.49
799.2	73.30
799.4	72.82
799.6	73.38
799.8	73.91
800.0	72.90
800.2	72.57
800.4	72.07
800.6	72.36
800.8	73.70
801.0	72.82
801.2	71.78
801.4	72.93
801.6	71.63
801.8	70.88
802.0	70.49
802.2	67.83
802.4	67.57
802.6	68.60
802.8	69.65
803.0	70.37
803.2	70.97
803.4	69.06
803.6	67.99
803.8	66.94
804.0	67.48
804.2	69.19
804.4	70.61
804.6	68.07
804.8	67.25
805.0	65.13
805.2	65.05
805.4	66.42
805.6	67.02
805.8	66.42
806.0	66.34
806.2	66.34
806.4	66.40
806.6	66.77
806.8	64.88
807.0	63.40
807.2	62.47
807.4	62.28
807.6	62.52
807.8	63.78
808.0	62.02
808.2	61.19
808.4	61.20
808.6	60.89
808.8	62.38
809.0	64.15
809.2	64.06
809.4	63.51
809.6	60.81
809.8	59.54
810.0	59.00
810.2	57.98
810.4	57.98
810.6	58.71
810.8	58.80
811.0	61.44
811.2	62.23
811.4	61.56
811.6	60.81
811.8	58.53
812.0	56.02
812.2	55.11
812.4	54.00
812.6	54.50
812.8	55.11
813.0	56.14
813.2	57.17
813.4	56.59
813.6	56.06
813.8	55.91
814.0	55.70
814.2	56.09
814.4	55.66
814.6	54.68
814.8	54.62
815.0	55.51
815.2	55.26
815.4	54.23
815.6	52.44
815.8	52.25
816.0	52.14
816.2	52.56
816.4	51.94
816.6	52.54
816.8	52.17
817.0	52.42
817.2	52.43
817.4	51.52
817.6	50.52
817.8	50.01
818.0	49.27
818.2	48.91
818.4	49.27
818.6	49.38
818.8	49.39
819.0	48.94
819.2	48.01
819.4	46.14
819.6	45.11
819.8	45.78
820.0	46.36
820.2	47.41
820.4	47.99
820.6	45.83
820.8	45.46
821.0	45.08
821.2	45.22
821.4	45.75
821.6	45.89
821.8	44.64
822.0	45.58
822.2	44.94
822.4	43.95
822.6	42.99
822.8	42.31
823.0	42.18
823.2	42.87
823.4	43.06
823.6	41.12
823.8	39.67
824.0	40.17
824.2	40.72
824.4	41.72
824.6	41.67
824.8	39.41
825.0	38.07
825.2	37.40
825.4	36.83
825.6	37.63
825.8	38.33
826.0	37.99
826.2	38.37
826.4	38.21
826.6	37.03
826.8	36.98
827.0	37.05
827.2	36.36
827.4	36.25
827.6	36.80
827.8	36.13
828.0	36.08
828.2	36.06
828.4	35.92
828.6	36.51
828.8	36.69
829.0	36.27
829.2	35.30
829.4	34.93
829.6	34.60
829.8	34.07
830.0	32.49
830.2	31.18
830.4	30.80
830.6	31.42
830.8	32.36
831.0	32.70
831.2	32.69
831.4	31.62
831.6	30.98
831.8	30.90
832.0	30.11
832.2	29.82
832.4	29.67
832.6	28.91
832.8	28.88
833.0	29.55
833.2	29.08
833.4	28.93
833.6	27.73
833.8	27.77
834.0	28.00
834.2	28.09
834.4	28.08
834.6	28.40
834.8	26.90
835.0	26.06
835.2	25.84
835.4	26.31
835.6	25.54
835.8	25.88
836.0	25.49
836.2	24.89
836.4	25.75
836.6	26.47
836.8	25.56
837.0	24.94
837.2	24.18
837.4	23.70
837.6	23.46
837.8	22.37
838.0	21.74
838.2	21.44
838.4	21.59
838.6	21.06
838.8	20.67
839.0	19.47
839.2	19.77
839.4	20.18
839.6	20.75
839.8	20.53
840.0	20.35
840.2	19.26
840.4	19.32
840.6	19.22
840.8	19.33
841.0	19.33
841.2	19.26
841.4	19.05
841.6	18.08
841.8	17.79
842.0	17.61
842.2	17.64
842.4	17.52
842.6	17.92
842.8	17.71
843.0	17.51
843.2	17.30
843.4	16.71
843.6	15.99
843.8	15.76
844.0	15.66
844.2	14.73
844.4	14.73
844.6	14.13
844.8	14.14
