Sample:	'20211010A(EM)
File name:	300.FDS
Run date:	'16:23:57, 03/23/2023
Operator:	Administrator
Comment:	'

Instrument
Model:	F-4700 FL Spectrophotometer
Serial number:	2019-001
ROM Version:	5J24010 00

Instrument parameters
Measurement type:	Wavelength scan
Scan mode:	Emission
Data mode:	Fluorescence
EX WL:	530.0 nm
EM  Start WL:	550.0 nm
EM  End WL:	900.0 nm
Scan speed:	1200 nm/min
Delay:	0.0 s
EX Slit:	10.0 nm
EM Slit:	10.0 nm
PMT Voltage:	660 V
Response:	0.002 s
Corrected spectra:	Off
Shutter control:	On

Processing performed
Savitsky-Golay smoothed
Smoothing order:	3
Number of points:	7
Number of times:	1

Peak integration
Integration method:	Rectangular
Sensitivity:	1
Threshold:	1.000

Peaks
No.	Start(nm)	Apex(nm)	End(nm)	Height(Data)	Valley(nm)	Valley(Data)
1	550.0	621.6	625.2	7941	625.2	7864
2	625.2	626.0	794.2	7931	794.2	100.6
3	794.2	795.0	798.2	104.5	798.2	93.21
4	798.2	799.6	800.6	95.88	800.6	91.32
5	800.6	801.2	803.4	93.41	803.4	85.76
6	803.4	804.2	808.6	90.21	808.6	76.01
7	808.6	809.4	814.8	79.04	814.8	65.96
8	814.8	815.4	818.4	69.83	818.4	61.25
9	818.4	819.0	821.0	64.78	821.0	56.62
10	821.0	821.8	873.2	59.26	873.2	2.816
11	873.2	874.8	876.8	3.887	876.8	2.389
12	876.8	877.6	878.4	3.776	878.4	2.493
13	878.4	880.0	888.8	3.827	888.8	1.949
14	888.8	890.8	900.0	3.596	900.0	2.262

Data points
nm	Data
550.0	374.5
550.2	381.5
550.4	387.0
550.6	392.4
550.8	402.6
551.0	406.7
551.2	411.4
551.4	414.3
551.6	415.4
551.8	418.5
552.0	430.4
552.2	439.2
552.4	450.8
552.6	459.5
552.8	465.9
553.0	469.6
553.2	475.2
553.4	478.9
553.6	489.1
553.8	496.5
554.0	506.7
554.2	512.3
554.4	520.8
554.6	529.6
554.8	542.4
555.0	548.1
555.2	556.8
555.4	564.0
555.6	569.3
555.8	580.5
556.0	587.1
556.2	596.3
556.4	605.7
556.6	615.5
556.8	625.8
557.0	635.3
557.2	641.0
557.4	651.4
557.6	663.9
557.8	674.4
558.0	684.0
558.2	695.8
558.4	707.1
558.6	719.0
558.8	731.6
559.0	739.7
559.2	750.1
559.4	765.3
559.6	775.3
559.8	787.8
560.0	800.6
560.2	810.3
560.4	825.6
560.6	835.5
560.8	842.3
561.0	849.9
561.2	864.2
561.4	876.0
561.6	888.7
561.8	906.8
562.0	918.7
562.2	933.2
562.4	953.2
562.6	966.2
562.8	977.5
563.0	991.5
563.2	999.8
563.4	1014
563.6	1034
563.8	1049
564.0	1062
564.2	1074
564.4	1083
564.6	1092
564.8	1109
565.0	1131
565.2	1149
565.4	1171
565.6	1188
565.8	1206
566.0	1210
566.2	1223
566.4	1239
566.6	1259
566.8	1280
567.0	1302
567.2	1314
567.4	1331
567.6	1352
567.8	1369
568.0	1391
568.2	1411
568.4	1432
568.6	1445
568.8	1459
569.0	1476
569.2	1502
569.4	1526
569.6	1549
569.8	1573
570.0	1601
570.2	1627
570.4	1644
570.6	1651
570.8	1661
571.0	1687
571.2	1714
571.4	1738
571.6	1757
571.8	1773
572.0	1787
572.2	1812
572.4	1828
572.6	1844
572.8	1865
573.0	1898
573.2	1924
573.4	1951
573.6	1974
573.8	1997
574.0	2020
574.2	2059
574.4	2077
574.6	2093
574.8	2114
575.0	2131
575.2	2151
575.4	2183
575.6	2208
575.8	2238
576.0	2269
576.2	2294
576.4	2317
576.6	2344
576.8	2375
577.0	2403
577.2	2424
577.4	2446
577.6	2471
577.8	2505
578.0	2537
578.2	2571
578.4	2596
578.6	2618
578.8	2642
579.0	2665
579.2	2685
579.4	2712
579.6	2735
579.8	2755
580.0	2794
580.2	2824
580.4	2868
580.6	2915
580.8	2951
581.0	2985
581.2	3013
581.4	3029
581.6	3063
581.8	3090
582.0	3104
582.2	3136
582.4	3157
582.6	3182
582.8	3224
583.0	3262
583.2	3283
583.4	3309
583.6	3329
583.8	3347
584.0	3384
584.2	3426
584.4	3464
584.6	3505
584.8	3544
585.0	3567
585.2	3591
585.4	3619
585.6	3645
585.8	3679
586.0	3723
586.2	3750
586.4	3766
586.6	3804
586.8	3826
587.0	3873
587.2	3935
587.4	3983
587.6	4002
587.8	4023
588.0	4034
588.2	4072
588.4	4104
588.6	4146
588.8	4175
589.0	4201
589.2	4237
589.4	4271
589.6	4299
589.8	4331
590.0	4363
590.2	4393
590.4	4423
590.6	4465
590.8	4510
591.0	4544
591.2	4581
591.4	4610
591.6	4640
591.8	4675
592.0	4716
592.2	4740
592.4	4774
592.6	4799
592.8	4830
593.0	4868
593.2	4909
593.4	4935
593.6	4969
593.8	4997
594.0	5025
594.2	5082
594.4	5121
594.6	5156
594.8	5186
595.0	5214
595.2	5235
595.4	5260
595.6	5296
595.8	5335
596.0	5382
596.2	5435
596.4	5460
596.6	5479
596.8	5511
597.0	5531
597.2	5549
597.4	5573
597.6	5599
597.8	5651
598.0	5693
598.2	5729
598.4	5744
598.6	5764
598.8	5796
599.0	5831
599.2	5861
599.4	5888
599.6	5919
599.8	5963
600.0	6003
600.2	6040
600.4	6069
600.6	6083
600.8	6106
601.0	6156
601.2	6196
601.4	6230
601.6	6252
601.8	6275
602.0	6300
602.2	6349
602.4	6374
602.6	6399
602.8	6428
603.0	6455
603.2	6485
603.4	6505
603.6	6515
603.8	6534
604.0	6558
604.2	6580
604.4	6618
604.6	6635
604.8	6666
605.0	6678
605.2	6709
605.4	6750
605.6	6785
605.8	6808
606.0	6838
606.2	6840
606.4	6866
606.6	6906
606.8	6941
607.0	6964
607.2	6977
607.4	6991
607.6	7014
607.8	7047
608.0	7084
608.2	7099
608.4	7115
608.6	7143
608.8	7172
609.0	7182
609.2	7192
609.4	7201
609.6	7208
609.8	7222
610.0	7256
610.2	7286
610.4	7320
610.6	7349
610.8	7350
611.0	7338
611.2	7356
611.4	7393
611.6	7417
611.8	7447
612.0	7457
612.2	7463
612.4	7464
612.6	7487
612.8	7500
613.0	7535
613.2	7547
613.4	7539
613.6	7543
613.8	7547
614.0	7552
614.2	7582
614.4	7608
614.6	7616
614.8	7659
615.0	7668
615.2	7672
615.4	7682
615.6	7711
615.8	7725
616.0	7745
616.2	7763
616.4	7766
616.6	7763
616.8	7779
617.0	7778
617.2	7785
617.4	7807
617.6	7824
617.8	7831
618.0	7853
618.2	7843
618.4	7844
618.6	7837
618.8	7848
619.0	7840
619.2	7867
619.4	7872
619.6	7885
619.8	7887
620.0	7897
620.2	7877
620.4	7907
620.6	7903
620.8	7910
621.0	7904
621.2	7917
621.4	7921
621.6	7941
621.8	7930
622.0	7923
622.2	7915
622.4	7920
622.6	7926
622.8	7933
623.0	7928
623.2	7922
623.4	7936
623.6	7928
623.8	7924
624.0	7909
624.2	7893
624.4	7906
624.6	7920
624.8	7908
625.0	7892
625.2	7864
625.4	7866
625.6	7895
625.8	7922
626.0	7931
626.2	7906
626.4	7900
626.6	7897
626.8	7884
627.0	7877
627.2	7881
627.4	7881
627.6	7892
627.8	7892
628.0	7881
628.2	7854
628.4	7831
628.6	7812
628.8	7807
629.0	7790
629.2	7793
629.4	7775
629.6	7758
629.8	7750
630.0	7780
630.2	7769
630.4	7777
630.6	7749
630.8	7736
631.0	7730
631.2	7743
631.4	7726
631.6	7710
631.8	7680
632.0	7676
632.2	7676
632.4	7689
632.6	7666
632.8	7640
633.0	7609
633.2	7580
633.4	7572
633.6	7566
633.8	7554
634.0	7545
634.2	7529
634.4	7505
634.6	7519
634.8	7518
635.0	7514
635.2	7496
635.4	7454
635.6	7435
635.8	7425
636.0	7411
636.2	7400
636.4	7400
636.6	7393
636.8	7387
637.0	7359
637.2	7341
637.4	7324
637.6	7321
637.8	7317
638.0	7281
638.2	7247
638.4	7232
638.6	7214
638.8	7202
639.0	7200
639.2	7178
639.4	7148
639.6	7117
639.8	7095
640.0	7079
640.2	7067
640.4	7047
640.6	7029
640.8	7018
641.0	7020
641.2	7007
641.4	6979
641.6	6959
641.8	6934
642.0	6919
642.2	6900
642.4	6868
642.6	6853
642.8	6840
643.0	6811
643.2	6792
643.4	6768
643.6	6757
643.8	6763
644.0	6753
644.2	6736
644.4	6703
644.6	6669
644.8	6649
645.0	6630
645.2	6607
645.4	6591
645.6	6573
645.8	6561
646.0	6541
646.2	6515
646.4	6494
646.6	6470
646.8	6458
647.0	6451
647.2	6431
647.4	6410
647.6	6391
647.8	6361
648.0	6332
648.2	6316
648.4	6298
648.6	6287
648.8	6259
649.0	6239
649.2	6220
649.4	6200
649.6	6169
649.8	6150
650.0	6111
650.2	6093
650.4	6073
650.6	6053
650.8	6023
651.0	6017
651.2	5999
651.4	5976
651.6	5967
651.8	5944
652.0	5912
652.2	5908
652.4	5893
652.6	5867
652.8	5860
653.0	5830
653.2	5796
653.4	5759
653.6	5734
653.8	5714
654.0	5685
654.2	5660
654.4	5638
654.6	5595
654.8	5579
655.0	5570
655.2	5548
655.4	5535
655.6	5513
655.8	5492
656.0	5461
656.2	5448
656.4	5420
656.6	5398
656.8	5385
657.0	5374
657.2	5343
657.4	5321
657.6	5289
657.8	5276
658.0	5271
658.2	5249
658.4	5234
658.6	5214
658.8	5182
659.0	5151
659.2	5116
659.4	5075
659.6	5058
659.8	5052
660.0	5037
660.2	5014
660.4	5000
660.6	4967
660.8	4942
661.0	4929
661.2	4911
661.4	4899
661.6	4884
661.8	4850
662.0	4829
662.2	4815
662.4	4790
662.6	4781
662.8	4757
663.0	4730
663.2	4709
663.4	4682
663.6	4660
663.8	4649
664.0	4623
664.2	4608
664.4	4593
664.6	4577
664.8	4564
665.0	4551
665.2	4505
665.4	4485
665.6	4469
665.8	4462
666.0	4443
666.2	4421
666.4	4385
666.6	4375
666.8	4353
667.0	4346
667.2	4319
667.4	4297
667.6	4271
667.8	4264
668.0	4241
668.2	4222
668.4	4196
668.6	4178
668.8	4146
669.0	4128
669.2	4105
669.4	4099
669.6	4078
669.8	4058
670.0	4021
670.2	3992
670.4	3966
670.6	3975
670.8	3962
671.0	3954
671.2	3917
671.4	3891
671.6	3867
671.8	3865
672.0	3854
672.2	3838
672.4	3809
672.6	3778
672.8	3752
673.0	3735
673.2	3716
673.4	3703
673.6	3701
673.8	3666
674.0	3637
674.2	3612
674.4	3592
674.6	3580
674.8	3586
675.0	3561
675.2	3549
675.4	3531
675.6	3507
675.8	3475
676.0	3467
676.2	3452
676.4	3445
676.6	3437
676.8	3413
677.0	3380
677.2	3367
677.4	3352
677.6	3339
677.8	3323
678.0	3308
678.2	3285
678.4	3279
678.6	3265
678.8	3248
679.0	3222
679.2	3206
679.4	3179
679.6	3165
679.8	3142
680.0	3125
680.2	3103
680.4	3094
680.6	3077
680.8	3066
681.0	3055
681.2	3039
681.4	3017
681.6	3004
681.8	2984
682.0	2978
682.2	2977
682.4	2959
682.6	2942
682.8	2923
683.0	2900
683.2	2887
683.4	2874
683.6	2858
683.8	2844
684.0	2824
684.2	2800
684.4	2792
684.6	2783
684.8	2761
685.0	2749
685.2	2726
685.4	2714
685.6	2703
685.8	2694
686.0	2669
686.2	2651
686.4	2636
686.6	2627
686.8	2615
687.0	2597
687.2	2576
687.4	2561
687.6	2560
687.8	2557
688.0	2547
688.2	2530
688.4	2511
688.6	2499
688.8	2490
689.0	2474
689.2	2462
689.4	2456
689.6	2448
689.8	2443
690.0	2430
690.2	2398
690.4	2382
690.6	2360
690.8	2350
691.0	2352
691.2	2341
691.4	2324
691.6	2307
691.8	2290
692.0	2275
692.2	2261
692.4	2255
692.6	2245
692.8	2221
693.0	2216
693.2	2207
693.4	2195
693.6	2191
693.8	2182
694.0	2170
694.2	2167
694.4	2157
694.6	2134
694.8	2119
695.0	2112
695.2	2103
695.4	2091
695.6	2074
695.8	2044
696.0	2046
696.2	2047
696.4	2046
696.6	2033
696.8	2020
697.0	1992
697.2	1994
697.4	1989
697.6	1978
697.8	1967
698.0	1964
698.2	1954
698.4	1957
698.6	1949
698.8	1934
699.0	1925
699.2	1915
699.4	1906
699.6	1890
699.8	1878
700.0	1873
700.2	1873
700.4	1857
700.6	1847
700.8	1832
701.0	1825
701.2	1821
701.4	1815
701.6	1802
701.8	1788
702.0	1782
702.2	1778
702.4	1766
702.6	1761
702.8	1753
703.0	1741
703.2	1733
703.4	1719
703.6	1700
703.8	1690
704.0	1683
704.2	1683
704.4	1684
704.6	1679
704.8	1668
705.0	1657
705.2	1646
705.4	1635
705.6	1623
705.8	1612
706.0	1611
706.2	1610
706.4	1605
706.6	1603
706.8	1588
707.0	1570
707.2	1559
707.4	1553
707.6	1557
707.8	1546
708.0	1525
708.2	1510
708.4	1503
708.6	1499
708.8	1503
709.0	1495
709.2	1489
709.4	1489
709.6	1478
709.8	1454
710.0	1438
710.2	1432
710.4	1440
710.6	1443
710.8	1435
711.0	1420
711.2	1402
711.4	1391
711.6	1393
711.8	1384
712.0	1379
712.2	1369
712.4	1355
712.6	1344
712.8	1338
713.0	1323
713.2	1315
713.4	1308
713.6	1305
713.8	1302
714.0	1309
714.2	1302
714.4	1292
714.6	1279
714.8	1265
715.0	1256
715.2	1258
715.4	1244
715.6	1230
715.8	1219
716.0	1216
716.2	1213
716.4	1209
716.6	1200
716.8	1195
717.0	1187
717.2	1180
717.4	1168
717.6	1159
717.8	1157
718.0	1156
718.2	1142
718.4	1136
718.6	1127
718.8	1124
719.0	1120
719.2	1109
719.4	1100
719.6	1091
719.8	1082
720.0	1076
720.2	1067
720.4	1054
720.6	1053
720.8	1049
721.0	1043
721.2	1043
721.4	1038
721.6	1028
721.8	1019
722.0	1014
722.2	998.0
722.4	989.3
722.6	987.3
722.8	988.0
723.0	984.7
723.2	985.8
723.4	977.9
723.6	974.9
723.8	964.9
724.0	952.7
724.2	941.1
724.4	932.6
724.6	925.3
724.8	923.5
725.0	914.3
725.2	905.2
725.4	901.6
725.6	891.0
725.8	887.4
726.0	885.7
726.2	882.7
726.4	880.8
726.6	876.6
726.8	858.3
727.0	849.6
727.2	843.7
727.4	839.8
727.6	842.3
727.8	842.9
728.0	832.9
728.2	828.0
728.4	826.0
728.6	825.5
728.8	821.0
729.0	815.0
729.2	806.3
729.4	795.6
729.6	785.7
729.8	777.9
730.0	769.0
730.2	765.7
730.4	765.2
730.6	759.9
730.8	751.7
731.0	746.0
731.2	744.3
731.4	746.3
731.6	744.8
731.8	738.2
732.0	728.0
732.2	717.6
732.4	715.2
732.6	712.4
732.8	714.1
733.0	709.9
733.2	703.1
733.4	693.9
733.6	686.7
733.8	681.6
734.0	682.6
734.2	673.4
734.4	663.7
734.6	652.8
734.8	648.6
735.0	649.9
735.2	648.4
735.4	642.9
735.6	636.0
735.8	629.7
736.0	627.6
736.2	627.9
736.4	627.1
736.6	627.0
736.8	620.0
737.0	615.1
737.2	606.0
737.4	603.3
737.6	598.2
737.8	594.7
738.0	588.5
738.2	587.2
738.4	583.1
738.6	580.1
738.8	575.4
739.0	572.9
739.2	573.2
739.4	569.8
739.6	565.4
739.8	557.4
740.0	549.4
740.2	543.2
740.4	537.2
740.6	531.7
740.8	529.9
741.0	528.1
741.2	527.3
741.4	529.8
741.6	524.5
741.8	523.8
742.0	515.8
742.2	502.8
742.4	500.5
742.6	499.7
742.8	499.9
743.0	503.1
743.2	501.0
743.4	493.6
743.6	490.9
743.8	484.7
744.0	480.5
744.2	475.7
744.4	472.2
744.6	470.7
744.8	469.6
745.0	465.9
745.2	459.2
745.4	454.3
745.6	448.4
745.8	449.4
746.0	451.7
746.2	450.2
746.4	447.2
746.6	441.6
746.8	433.9
747.0	426.1
747.2	420.6
747.4	419.4
747.6	417.1
747.8	416.1
748.0	414.6
748.2	412.3
748.4	410.2
748.6	409.4
748.8	406.8
749.0	404.6
749.2	401.3
749.4	398.2
749.6	394.1
749.8	390.1
750.0	387.3
750.2	385.8
750.4	387.8
750.6	389.0
750.8	388.2
751.0	385.3
751.2	382.2
751.4	382.1
751.6	379.8
751.8	378.3
752.0	372.1
752.2	368.6
752.4	368.8
752.6	369.8
752.8	365.7
753.0	360.3
753.2	351.1
753.4	346.7
753.6	347.7
753.8	348.3
754.0	346.9
754.2	347.0
754.4	342.1
754.6	338.0
754.8	339.0
755.0	336.6
755.2	332.6
755.4	331.3
755.6	325.0
755.8	322.6
756.0	324.6
756.2	324.6
756.4	320.3
756.6	317.4
756.8	315.0
757.0	315.7
757.2	313.9
757.4	310.2
757.6	303.6
757.8	300.3
758.0	303.4
758.2	302.5
758.4	298.1
758.6	295.8
758.8	293.2
759.0	288.9
759.2	287.8
759.4	284.0
759.6	281.6
759.8	281.1
760.0	282.7
760.2	281.2
760.4	276.5
760.6	272.7
760.8	269.4
761.0	267.4
761.2	266.3
761.4	265.4
761.6	264.4
761.8	263.3
762.0	261.3
762.2	262.2
762.4	256.4
762.6	254.2
762.8	251.9
763.0	247.6
763.2	246.4
763.4	249.9
763.6	249.4
763.8	251.5
764.0	250.8
764.2	244.2
764.4	241.3
764.6	240.4
764.8	239.9
765.0	240.2
765.2	238.9
765.4	233.3
765.6	229.5
765.8	225.6
766.0	224.0
766.2	224.8
766.4	224.4
766.6	222.8
766.8	222.6
767.0	219.8
767.2	218.0
767.4	220.2
767.6	219.0
767.8	218.0
768.0	215.4
768.2	210.6
768.4	206.5
768.6	208.5
768.8	206.7
769.0	210.7
769.2	210.6
769.4	210.9
769.6	209.5
769.8	207.8
770.0	201.0
770.2	198.3
770.4	194.4
770.6	194.0
770.8	195.2
771.0	194.1
771.2	191.9
771.4	189.4
771.6	189.3
771.8	188.4
772.0	187.2
772.2	185.9
772.4	183.7
772.6	180.1
772.8	179.4
773.0	177.1
773.2	173.4
773.4	170.9
773.6	169.8
773.8	171.9
774.0	174.9
774.2	176.0
774.4	172.8
774.6	167.5
774.8	164.3
775.0	165.0
775.2	167.2
775.4	167.3
775.6	167.6
775.8	168.2
776.0	163.7
776.2	161.2
776.4	158.3
776.6	156.0
776.8	156.1
777.0	159.3
777.2	157.2
777.4	156.4
777.6	152.9
777.8	150.8
778.0	150.7
778.2	152.7
778.4	152.5
778.6	150.1
778.8	147.4
779.0	145.5
779.2	145.9
779.4	149.2
779.6	149.3
779.8	145.7
780.0	142.7
780.2	139.7
780.4	137.1
780.6	138.1
780.8	138.3
781.0	139.2
781.2	138.5
781.4	138.5
781.6	138.7
781.8	136.8
782.0	135.8
782.2	135.4
782.4	133.6
782.6	133.7
782.8	133.9
783.0	133.8
783.2	134.5
783.4	134.3
783.6	133.0
783.8	128.9
784.0	123.8
784.2	123.4
784.4	122.3
784.6	121.5
784.8	122.4
785.0	121.1
785.2	118.2
785.4	120.3
785.6	120.2
785.8	119.9
786.0	120.3
786.2	119.1
786.4	117.7
786.6	119.4
786.8	120.3
787.0	120.8
787.2	119.4
787.4	115.5
787.6	115.2
787.8	114.7
788.0	115.9
788.2	117.9
788.4	116.6
788.6	114.7
788.8	113.9
789.0	111.0
789.2	110.5
789.4	111.1
789.6	111.4
789.8	112.1
790.0	113.9
790.2	112.6
790.4	112.8
790.6	110.1
790.8	110.6
791.0	110.1
791.2	110.4
791.4	109.7
791.6	109.0
791.8	107.0
792.0	108.3
792.2	110.4
792.4	110.2
792.6	109.4
792.8	106.6
793.0	103.0
793.2	102.1
793.4	101.3
793.6	101.6
793.8	103.6
794.0	103.1
794.2	100.6
794.4	101.5
794.6	101.5
794.8	103.6
795.0	104.5
795.2	100.0
795.4	95.83
795.6	96.13
795.8	97.98
796.0	99.87
796.2	100.8
796.4	99.28
796.6	97.66
796.8	98.13
797.0	97.95
797.2	96.84
797.4	95.96
797.6	94.64
797.8	94.19
798.0	93.68
798.2	93.21
798.4	94.31
798.6	94.11
798.8	93.66
799.0	95.37
799.2	95.41
799.4	95.70
799.6	95.88
799.8	94.61
800.0	92.33
800.2	92.10
800.4	91.43
800.6	91.32
800.8	91.96
801.0	93.07
801.2	93.41
801.4	92.70
801.6	92.46
801.8	91.04
802.0	90.71
802.2	89.26
802.4	88.65
802.6	85.88
802.8	85.77
803.0	86.48
803.2	86.68
803.4	85.76
803.6	87.36
803.8	87.70
804.0	89.21
804.2	90.21
804.4	88.17
804.6	84.39
804.8	84.13
805.0	84.09
805.2	85.02
805.4	86.64
805.6	85.54
805.8	83.61
806.0	84.38
806.2	85.27
806.4	84.36
806.6	84.94
806.8	83.22
807.0	82.61
807.2	82.01
807.4	82.46
807.6	81.12
807.8	80.70
808.0	79.03
808.2	78.49
808.4	77.07
808.6	76.01
808.8	76.45
809.0	78.19
809.2	78.29
809.4	79.04
809.6	78.19
809.8	76.93
810.0	76.38
810.2	76.06
810.4	75.84
810.6	75.89
810.8	76.05
811.0	76.93
811.2	77.11
811.4	75.43
811.6	74.53
811.8	74.20
812.0	73.14
812.2	74.68
812.4	76.81
812.6	75.22
812.8	74.27
813.0	72.07
813.2	68.00
813.4	68.36
813.6	67.88
813.8	68.75
814.0	70.53
814.2	70.87
814.4	69.78
814.6	68.16
814.8	65.96
815.0	67.54
815.2	68.57
815.4	69.83
815.6	69.37
815.8	69.38
816.0	68.87
816.2	69.36
816.4	68.93
816.6	67.77
816.8	65.34
817.0	64.04
817.2	61.84
817.4	61.29
817.6	61.89
817.8	62.61
818.0	61.66
818.2	61.50
818.4	61.25
818.6	62.47
818.8	64.24
819.0	64.78
819.2	63.94
819.4	62.61
819.6	60.82
819.8	59.78
820.0	60.10
820.2	59.40
820.4	59.32
820.6	58.48
820.8	57.58
821.0	56.62
821.2	58.18
821.4	57.80
821.6	58.60
821.8	59.26
822.0	58.46
822.2	57.15
822.4	55.95
822.6	53.05
822.8	52.36
823.0	52.17
823.2	53.40
823.4	53.87
823.6	54.34
823.8	53.46
824.0	52.75
824.2	51.34
824.4	51.08
824.6	51.38
824.8	51.53
825.0	51.24
825.2	51.14
825.4	50.61
825.6	50.61
825.8	50.20
826.0	49.61
826.2	47.71
826.4	46.29
826.6	46.52
826.8	47.51
827.0	47.13
827.2	48.19
827.4	46.70
827.6	45.38
827.8	45.66
828.0	46.11
828.2	45.47
828.4	46.05
828.6	44.39
828.8	43.64
829.0	43.94
829.2	43.88
829.4	42.88
829.6	43.25
829.8	40.93
830.0	40.91
830.2	41.15
830.4	41.19
830.6	41.61
830.8	41.47
831.0	39.82
831.2	39.98
831.4	39.92
831.6	40.43
831.8	40.76
832.0	40.27
832.2	39.00
832.4	38.67
832.6	38.49
832.8	38.32
833.0	37.60
833.2	36.55
833.4	34.47
833.6	34.28
833.8	34.94
834.0	34.59
834.2	33.63
834.4	33.28
834.6	31.59
834.8	32.00
835.0	33.37
835.2	33.49
835.4	33.43
835.6	33.89
835.8	31.93
836.0	31.51
836.2	31.17
836.4	31.43
836.6	31.29
836.8	31.39
837.0	30.41
837.2	29.87
837.4	29.17
837.6	28.77
837.8	27.37
838.0	26.95
838.2	26.72
838.4	26.69
838.6	27.28
838.8	27.61
839.0	26.51
839.2	25.75
839.4	24.95
839.6	24.97
839.8	24.60
840.0	24.79
840.2	24.47
840.4	24.80
840.6	25.59
840.8	25.93
841.0	24.22
841.2	23.30
841.4	23.01
841.6	21.78
841.8	21.72
842.0	21.46
842.2	20.73
842.4	21.16
842.6	22.45
842.8	21.73
843.0	20.64
843.2	19.25
843.4	17.98
843.6	18.25
843.8	19.76
844.0	20.68
844.2	20.33
844.4	19.36
844.6	18.37
844.8	18.08
845.0	18.00
845.2	18.07
845.4	17.78
845.6	17.02
845.8	16.35
846.0	16.82
846.2	17.03
846.4	17.17
846.6	17.26
846.8	16.23
847.0	15.08
847.2	14.91
847.4	14.43
847.6	14.26
847.8	14.46
848.0	14.40
848.2	14.82
