Sample:	'20211010A(EM)
File name:	400.FDS
Run date:	'16:25:13, 03/23/2023
Operator:	Administrator
Comment:	'

Instrument
Model:	F-4700 FL Spectrophotometer
Serial number:	2019-001
ROM Version:	5J24010 00

Instrument parameters
Measurement type:	Wavelength scan
Scan mode:	Emission
Data mode:	Fluorescence
EX WL:	530.0 nm
EM  Start WL:	550.0 nm
EM  End WL:	900.0 nm
Scan speed:	1200 nm/min
Delay:	0.0 s
EX Slit:	10.0 nm
EM Slit:	10.0 nm
PMT Voltage:	660 V
Response:	0.002 s
Corrected spectra:	Off
Shutter control:	On

Processing performed
Savitsky-Golay smoothed
Smoothing order:	3
Number of points:	7
Number of times:	1

Peak integration
Integration method:	Rectangular
Sensitivity:	1
Threshold:	1.000

Peaks
No.	Start(nm)	Apex(nm)	End(nm)	Height(Data)	Valley(nm)	Valley(Data)
1	550.0	623.4	784.8	5858	784.8	90.66
2	784.8	785.8	791.2	95.94	791.2	80.06
3	791.2	792.0	794.4	82.39	794.4	73.49
4	794.4	795.4	796.8	78.85	796.8	70.30
5	796.8	798.2	799.2	76.19	799.2	68.87
6	799.2	799.6	803.4	72.42	803.4	63.67
7	803.4	804.2	807.8	67.97	807.8	59.10
8	807.8	808.4	809.0	60.84	809.0	56.05
9	809.0	809.6	816.6	61.56	816.6	45.11
10	816.6	817.8	819.4	47.45	819.4	43.73
11	819.4	820.0	824.4	46.05	824.4	37.02
12	824.4	825.2	827.6	38.21	827.6	33.10
13	827.6	828.4	848.2	34.29	848.2	9.707
14	848.2	848.6	856.6	10.97	856.6	5.160
15	856.6	857.4	862.4	6.296	862.4	3.795
16	862.4	864.6	886.0	4.982	886.0	1.743
17	886.0	887.0	900.0	3.026	900.0	2.543

Data points
nm	Data
550.0	299.3
550.2	303.4
550.4	307.3
550.6	310.6
550.8	312.3
551.0	316.0
551.2	319.7
551.4	320.8
551.6	320.1
551.8	323.5
552.0	326.7
552.2	333.0
552.4	341.6
552.6	347.6
552.8	348.3
553.0	356.3
553.2	362.3
553.4	368.6
553.6	376.4
553.8	383.0
554.0	386.1
554.2	391.7
554.4	394.6
554.6	403.1
554.8	411.6
555.0	423.7
555.2	428.6
555.4	430.9
555.6	432.3
555.8	439.4
556.0	444.5
556.2	454.1
556.4	462.1
556.6	475.0
556.8	482.3
557.0	486.7
557.2	489.5
557.4	493.6
557.6	504.7
557.8	514.0
558.0	521.2
558.2	524.2
558.4	529.0
558.6	537.0
558.8	549.1
559.0	557.1
559.2	569.4
559.4	577.0
559.6	583.2
559.8	591.8
560.0	600.6
560.2	612.3
560.4	619.0
560.6	627.6
560.8	637.7
561.0	646.9
561.2	652.4
561.4	666.2
561.6	677.8
561.8	687.6
562.0	694.7
562.2	700.1
562.4	705.2
562.6	718.0
562.8	733.8
563.0	742.8
563.2	752.1
563.4	763.6
563.6	775.4
563.8	789.3
564.0	801.4
564.2	814.1
564.4	826.9
564.6	837.7
564.8	845.7
565.0	858.6
565.2	866.5
565.4	878.0
565.6	890.5
565.8	900.1
566.0	902.6
566.2	918.9
566.4	930.8
566.6	945.8
566.8	966.5
567.0	981.5
567.2	987.5
567.4	1004
567.6	1019
567.8	1034
568.0	1048
568.2	1065
568.4	1081
568.6	1093
568.8	1103
569.0	1111
569.2	1116
569.4	1128
569.6	1143
569.8	1158
570.0	1171
570.2	1188
570.4	1210
570.6	1226
570.8	1244
571.0	1261
571.2	1271
571.4	1289
571.6	1311
571.8	1327
572.0	1344
572.2	1360
572.4	1378
572.6	1398
572.8	1412
573.0	1427
573.2	1442
573.4	1462
573.6	1486
573.8	1505
574.0	1515
574.2	1536
574.4	1548
574.6	1565
574.8	1586
575.0	1603
575.2	1622
575.4	1646
575.6	1661
575.8	1673
576.0	1689
576.2	1704
576.4	1728
576.6	1746
576.8	1767
577.0	1783
577.2	1800
577.4	1826
577.6	1855
577.8	1875
578.0	1895
578.2	1914
578.4	1926
578.6	1947
578.8	1965
579.0	1984
579.2	2009
579.4	2035
579.6	2053
579.8	2078
580.0	2102
580.2	2124
580.4	2151
580.6	2170
580.8	2185
581.0	2201
581.2	2235
581.4	2259
581.6	2282
581.8	2300
582.0	2310
582.2	2320
582.4	2349
582.6	2374
582.8	2399
583.0	2432
583.2	2452
583.4	2470
583.6	2488
583.8	2506
584.0	2520
584.2	2546
584.4	2569
584.6	2594
584.8	2624
585.0	2658
585.2	2684
585.4	2709
585.6	2730
585.8	2750
586.0	2772
586.2	2797
586.4	2825
586.6	2848
586.8	2866
587.0	2880
587.2	2891
587.4	2903
587.6	2936
587.8	2978
588.0	3016
588.2	3043
588.4	3071
588.6	3087
588.8	3111
589.0	3144
589.2	3157
589.4	3173
589.6	3192
589.8	3213
590.0	3230
590.2	3267
590.4	3297
590.6	3324
590.8	3345
591.0	3375
591.2	3395
591.4	3434
591.6	3462
591.8	3479
592.0	3499
592.2	3529
592.4	3546
592.6	3576
592.8	3589
593.0	3606
593.2	3631
593.4	3670
593.6	3700
593.8	3740
594.0	3772
594.2	3798
594.4	3821
594.6	3840
594.8	3842
595.0	3864
595.2	3881
595.4	3902
595.6	3919
595.8	3941
596.0	3961
596.2	4005
596.4	4044
596.6	4085
596.8	4099
597.0	4117
597.2	4123
597.4	4139
597.6	4167
597.8	4199
598.0	4216
598.2	4243
598.4	4272
598.6	4302
598.8	4332
599.0	4354
599.2	4367
599.4	4384
599.6	4413
599.8	4439
600.0	4460
600.2	4474
600.4	4489
600.6	4512
600.8	4535
601.0	4560
601.2	4573
601.4	4592
601.6	4604
601.8	4631
602.0	4659
602.2	4686
602.4	4702
602.6	4732
602.8	4762
603.0	4776
603.2	4795
603.4	4805
603.6	4817
603.8	4832
604.0	4862
604.2	4879
604.4	4899
604.6	4910
604.8	4919
605.0	4927
605.2	4946
605.4	4988
605.6	5003
605.8	5019
606.0	5020
606.2	5046
606.4	5080
606.6	5120
606.8	5140
607.0	5154
607.2	5147
607.4	5155
607.6	5175
607.8	5189
608.0	5219
608.2	5241
608.4	5251
608.6	5262
608.8	5275
609.0	5299
609.2	5319
609.4	5337
609.6	5345
609.8	5358
610.0	5360
610.2	5381
610.4	5386
610.6	5403
610.8	5409
611.0	5422
611.2	5429
611.4	5441
611.6	5454
611.8	5480
612.0	5502
612.2	5512
612.4	5530
612.6	5538
612.8	5552
613.0	5576
613.2	5588
613.4	5586
613.6	5595
613.8	5598
614.0	5589
614.2	5611
614.4	5607
614.6	5607
614.8	5610
615.0	5625
615.2	5636
615.4	5662
615.6	5665
615.8	5683
616.0	5685
616.2	5700
616.4	5719
616.6	5717
616.8	5705
617.0	5708
617.2	5705
617.4	5718
617.6	5731
617.8	5753
618.0	5770
618.2	5781
618.4	5789
618.6	5791
618.8	5782
619.0	5773
619.2	5787
619.4	5794
619.6	5799
619.8	5819
620.0	5822
620.2	5811
620.4	5827
620.6	5831
620.8	5822
621.0	5830
621.2	5834
621.4	5828
621.6	5828
621.8	5836
622.0	5844
622.2	5852
622.4	5854
622.6	5849
622.8	5841
623.0	5842
623.2	5853
623.4	5858
623.6	5834
623.8	5827
624.0	5813
624.2	5814
624.4	5824
624.6	5834
624.8	5825
625.0	5820
625.2	5810
625.4	5804
625.6	5815
625.8	5815
626.0	5807
626.2	5799
626.4	5793
626.6	5791
626.8	5803
627.0	5801
627.2	5790
627.4	5791
627.6	5791
627.8	5792
628.0	5791
628.2	5788
628.4	5766
628.6	5762
628.8	5758
629.0	5745
629.2	5745
629.4	5734
629.6	5714
629.8	5707
630.0	5711
630.2	5712
630.4	5711
630.6	5694
630.8	5675
631.0	5677
631.2	5675
631.4	5669
631.6	5657
631.8	5633
632.0	5617
632.2	5626
632.4	5614
632.6	5611
632.8	5607
633.0	5585
633.2	5581
633.4	5586
633.6	5565
633.8	5545
634.0	5548
634.2	5556
634.4	5560
634.6	5556
634.8	5523
635.0	5484
635.2	5475
635.4	5466
635.6	5460
635.8	5441
636.0	5433
636.2	5424
636.4	5423
636.6	5413
636.8	5412
637.0	5393
637.2	5386
637.4	5363
637.6	5349
637.8	5327
638.0	5319
638.2	5308
638.4	5311
638.6	5308
638.8	5317
639.0	5290
639.2	5279
639.4	5248
639.6	5232
639.8	5217
640.0	5205
640.2	5195
640.4	5190
640.6	5180
640.8	5178
641.0	5165
641.2	5150
641.4	5147
641.6	5128
641.8	5105
642.0	5086
642.2	5063
642.4	5051
642.6	5027
642.8	5012
643.0	4994
643.2	4982
643.4	4976
643.6	4971
643.8	4945
644.0	4934
644.2	4919
644.4	4907
644.6	4904
644.8	4888
645.0	4865
645.2	4853
645.4	4842
645.6	4824
645.8	4821
646.0	4794
646.2	4764
646.4	4741
646.6	4741
646.8	4728
647.0	4743
647.2	4722
647.4	4690
647.6	4658
647.8	4641
648.0	4630
648.2	4633
648.4	4621
648.6	4611
648.8	4588
649.0	4571
649.2	4560
649.4	4540
649.6	4527
649.8	4513
650.0	4490
650.2	4475
650.4	4469
650.6	4446
650.8	4427
651.0	4404
651.2	4371
651.4	4358
651.6	4351
651.8	4345
652.0	4340
652.2	4331
652.4	4308
652.6	4270
652.8	4227
653.0	4228
653.2	4230
653.4	4238
653.6	4234
653.8	4202
654.0	4167
654.2	4153
654.4	4138
654.6	4125
654.8	4114
655.0	4101
655.2	4075
655.4	4059
655.6	4046
655.8	4030
656.0	4020
656.2	4012
656.4	3997
656.6	3981
656.8	3952
657.0	3924
657.2	3896
657.4	3885
657.6	3887
657.8	3885
658.0	3868
658.2	3857
658.4	3838
658.6	3818
658.8	3797
659.0	3770
659.2	3749
659.4	3735
659.6	3718
659.8	3709
660.0	3694
660.2	3675
660.4	3665
660.6	3650
660.8	3620
661.0	3615
661.2	3596
661.4	3574
661.6	3560
661.8	3544
662.0	3531
662.2	3539
662.4	3527
662.6	3515
662.8	3488
663.0	3458
663.2	3436
663.4	3434
663.6	3422
663.8	3417
664.0	3395
664.2	3365
664.4	3355
664.6	3347
664.8	3331
665.0	3328
665.2	3315
665.4	3295
665.6	3281
665.8	3260
666.0	3235
666.2	3230
666.4	3216
666.6	3206
666.8	3181
667.0	3159
667.2	3138
667.4	3127
667.6	3120
667.8	3119
668.0	3110
668.2	3102
668.4	3089
668.6	3058
668.8	3044
669.0	3020
669.2	3003
669.4	2999
669.6	2977
669.8	2967
670.0	2963
670.2	2957
670.4	2944
670.6	2923
670.8	2891
671.0	2869
671.2	2859
671.4	2861
671.6	2855
671.8	2840
672.0	2828
672.2	2805
672.4	2791
672.6	2769
672.8	2757
673.0	2734
673.2	2726
673.4	2718
673.6	2705
673.8	2686
674.0	2686
674.2	2662
674.4	2646
674.6	2635
674.8	2625
675.0	2622
675.2	2631
675.4	2609
675.6	2580
675.8	2556
676.0	2530
676.2	2514
676.4	2508
676.6	2502
676.8	2491
677.0	2486
677.2	2481
677.4	2467
677.6	2450
677.8	2429
678.0	2406
678.2	2398
678.4	2393
678.6	2387
678.8	2369
679.0	2356
679.2	2356
679.4	2344
679.6	2327
679.8	2316
680.0	2294
680.2	2277
680.4	2271
680.6	2255
680.8	2249
681.0	2240
681.2	2231
681.4	2211
681.6	2200
681.8	2187
682.0	2169
682.2	2149
682.4	2137
682.6	2131
682.8	2130
683.0	2122
683.2	2114
683.4	2101
683.6	2086
683.8	2074
684.0	2053
684.2	2036
684.4	2036
684.6	2031
684.8	2019
685.0	2011
685.2	1998
685.4	1984
685.6	1983
685.8	1971
686.0	1948
686.2	1932
686.4	1921
686.6	1911
686.8	1914
687.0	1908
687.2	1895
687.4	1875
687.6	1868
687.8	1858
688.0	1854
688.2	1851
688.4	1838
688.6	1828
688.8	1826
689.0	1817
689.2	1803
689.4	1794
689.6	1771
689.8	1766
690.0	1757
690.2	1748
690.4	1734
690.6	1725
690.8	1709
691.0	1704
691.2	1693
691.4	1685
691.6	1684
691.8	1682
692.0	1674
692.2	1665
692.4	1642
692.6	1632
692.8	1631
693.0	1629
693.2	1616
693.4	1611
693.6	1602
693.8	1601
694.0	1596
694.2	1590
694.4	1577
694.6	1566
694.8	1553
695.0	1540
695.2	1530
695.4	1529
695.6	1532
695.8	1520
696.0	1507
696.2	1495
696.4	1483
696.6	1474
696.8	1473
697.0	1466
697.2	1461
697.4	1460
697.6	1444
697.8	1438
698.0	1434
698.2	1428
698.4	1420
698.6	1418
698.8	1407
699.0	1405
699.2	1400
699.4	1393
699.6	1381
699.8	1369
700.0	1351
700.2	1341
700.4	1331
700.6	1331
700.8	1338
701.0	1343
701.2	1341
701.4	1335
701.6	1319
701.8	1308
702.0	1305
702.2	1305
702.4	1300
702.6	1289
702.8	1275
703.0	1262
703.2	1252
703.4	1248
703.6	1251
703.8	1250
704.0	1250
704.2	1248
704.4	1236
704.6	1225
704.8	1218
705.0	1210
705.2	1206
705.4	1202
705.6	1185
705.8	1176
706.0	1168
706.2	1164
706.4	1165
706.6	1161
706.8	1151
707.0	1150
707.2	1144
707.4	1145
707.6	1143
707.8	1134
708.0	1122
708.2	1125
708.4	1116
708.6	1110
708.8	1101
709.0	1086
709.2	1075
709.4	1079
709.6	1066
709.8	1058
710.0	1060
710.2	1053
710.4	1050
710.6	1047
710.8	1034
711.0	1024
711.2	1021
711.4	1011
711.6	1004
711.8	1004
712.0	1005
712.2	1000
712.4	991.6
712.6	983.5
712.8	974.3
713.0	970.0
713.2	966.1
713.4	962.5
713.6	953.3
713.8	950.0
714.0	944.1
714.2	936.5
714.4	931.8
714.6	930.6
714.8	923.8
715.0	915.3
715.2	911.1
715.4	901.4
715.6	892.1
715.8	887.7
716.0	885.1
716.2	878.5
716.4	877.7
716.6	872.2
716.8	857.1
717.0	853.0
717.2	848.8
717.4	848.2
717.6	851.8
717.8	851.4
718.0	843.2
718.2	838.5
718.4	828.6
718.6	824.2
718.8	821.0
719.0	818.8
719.2	817.0
719.4	808.9
719.6	800.1
719.8	791.0
720.0	783.6
720.2	780.5
720.4	778.0
720.6	772.0
720.8	759.2
721.0	754.2
721.2	750.1
721.4	747.2
721.6	748.1
721.8	744.1
722.0	731.1
722.2	723.1
722.4	712.7
722.6	707.3
722.8	711.1
723.0	712.6
723.2	716.5
723.4	710.6
723.6	701.3
723.8	691.3
724.0	689.0
724.2	685.3
724.4	687.5
724.6	678.8
724.8	672.9
725.0	664.8
725.2	660.9
725.4	656.5
725.6	659.3
725.8	654.6
726.0	653.7
726.2	644.4
726.4	632.9
726.6	620.3
726.8	616.5
727.0	611.8
727.2	609.6
727.4	605.7
727.6	608.3
727.8	608.8
728.0	605.9
728.2	602.3
728.4	597.2
728.6	589.7
728.8	585.9
729.0	585.0
729.2	581.5
729.4	582.8
729.6	580.2
729.8	572.8
730.0	560.9
730.2	554.0
730.4	547.9
730.6	542.0
730.8	540.9
731.0	538.9
731.2	535.9
731.4	533.8
731.6	529.9
731.8	524.1
732.0	523.0
732.2	518.5
732.4	515.7
732.6	510.8
732.8	506.3
733.0	508.0
733.2	507.4
733.4	504.6
733.6	502.8
733.8	498.3
734.0	492.8
734.2	488.9
734.4	485.9
734.6	480.2
734.8	474.3
735.0	471.9
735.2	474.1
735.4	469.4
735.6	471.9
735.8	466.9
736.0	460.1
736.2	456.3
736.4	454.7
736.6	443.5
736.8	440.0
737.0	434.6
737.2	433.4
737.4	431.2
737.6	429.6
737.8	423.5
738.0	421.5
738.2	420.2
738.4	419.6
738.6	414.3
738.8	412.1
739.0	408.5
739.2	404.8
739.4	401.0
739.6	401.3
739.8	401.4
740.0	404.3
740.2	400.2
740.4	395.5
740.6	388.3
740.8	386.9
741.0	383.1
741.2	380.0
741.4	376.2
741.6	373.8
741.8	374.1
742.0	376.8
742.2	374.8
742.4	371.6
742.6	367.1
742.8	358.9
743.0	353.9
743.2	350.9
743.4	350.1
743.6	349.0
743.8	346.8
744.0	343.7
744.2	342.5
744.4	343.6
744.6	344.1
744.8	342.7
745.0	341.2
745.2	336.0
745.4	329.1
745.6	324.0
745.8	320.4
746.0	319.8
746.2	320.6
746.4	320.2
746.6	319.6
746.8	318.7
747.0	319.5
747.2	316.4
747.4	315.3
747.6	312.0
747.8	310.8
748.0	306.5
748.2	303.2
748.4	299.3
748.6	300.1
748.8	298.7
749.0	296.8
749.2	293.0
749.4	290.8
749.6	289.8
749.8	290.1
750.0	289.6
750.2	287.7
750.4	282.5
750.6	277.2
750.8	271.7
751.0	269.9
751.2	268.7
751.4	268.2
751.6	267.0
751.8	267.2
752.0	265.4
752.2	264.2
752.4	264.0
752.6	259.6
752.8	260.3
753.0	259.9
753.2	259.5
753.4	255.0
753.6	253.4
753.8	247.4
754.0	245.2
754.2	243.2
754.4	244.1
754.6	244.1
754.8	247.5
755.0	247.7
755.2	244.8
755.4	239.5
755.6	236.7
755.8	232.6
756.0	233.1
756.2	232.8
756.4	232.7
756.6	229.8
756.8	228.3
757.0	224.9
757.2	225.7
757.4	222.4
757.6	221.1
757.8	220.8
758.0	219.1
758.2	219.4
758.4	220.3
758.6	216.1
758.8	212.5
759.0	209.6
759.2	208.5
759.4	206.0
759.6	204.6
759.8	204.6
760.0	204.7
760.2	203.7
760.4	203.8
760.6	202.3
760.8	200.9
761.0	201.3
761.2	200.0
761.4	196.7
761.6	192.6
761.8	190.7
762.0	189.6
762.2	189.4
762.4	186.4
762.6	184.5
762.8	182.7
763.0	180.0
763.2	180.0
763.4	179.1
763.6	177.9
763.8	177.9
764.0	177.3
764.2	175.7
764.4	174.8
764.6	174.0
764.8	175.8
765.0	173.2
765.2	173.1
765.4	175.2
765.6	175.1
765.8	172.1
766.0	169.6
766.2	161.5
766.4	159.0
766.6	161.1
766.8	162.9
767.0	162.7
767.2	162.1
767.4	159.3
767.6	156.5
767.8	154.7
768.0	153.2
768.2	149.5
768.4	147.4
768.6	144.6
768.8	143.0
769.0	143.1
769.2	143.9
769.4	144.6
769.6	144.8
769.8	143.0
770.0	141.7
770.2	141.3
770.4	139.9
770.6	138.3
770.8	139.0
771.0	139.5
771.2	138.6
771.4	138.7
771.6	136.3
771.8	131.7
772.0	131.8
772.2	131.2
772.4	131.4
772.6	131.2
772.8	130.2
773.0	126.5
773.2	124.5
773.4	123.3
773.6	123.4
773.8	124.8
774.0	123.7
774.2	123.0
774.4	123.0
774.6	122.9
774.8	121.9
775.0	123.8
775.2	121.5
775.4	121.4
775.6	118.6
775.8	119.1
776.0	118.0
776.2	118.0
776.4	115.5
776.6	113.4
776.8	109.6
777.0	111.7
777.2	112.0
777.4	111.5
777.6	109.3
777.8	108.3
778.0	105.8
778.2	105.9
778.4	106.0
778.6	107.0
778.8	107.6
779.0	107.7
779.2	106.2
779.4	105.8
779.6	105.6
779.8	107.5
780.0	107.2
780.2	108.1
780.4	105.9
780.6	104.7
780.8	102.3
781.0	102.2
781.2	99.69
781.4	99.63
781.6	97.15
781.8	97.83
782.0	96.54
782.2	95.98
782.4	96.31
782.6	96.82
782.8	96.14
783.0	96.40
783.2	95.11
783.4	93.76
783.6	94.29
783.8	95.44
784.0	95.35
784.2	94.85
784.4	93.40
784.6	92.25
784.8	90.66
785.0	91.16
785.2	91.67
785.4	93.19
785.6	95.54
785.8	95.94
786.0	93.72
786.2	92.23
786.4	89.48
786.6	88.80
786.8	89.87
787.0	88.57
787.2	86.01
787.4	85.63
787.6	86.31
787.8	87.08
788.0	87.37
788.2	87.07
788.4	85.16
788.6	84.33
788.8	86.06
789.0	85.73
789.2	85.18
789.4	86.06
789.6	86.00
789.8	85.08
790.0	85.07
790.2	83.32
790.4	81.21
790.6	81.25
790.8	81.77
791.0	81.45
791.2	80.06
791.4	80.26
791.6	80.63
791.8	81.19
792.0	82.39
792.2	82.01
792.4	82.05
792.6	81.09
792.8	79.58
793.0	78.36
793.2	76.40
793.4	75.47
793.6	75.84
793.8	75.72
794.0	74.78
794.2	75.39
794.4	73.49
794.6	73.80
794.8	73.56
795.0	75.97
795.2	76.40
795.4	78.85
795.6	77.95
795.8	77.81
796.0	76.76
796.2	74.77
796.4	72.01
796.6	71.22
796.8	70.30
797.0	71.43
797.2	71.68
797.4	70.88
797.6	71.80
797.8	72.77
798.0	74.37
798.2	76.19
798.4	75.48
798.6	72.87
798.8	71.00
799.0	69.34
799.2	68.87
799.4	71.04
799.6	72.42
799.8	72.17
800.0	72.28
800.2	71.26
800.4	69.83
800.6	68.29
800.8	67.33
801.0	67.03
801.2	67.03
801.4	67.42
801.6	66.77
801.8	64.97
802.0	65.48
802.2	65.61
802.4	65.16
802.6	65.75
802.8	66.10
803.0	65.52
803.2	64.50
803.4	63.67
803.6	63.96
803.8	64.81
804.0	67.15
804.2	67.97
804.4	66.47
804.6	66.02
804.8	65.22
805.0	63.09
805.2	62.97
805.4	61.46
805.6	59.45
805.8	59.62
806.0	61.09
806.2	61.46
806.4	61.78
806.6	60.64
806.8	59.57
807.0	59.54
807.2	59.80
807.4	60.65
807.6	59.30
807.8	59.10
808.0	59.68
808.2	60.67
808.4	60.84
808.6	59.82
808.8	56.83
809.0	56.05
809.2	57.08
809.4	59.62
809.6	61.56
809.8	59.94
810.0	58.35
810.2	57.72
810.4	57.30
810.6	56.87
810.8	56.00
811.0	54.06
811.2	54.17
811.4	53.94
811.6	54.35
811.8	55.27
812.0	55.81
812.2	54.70
812.4	54.00
812.6	53.55
812.8	53.79
813.0	53.00
813.2	53.23
813.4	51.46
813.6	51.06
813.8	51.48
814.0	51.58
814.2	51.30
814.4	51.94
814.6	51.90
814.8	51.21
815.0	49.41
815.2	48.13
815.4	48.26
815.6	49.53
815.8	50.49
816.0	49.28
816.2	47.01
816.4	45.71
816.6	45.11
816.8	45.67
817.0	46.70
817.2	46.54
817.4	46.61
817.6	47.36
817.8	47.45
818.0	46.74
818.2	45.75
818.4	44.84
818.6	44.93
818.8	45.25
819.0	44.67
819.2	44.58
819.4	43.73
819.6	45.06
819.8	45.97
820.0	46.05
820.2	45.55
820.4	44.77
820.6	44.34
820.8	43.93
821.0	42.81
821.2	41.45
821.4	41.26
821.6	41.11
821.8	43.04
822.0	43.39
822.2	42.98
822.4	41.67
822.6	41.06
822.8	39.99
823.0	40.25
823.2	39.81
823.4	39.21
823.6	38.47
823.8	37.72
824.0	37.15
824.2	37.11
824.4	37.02
824.6	37.90
824.8	38.17
825.0	37.87
825.2	38.21
825.4	37.86
825.6	36.74
825.8	36.63
826.0	36.40
826.2	36.45
826.4	36.07
826.6	35.74
826.8	34.38
827.0	33.19
827.2	33.56
827.4	33.46
827.6	33.10
827.8	33.32
828.0	33.19
828.2	33.93
828.4	34.29
828.6	34.00
828.8	33.01
829.0	32.99
829.2	32.02
829.4	33.31
829.6	32.87
829.8	32.30
830.0	31.54
830.2	32.10
830.4	30.39
830.6	30.67
830.8	30.43
831.0	30.39
831.2	30.06
831.4	30.33
831.6	29.00
831.8	28.01
832.0	27.48
832.2	26.79
832.4	26.44
832.6	26.56
832.8	26.77
833.0	26.26
833.2	25.94
833.4	26.12
833.6	26.39
833.8	27.04
834.0	27.26
834.2	26.25
834.4	25.79
834.6	25.58
834.8	24.62
835.0	24.41
835.2	23.62
835.4	23.21
835.6	23.66
835.8	23.47
836.0	23.28
836.2	23.33
836.4	22.87
836.6	22.96
836.8	23.48
837.0	23.14
837.2	22.82
837.4	22.43
837.6	22.30
837.8	22.08
838.0	21.58
838.2	21.07
838.4	21.28
838.6	20.54
838.8	21.06
839.0	20.51
839.2	19.59
839.4	19.19
839.6	19.34
839.8	18.46
840.0	18.19
840.2	18.07
840.4	18.39
840.6	18.17
840.8	18.50
841.0	18.42
841.2	18.40
841.4	17.97
841.6	17.59
841.8	16.25
842.0	15.77
842.2	15.66
842.4	15.83
842.6	15.56
842.8	16.00
843.0	15.48
843.2	15.62
843.4	15.31
843.6	15.43
843.8	15.35
844.0	15.54
844.2	15.19
844.4	14.38
844.6	13.68
844.8	14.19
845.0	13.98
845.2	14.09
845.4	14.21
