Sample:	'20211010A(EM)
File name:	500.FDS
Run date:	'16:26:37, 03/23/2023
Operator:	Administrator
Comment:	'

Instrument
Model:	F-4700 FL Spectrophotometer
Serial number:	2019-001
ROM Version:	5J24010 00

Instrument parameters
Measurement type:	Wavelength scan
Scan mode:	Emission
Data mode:	Fluorescence
EX WL:	530.0 nm
EM  Start WL:	550.0 nm
EM  End WL:	900.0 nm
Scan speed:	1200 nm/min
Delay:	0.0 s
EX Slit:	10.0 nm
EM Slit:	10.0 nm
PMT Voltage:	660 V
Response:	0.002 s
Corrected spectra:	Off
Shutter control:	On

Processing performed
Savitsky-Golay smoothed
Smoothing order:	3
Number of points:	7
Number of times:	1

Peak integration
Integration method:	Rectangular
Sensitivity:	1
Threshold:	1.000

Peaks
No.	Start(nm)	Apex(nm)	End(nm)	Height(Data)	Valley(nm)	Valley(Data)
1	550.0	622.2	622.8	7481	622.8	7449
2	622.8	623.6	756.2	7492	756.2	295.1
3	756.2	757.2	781.8	300.2	781.8	122.9
4	781.8	782.6	789.6	126.9	789.6	104.1
5	789.6	790.4	795.0	108.1	795.0	89.66
6	795.0	796.6	799.2	97.51	799.2	86.69
7	799.2	800.0	804.2	89.63	804.2	75.86
8	804.2	804.8	809.0	80.63	809.0	71.25
9	809.0	809.6	810.4	74.37	810.4	69.53
10	810.4	811.4	817.2	73.11	817.2	58.66
11	817.2	817.8	838.2	60.92	838.2	25.74
12	838.2	838.8	845.8	28.12	845.8	14.92
13	845.8	846.8	856.0	16.91	856.0	7.436
14	856.0	856.6	861.8	8.480	861.8	4.113
15	861.8	862.4	873.0	5.464	873.0	2.923
16	873.0	875.0	887.0	4.025	887.0	2.185
17	887.0	889.6	891.6	3.265	891.6	2.020
18	891.6	895.4	900.0	3.173	900.0	1.770

Data points
nm	Data
550.0	360.1
550.2	361.8
550.4	367.0
550.6	373.8
550.8	376.8
551.0	385.4
551.2	388.3
551.4	392.8
551.6	398.1
551.8	407.7
552.0	413.7
552.2	427.6
552.4	429.9
552.6	432.7
552.8	442.0
553.0	447.7
553.2	455.5
553.4	463.6
553.6	463.6
553.8	467.4
554.0	477.1
554.2	483.7
554.4	492.7
554.6	501.9
554.8	507.6
555.0	515.5
555.2	521.1
555.4	534.0
555.6	540.5
555.8	548.2
556.0	554.3
556.2	561.5
556.4	567.7
556.6	584.1
556.8	594.1
557.0	601.3
557.2	609.6
557.4	613.9
557.6	621.5
557.8	630.8
558.0	645.1
558.2	657.1
558.4	670.1
558.6	678.1
558.8	686.1
559.0	692.9
559.2	706.5
559.4	716.1
559.6	722.9
559.8	734.9
560.0	750.0
560.2	764.4
560.4	776.4
560.6	782.6
560.8	782.3
561.0	791.1
561.2	804.9
561.4	818.0
561.6	827.9
561.8	840.0
562.0	853.0
562.2	874.3
562.4	887.9
562.6	898.9
562.8	908.2
563.0	919.2
563.2	927.1
563.4	948.3
563.6	956.7
563.8	967.9
564.0	990.7
564.2	1008
564.4	1023
564.6	1044
564.8	1055
565.0	1065
565.2	1073
565.4	1084
565.6	1099
565.8	1120
566.0	1144
566.2	1161
566.4	1172
566.6	1190
566.8	1201
567.0	1222
567.2	1233
567.4	1250
567.6	1267
567.8	1288
568.0	1305
568.2	1323
568.4	1334
568.6	1352
568.8	1365
569.0	1383
569.2	1401
569.4	1419
569.6	1440
569.8	1465
570.0	1477
570.2	1494
570.4	1513
570.6	1534
570.8	1545
571.0	1568
571.2	1578
571.4	1594
571.6	1617
571.8	1651
572.0	1672
572.2	1698
572.4	1722
572.6	1737
572.8	1752
573.0	1778
573.2	1803
573.4	1821
573.6	1844
573.8	1866
574.0	1890
574.2	1911
574.4	1931
574.6	1944
574.8	1968
575.0	1996
575.2	2030
575.4	2052
575.6	2065
575.8	2080
576.0	2101
576.2	2121
576.4	2154
576.6	2178
576.8	2202
577.0	2232
577.2	2257
577.4	2288
577.6	2322
577.8	2345
578.0	2367
578.2	2379
578.4	2388
578.6	2421
578.8	2457
579.0	2474
579.2	2511
579.4	2535
579.6	2563
579.8	2604
580.0	2638
580.2	2642
580.4	2672
580.6	2704
580.8	2729
581.0	2769
581.2	2792
581.4	2805
581.6	2838
581.8	2867
582.0	2890
582.2	2928
582.4	2941
582.6	2970
582.8	2990
583.0	3015
583.2	3045
583.4	3081
583.6	3117
583.8	3152
584.0	3170
584.2	3207
584.4	3237
584.6	3260
584.8	3289
585.0	3316
585.2	3349
585.4	3397
585.6	3431
585.8	3452
586.0	3466
586.2	3486
586.4	3508
586.6	3546
586.8	3592
587.0	3629
587.2	3662
587.4	3696
587.6	3727
587.8	3751
588.0	3784
588.2	3798
588.4	3827
588.6	3856
588.8	3885
589.0	3913
589.2	3949
589.4	3988
589.6	4041
589.8	4078
590.0	4100
590.2	4126
590.4	4155
590.6	4190
590.8	4220
591.0	4253
591.2	4283
591.4	4330
591.6	4357
591.8	4384
592.0	4409
592.2	4447
592.4	4478
592.6	4514
592.8	4538
593.0	4566
593.2	4593
593.4	4625
593.6	4645
593.8	4676
594.0	4705
594.2	4740
594.4	4778
594.6	4820
594.8	4860
595.0	4896
595.2	4919
595.4	4948
595.6	4972
595.8	5005
596.0	5026
596.2	5046
596.4	5065
596.6	5102
596.8	5140
597.0	5191
597.2	5216
597.4	5241
597.6	5249
597.8	5282
598.0	5330
598.2	5374
598.4	5414
598.6	5438
598.8	5453
599.0	5467
599.2	5499
599.4	5525
599.6	5563
599.8	5596
600.0	5633
600.2	5649
600.4	5673
600.6	5699
600.8	5745
601.0	5802
601.2	5834
601.4	5836
601.6	5847
601.8	5850
602.0	5870
602.2	5924
602.4	5945
602.6	5959
602.8	5986
603.0	6007
603.2	6042
603.4	6078
603.6	6113
603.8	6149
604.0	6161
604.2	6191
604.4	6216
604.6	6226
604.8	6270
605.0	6310
605.2	6338
605.4	6357
605.6	6366
605.8	6380
606.0	6408
606.2	6450
606.4	6496
606.6	6501
606.8	6525
607.0	6542
607.2	6557
607.4	6587
607.6	6605
607.8	6599
608.0	6632
608.2	6659
608.4	6669
608.6	6690
608.8	6718
609.0	6736
609.2	6774
609.4	6785
609.6	6794
609.8	6800
610.0	6830
610.2	6853
610.4	6890
610.6	6894
610.8	6914
611.0	6913
611.2	6926
611.4	6949
611.6	6972
611.8	6992
612.0	7004
612.2	7008
612.4	7020
612.6	7049
612.8	7076
613.0	7098
613.2	7091
613.4	7104
613.6	7099
613.8	7123
614.0	7156
614.2	7169
614.4	7180
614.6	7209
614.8	7204
615.0	7225
615.2	7247
615.4	7253
615.6	7268
615.8	7274
616.0	7277
616.2	7291
616.4	7316
616.6	7308
616.8	7312
617.0	7321
617.2	7324
617.4	7331
617.6	7362
617.8	7372
618.0	7391
618.2	7407
618.4	7388
618.6	7394
618.8	7402
619.0	7399
619.2	7410
619.4	7421
619.6	7424
619.8	7448
620.0	7462
620.2	7464
620.4	7455
620.6	7455
620.8	7458
621.0	7461
621.2	7465
621.4	7462
621.6	7459
621.8	7469
622.0	7473
622.2	7481
622.4	7468
622.6	7452
622.8	7449
623.0	7460
623.2	7458
623.4	7465
623.6	7492
623.8	7491
624.0	7472
624.2	7480
624.4	7477
624.6	7465
624.8	7481
625.0	7473
625.2	7455
625.4	7460
625.6	7448
625.8	7444
626.0	7451
626.2	7464
626.4	7471
626.6	7466
626.8	7440
627.0	7442
627.2	7424
627.4	7423
627.6	7426
627.8	7421
628.0	7420
628.2	7424
628.4	7415
628.6	7405
628.8	7403
629.0	7405
629.2	7397
629.4	7366
629.6	7351
629.8	7325
630.0	7320
630.2	7334
630.4	7328
630.6	7303
630.8	7300
631.0	7296
631.2	7288
631.4	7298
631.6	7281
631.8	7268
632.0	7267
632.2	7257
632.4	7233
632.6	7231
632.8	7195
633.0	7174
633.2	7171
633.4	7173
633.6	7169
633.8	7172
634.0	7146
634.2	7127
634.4	7129
634.6	7123
634.8	7109
635.0	7097
635.2	7076
635.4	7052
635.6	7048
635.8	7031
636.0	7023
636.2	7006
636.4	6997
636.6	6990
636.8	6983
637.0	6964
637.2	6957
637.4	6933
637.6	6913
637.8	6912
638.0	6885
638.2	6861
638.4	6855
638.6	6857
638.8	6827
639.0	6805
639.2	6783
639.4	6766
639.6	6752
639.8	6750
640.0	6731
640.2	6707
640.4	6693
640.6	6678
640.8	6649
641.0	6624
641.2	6601
641.4	6585
641.6	6577
641.8	6574
642.0	6563
642.2	6543
642.4	6516
642.6	6506
642.8	6501
643.0	6503
643.2	6493
643.4	6473
643.6	6443
643.8	6408
644.0	6376
644.2	6355
644.4	6340
644.6	6328
644.8	6309
645.0	6275
645.2	6245
645.4	6231
645.6	6227
645.8	6227
646.0	6207
646.2	6186
646.4	6164
646.6	6153
646.8	6138
647.0	6112
647.2	6083
647.4	6066
647.6	6048
647.8	6028
648.0	6018
648.2	5980
648.4	5967
648.6	5946
648.8	5926
649.0	5890
649.2	5871
649.4	5832
649.6	5824
649.8	5819
650.0	5818
650.2	5786
650.4	5756
650.6	5716
650.8	5691
651.0	5680
651.2	5675
651.4	5666
651.6	5647
651.8	5618
652.0	5584
652.2	5571
652.4	5557
652.6	5528
652.8	5516
653.0	5487
653.2	5473
653.4	5469
653.6	5451
653.8	5417
654.0	5404
654.2	5378
654.4	5356
654.6	5311
654.8	5280
655.0	5259
655.2	5246
655.4	5246
655.6	5241
655.8	5219
656.0	5204
656.2	5176
656.4	5147
656.6	5120
656.8	5104
657.0	5083
657.2	5070
657.4	5058
657.6	5045
657.8	5031
658.0	5004
658.2	4971
658.4	4942
658.6	4919
658.8	4900
659.0	4865
659.2	4830
659.4	4818
659.6	4810
659.8	4799
660.0	4782
660.2	4752
660.4	4731
660.6	4718
660.8	4704
661.0	4686
661.2	4659
661.4	4643
661.6	4617
661.8	4598
662.0	4579
662.2	4568
662.4	4552
662.6	4540
662.8	4523
663.0	4507
663.2	4474
663.4	4455
663.6	4431
663.8	4405
664.0	4373
664.2	4364
664.4	4357
664.6	4352
664.8	4334
665.0	4291
665.2	4245
665.4	4229
665.6	4228
665.8	4200
666.0	4182
666.2	4157
666.4	4139
666.6	4132
666.8	4123
667.0	4092
667.2	4072
667.4	4054
667.6	4040
667.8	4021
668.0	3998
668.2	3974
668.4	3959
668.6	3947
668.8	3937
669.0	3916
669.2	3898
669.4	3875
669.6	3852
669.8	3836
670.0	3819
670.2	3794
670.4	3785
670.6	3769
670.8	3758
671.0	3731
671.2	3702
671.4	3669
671.6	3652
671.8	3644
672.0	3646
672.2	3633
672.4	3625
672.6	3609
672.8	3582
673.0	3561
673.2	3543
673.4	3528
673.6	3522
673.8	3507
674.0	3475
674.2	3457
674.4	3434
674.6	3402
674.8	3386
675.0	3369
675.2	3355
675.4	3347
675.6	3330
675.8	3319
676.0	3311
676.2	3299
676.4	3285
676.6	3260
676.8	3230
677.0	3216
677.2	3206
677.4	3183
677.6	3156
677.8	3132
678.0	3113
678.2	3107
678.4	3108
678.6	3101
678.8	3084
679.0	3059
679.2	3037
679.4	3008
679.6	2986
679.8	2974
680.0	2970
680.2	2956
680.4	2937
680.6	2920
680.8	2904
681.0	2893
681.2	2891
681.4	2883
681.6	2863
681.8	2847
682.0	2831
682.2	2815
682.4	2795
682.6	2781
682.8	2758
683.0	2742
683.2	2727
683.4	2712
683.6	2698
683.8	2691
684.0	2673
684.2	2657
684.4	2642
684.6	2632
684.8	2622
685.0	2612
685.2	2583
685.4	2565
685.6	2554
685.8	2546
686.0	2536
686.2	2523
686.4	2500
686.6	2485
686.8	2474
687.0	2467
687.2	2453
687.4	2447
687.6	2436
687.8	2411
688.0	2400
688.2	2394
688.4	2380
688.6	2374
688.8	2363
689.0	2344
689.2	2331
689.4	2319
689.6	2307
689.8	2291
690.0	2278
690.2	2273
690.4	2254
690.6	2247
690.8	2244
691.0	2233
691.2	2227
691.4	2213
691.6	2177
691.8	2159
692.0	2149
692.2	2130
692.4	2131
692.6	2123
692.8	2111
693.0	2111
693.2	2106
693.4	2084
693.6	2077
693.8	2057
694.0	2041
694.2	2032
694.4	2017
694.6	2012
694.8	2007
695.0	2004
695.2	1996
695.4	1988
695.6	1976
695.8	1963
696.0	1945
696.2	1931
696.4	1914
696.6	1904
696.8	1891
697.0	1882
697.2	1871
697.4	1872
697.6	1870
697.8	1856
698.0	1846
698.2	1840
698.4	1827
698.6	1831
698.8	1827
699.0	1811
699.2	1802
699.4	1790
699.6	1778
699.8	1773
700.0	1761
700.2	1749
700.4	1738
700.6	1720
700.8	1707
701.0	1711
701.2	1706
701.4	1706
701.6	1697
701.8	1689
702.0	1681
702.2	1681
702.4	1669
702.6	1659
702.8	1642
703.0	1638
703.2	1636
703.4	1628
703.6	1618
703.8	1615
704.0	1602
704.2	1589
704.4	1585
704.6	1574
704.8	1569
705.0	1565
705.2	1558
705.4	1538
705.6	1532
705.8	1528
706.0	1528
706.2	1519
706.4	1513
706.6	1495
706.8	1481
707.0	1483
707.2	1481
707.4	1476
707.6	1473
707.8	1462
708.0	1456
708.2	1448
708.4	1444
708.6	1434
708.8	1423
709.0	1410
709.2	1407
709.4	1396
709.6	1393
709.8	1383
710.0	1368
710.2	1361
710.4	1353
710.6	1348
710.8	1343
711.0	1337
711.2	1330
711.4	1327
711.6	1319
711.8	1314
712.0	1309
712.2	1296
712.4	1290
712.6	1277
712.8	1266
713.0	1261
713.2	1256
713.4	1245
713.6	1242
713.8	1231
714.0	1226
714.2	1228
714.4	1230
714.6	1225
714.8	1219
715.0	1204
715.2	1190
715.4	1182
715.6	1172
715.8	1167
716.0	1160
716.2	1147
716.4	1139
716.6	1134
716.8	1129
717.0	1131
717.2	1125
717.4	1110
717.6	1096
717.8	1080
718.0	1070
718.2	1069
718.4	1075
718.6	1071
718.8	1061
719.0	1050
719.2	1045
719.4	1039
719.6	1038
719.8	1023
720.0	1010
720.2	1000
720.4	996.8
720.6	1000
720.8	998.9
721.0	991.0
721.2	984.2
721.4	976.6
721.6	970.7
721.8	967.7
722.0	962.2
722.2	960.0
722.4	957.1
722.6	948.4
722.8	940.8
723.0	925.8
723.2	917.7
723.4	913.8
723.6	913.8
723.8	906.9
724.0	902.9
724.2	893.8
724.4	889.1
724.6	879.1
724.8	879.7
725.0	874.8
725.2	871.2
725.4	858.7
725.6	850.6
725.8	843.1
726.0	841.6
726.2	843.8
726.4	840.6
726.6	832.7
726.8	821.2
727.0	810.5
727.2	800.1
727.4	797.3
727.6	789.7
727.8	793.5
728.0	788.4
728.2	784.3
728.4	779.8
728.6	773.4
728.8	763.7
729.0	757.2
729.2	748.3
729.4	741.1
729.6	734.9
729.8	734.7
730.0	733.2
730.2	726.7
730.4	720.9
730.6	719.4
730.8	714.9
731.0	713.8
731.2	710.1
731.4	699.1
731.6	689.6
731.8	692.5
732.0	686.9
732.2	686.7
732.4	678.9
732.6	666.7
732.8	658.9
733.0	659.2
733.2	654.5
733.4	652.4
733.6	646.1
733.8	641.6
734.0	638.3
734.2	630.2
734.4	626.6
734.6	618.5
734.8	618.2
735.0	615.8
735.2	614.3
735.4	609.5
735.6	611.6
735.8	606.1
736.0	601.5
736.2	587.1
736.4	575.6
736.6	570.6
736.8	571.1
737.0	570.2
737.2	570.5
737.4	564.1
737.6	558.6
737.8	561.2
738.0	557.2
738.2	556.1
738.4	549.2
738.6	544.9
738.8	541.0
739.0	538.3
739.2	534.3
739.4	535.6
739.6	527.5
739.8	527.7
740.0	525.1
740.2	516.9
740.4	511.6
740.6	510.4
740.8	507.1
741.0	508.7
741.2	504.8
741.4	499.2
741.6	491.4
741.8	488.9
742.0	487.3
742.2	485.1
742.4	477.9
742.6	474.8
742.8	473.1
743.0	474.8
743.2	469.7
743.4	465.3
743.6	455.8
743.8	454.2
744.0	454.1
744.2	451.7
744.4	445.8
744.6	441.1
744.8	435.5
745.0	435.6
745.2	438.9
745.4	440.8
745.6	441.7
745.8	436.1
746.0	429.7
746.2	417.8
746.4	414.5
746.6	413.3
746.8	413.7
747.0	413.7
747.2	408.0
747.4	399.5
747.6	395.9
747.8	390.9
748.0	391.2
748.2	391.5
748.4	388.3
748.6	391.0
748.8	391.1
749.0	387.0
749.2	385.7
749.4	381.7
749.6	380.5
749.8	377.5
750.0	371.3
750.2	362.6
750.4	357.0
750.6	353.6
750.8	354.2
751.0	355.2
751.2	358.5
751.4	360.5
751.6	357.9
751.8	354.3
752.0	349.3
752.2	349.5
752.4	346.9
752.6	344.3
752.8	339.4
753.0	336.9
753.2	333.6
753.4	335.7
753.6	333.0
753.8	332.4
754.0	328.9
754.2	323.0
754.4	317.5
754.6	313.4
754.8	311.6
755.0	313.6
755.2	316.3
755.4	312.9
755.6	310.4
755.8	304.4
756.0	299.4
756.2	295.1
756.4	298.0
756.6	296.9
756.8	295.8
757.0	297.0
757.2	300.2
757.4	300.2
757.6	299.3
757.8	294.8
758.0	287.5
758.2	284.7
758.4	284.2
758.6	280.7
758.8	276.4
759.0	276.1
759.2	275.0
759.4	275.3
759.6	273.0
759.8	271.4
760.0	267.8
760.2	267.9
760.4	266.1
760.6	262.2
760.8	256.7
761.0	256.1
761.2	252.5
761.4	250.5
761.6	248.6
761.8	246.6
762.0	245.8
762.2	249.1
762.4	250.6
762.6	248.0
762.8	243.3
763.0	236.5
763.2	233.9
763.4	232.8
763.6	234.3
763.8	233.6
764.0	231.3
764.2	227.8
764.4	225.1
764.6	220.8
764.8	219.2
765.0	220.3
765.2	222.2
765.4	224.0
765.6	220.9
765.8	218.0
766.0	214.9
766.2	214.9
766.4	213.3
766.6	213.2
766.8	212.2
767.0	206.9
767.2	205.2
767.4	204.1
767.6	201.6
767.8	202.0
768.0	202.9
768.2	201.3
768.4	200.2
768.6	196.7
768.8	192.4
769.0	189.0
769.2	189.0
769.4	191.3
769.6	190.7
769.8	191.1
770.0	192.3
770.2	189.6
770.4	189.6
770.6	186.2
770.8	181.5
771.0	178.0
771.2	178.6
771.4	175.0
771.6	174.8
771.8	174.2
772.0	174.8
772.2	174.5
772.4	174.7
772.6	173.6
772.8	172.9
773.0	170.2
773.2	168.7
773.4	165.7
773.6	162.4
773.8	163.2
774.0	162.8
774.2	161.8
774.4	161.7
774.6	159.9
774.8	159.3
775.0	159.2
775.2	152.3
775.4	149.4
775.6	149.7
775.8	152.1
776.0	154.3
776.2	156.3
776.4	150.7
776.6	147.1
776.8	147.0
777.0	146.9
777.2	146.4
777.4	149.1
777.6	146.9
777.8	147.7
778.0	148.2
778.2	142.9
778.4	138.8
778.6	135.6
778.8	133.1
779.0	135.5
779.2	137.1
779.4	136.3
779.6	135.4
779.8	132.4
780.0	131.0
780.2	131.6
780.4	131.4
780.6	132.3
780.8	131.4
781.0	128.5
781.2	127.2
781.4	125.7
781.6	123.9
781.8	122.9
782.0	125.6
782.2	125.1
782.4	126.8
782.6	126.9
782.8	126.0
783.0	124.7
783.2	124.8
783.4	121.3
783.6	119.3
783.8	118.7
784.0	118.4
784.2	118.7
784.4	118.8
784.6	118.1
784.8	115.8
785.0	115.8
785.2	115.9
785.4	117.1
785.6	116.3
785.8	114.8
786.0	112.7
786.2	112.7
786.4	113.4
786.6	115.8
786.8	114.4
787.0	113.7
787.2	114.1
787.4	113.2
787.6	113.0
787.8	111.7
788.0	109.1
788.2	108.9
788.4	109.3
788.6	110.3
788.8	111.2
789.0	109.2
789.2	107.3
789.4	105.7
789.6	104.1
789.8	105.7
790.0	107.1
790.2	107.4
790.4	108.1
790.6	106.6
790.8	105.0
791.0	103.6
791.2	103.0
791.4	101.1
791.6	101.1
791.8	100.3
792.0	100.6
792.2	100.4
792.4	100.5
792.6	101.1
792.8	100.2
793.0	100.2
793.2	100.5
793.4	99.14
793.6	97.73
793.8	98.20
794.0	97.40
794.2	97.27
794.4	95.65
794.6	92.48
794.8	90.63
795.0	89.66
795.2	92.48
795.4	95.57
795.6	95.60
795.8	92.74
796.0	91.98
796.2	92.81
796.4	95.33
796.6	97.51
796.8	96.37
797.0	93.59
797.2	92.11
797.4	92.53
797.6	91.72
797.8	90.43
798.0	90.44
798.2	91.77
798.4	91.77
798.6	91.51
798.8	90.18
799.0	87.83
799.2	86.69
799.4	88.29
799.6	88.28
799.8	88.61
800.0	89.63
800.2	88.43
800.4	87.76
800.6	88.88
800.8	86.75
801.0	85.33
801.2	83.97
801.4	82.79
801.6	83.12
801.8	83.52
802.0	83.98
802.2	83.92
802.4	84.20
802.6	83.24
802.8	82.65
803.0	82.30
803.2	83.95
803.4	82.77
803.6	81.94
803.8	78.44
804.0	76.84
804.2	75.86
804.4	77.92
804.6	79.66
804.8	80.63
805.0	80.40
805.2	78.83
805.4	76.93
805.6	76.87
805.8	77.32
806.0	77.96
806.2	77.42
806.4	75.69
806.6	75.84
806.8	77.33
807.0	76.52
807.2	76.42
807.4	76.08
807.6	74.25
807.8	75.34
808.0	76.43
808.2	73.57
808.4	72.84
808.6	72.46
808.8	71.45
809.0	71.25
809.2	72.56
809.4	72.71
809.6	74.37
809.8	73.55
810.0	72.13
810.2	69.80
810.4	69.53
810.6	70.21
810.8	71.64
811.0	72.28
811.2	72.83
811.4	73.11
811.6	72.12
811.8	71.01
812.0	70.92
812.2	70.93
812.4	70.44
812.6	69.12
812.8	67.97
813.0	67.26
813.2	68.18
813.4	68.42
813.6	68.03
813.8	66.56
814.0	65.92
814.2	65.53
814.4	64.83
814.6	65.38
814.8	64.36
815.0	62.55
815.2	61.79
815.4	60.76
815.6	60.75
815.8	62.67
816.0	62.42
816.2	62.08
816.4	61.29
816.6	59.65
816.8	58.98
817.0	59.50
817.2	58.66
817.4	60.31
817.6	60.79
817.8	60.92
818.0	60.41
818.2	60.07
818.4	58.23
818.6	56.93
818.8	56.46
819.0	57.48
819.2	57.59
819.4	58.00
819.6	59.24
819.8	57.96
820.0	55.94
820.2	55.81
820.4	54.31
820.6	53.29
820.8	54.83
821.0	54.31
821.2	54.59
821.4	55.80
821.6	56.31
821.8	55.73
822.0	53.86
822.2	53.60
822.4	53.76
822.6	52.86
822.8	52.14
823.0	51.49
823.2	49.94
823.4	51.10
823.6	49.76
823.8	50.05
824.0	49.08
824.2	49.17
824.4	49.65
824.6	50.24
824.8	48.63
825.0	48.09
825.2	46.63
825.4	46.55
825.6	47.09
825.8	47.10
826.0	46.62
826.2	45.18
826.4	44.72
826.6	43.51
826.8	42.80
827.0	41.97
827.2	43.21
827.4	41.83
827.6	41.89
827.8	40.41
828.0	39.97
828.2	41.56
828.4	42.93
828.6	41.34
828.8	41.05
829.0	40.12
829.2	40.64
829.4	41.47
829.6	41.68
829.8	40.72
830.0	40.51
830.2	39.00
830.4	38.92
830.6	37.68
830.8	36.57
831.0	35.87
831.2	36.81
831.4	36.11
831.6	36.03
831.8	35.61
832.0	34.03
832.2	33.67
832.4	34.17
832.6	34.93
832.8	35.60
833.0	34.97
833.2	33.89
833.4	34.32
833.6	33.99
833.8	34.47
834.0	34.99
834.2	33.10
834.4	32.02
834.6	32.55
834.8	32.21
835.0	30.94
835.2	30.98
835.4	30.28
835.6	31.16
835.8	31.81
836.0	32.01
836.2	31.10
836.4	30.52
836.6	29.41
836.8	28.68
837.0	27.63
837.2	27.42
837.4	27.09
837.6	26.80
837.8	25.94
838.0	26.05
838.2	25.74
838.4	26.82
838.6	27.63
838.8	28.12
839.0	27.99
839.2	27.81
839.4	25.81
839.6	24.43
839.8	23.13
840.0	22.98
840.2	22.50
840.4	23.01
840.6	22.62
840.8	22.80
841.0	22.28
841.2	22.66
841.4	22.17
841.6	22.32
841.8	21.91
842.0	22.07
842.2	20.95
842.4	20.48
842.6	20.27
842.8	20.82
843.0	21.15
843.2	21.74
843.4	21.05
843.6	19.88
843.8	19.45
844.0	18.02
844.2	16.96
844.4	16.71
844.6	16.27
844.8	16.96
845.0	17.34
845.2	16.03
845.4	15.47
845.6	15.09
