Sample:	'20211010A(EM)
File name:	600.FDS
Run date:	'16:27:53, 03/23/2023
Operator:	Administrator
Comment:	'

Instrument
Model:	F-4700 FL Spectrophotometer
Serial number:	2019-001
ROM Version:	5J24010 00

Instrument parameters
Measurement type:	Wavelength scan
Scan mode:	Emission
Data mode:	Fluorescence
EX WL:	530.0 nm
EM  Start WL:	550.0 nm
EM  End WL:	900.0 nm
Scan speed:	1200 nm/min
Delay:	0.0 s
EX Slit:	10.0 nm
EM Slit:	10.0 nm
PMT Voltage:	660 V
Response:	0.002 s
Corrected spectra:	Off
Shutter control:	On

Processing performed
Savitsky-Golay smoothed
Smoothing order:	3
Number of points:	7
Number of times:	1

Peak integration
Integration method:	Rectangular
Sensitivity:	1
Threshold:	1.000

Peaks
No.	Start(nm)	Apex(nm)	End(nm)	Height(Data)	Valley(nm)	Valley(Data)
1	550.0	621.8	622.2	6980	622.2	6941
2	622.2	623.4	627.0	6971	627.0	6899
3	627.0	628.0	631.4	6942	631.4	6723
4	631.4	632.0	772.8	6757	772.8	150.3
5	772.8	773.8	786.6	158.3	786.6	104.1
6	786.6	787.6	795.0	105.7	795.0	85.71
7	795.0	795.8	799.0	91.28	799.0	81.28
8	799.0	799.8	802.4	86.46	802.4	76.45
9	802.4	803.0	809.2	80.53	809.2	65.28
10	809.2	809.8	813.4	69.13	813.4	59.91
11	813.4	814.2	815.2	62.37	815.2	57.37
12	815.2	816.2	817.6	60.98	817.6	55.46
13	817.6	818.4	846.8	57.21	846.8	12.77
14	846.8	847.8	854.6	14.57	854.6	7.183
15	854.6	855.6	860.0	8.215	860.0	5.081
16	860.0	860.4	864.6	6.289	864.6	3.591
17	864.6	865.6	868.6	5.161	868.6	3.378
18	868.6	869.4	877.8	4.438	877.8	1.953
19	877.8	878.4	880.2	3.363	880.2	2.208
20	880.2	881.6	900.0	3.505	900.0	2.864

Data points
nm	Data
550.0	332.0
550.2	337.5
550.4	340.5
550.6	342.9
550.8	348.4
551.0	356.7
551.2	363.8
551.4	369.8
551.6	372.1
551.8	376.1
552.0	382.5
552.2	390.6
552.4	396.1
552.6	396.8
552.8	398.1
553.0	400.9
553.2	410.4
553.4	420.1
553.6	430.0
553.8	437.6
554.0	441.1
554.2	444.5
554.4	453.0
554.6	458.2
554.8	465.2
555.0	470.9
555.2	477.8
555.4	487.0
555.6	496.0
555.8	509.7
556.0	518.7
556.2	527.2
556.4	536.7
556.6	541.5
556.8	542.3
557.0	552.9
557.2	559.3
557.4	573.0
557.6	582.4
557.8	595.2
558.0	602.1
558.2	611.9
558.4	618.1
558.6	623.9
558.8	632.7
559.0	648.7
559.2	658.5
559.4	666.3
559.6	673.6
559.8	677.6
560.0	689.4
560.2	703.9
560.4	716.3
560.6	726.3
560.8	739.5
561.0	745.3
561.2	757.0
561.4	767.7
561.6	777.9
561.8	788.0
562.0	807.8
562.2	814.1
562.4	825.1
562.6	832.1
562.8	841.9
563.0	855.9
563.2	877.6
563.4	889.3
563.6	904.0
563.8	918.0
564.0	926.9
564.2	937.6
564.4	945.1
564.6	954.4
564.8	968.8
565.0	985.8
565.2	993.2
565.4	1007
565.6	1018
565.8	1040
566.0	1061
566.2	1078
566.4	1093
566.6	1103
566.8	1119
567.0	1133
567.2	1145
567.4	1151
567.6	1172
567.8	1189
568.0	1217
568.2	1235
568.4	1252
568.6	1262
568.8	1280
569.0	1293
569.2	1310
569.4	1327
569.6	1341
569.8	1353
570.0	1375
570.2	1391
570.4	1410
570.6	1428
570.8	1441
571.0	1454
571.2	1475
571.4	1494
571.6	1518
571.8	1542
572.0	1564
572.2	1584
572.4	1594
572.6	1607
572.8	1631
573.0	1656
573.2	1680
573.4	1703
573.6	1717
573.8	1737
574.0	1762
574.2	1792
574.4	1820
574.6	1838
574.8	1851
575.0	1874
575.2	1891
575.4	1911
575.6	1933
575.8	1953
576.0	1967
576.2	1995
576.4	2020
576.6	2042
576.8	2064
577.0	2092
577.2	2114
577.4	2142
577.6	2167
577.8	2196
578.0	2213
578.2	2236
578.4	2263
578.6	2287
578.8	2302
579.0	2321
579.2	2333
579.4	2351
579.6	2382
579.8	2418
580.0	2444
580.2	2477
580.4	2499
580.6	2514
580.8	2535
581.0	2565
581.2	2591
581.4	2624
581.6	2653
581.8	2679
582.0	2705
582.2	2740
582.4	2768
582.6	2806
582.8	2837
583.0	2852
583.2	2876
583.4	2897
583.6	2924
583.8	2961
584.0	2973
584.2	2984
584.4	3014
584.6	3048
584.8	3089
585.0	3125
585.2	3139
585.4	3166
585.6	3191
585.8	3220
586.0	3252
586.2	3273
586.4	3296
586.6	3332
586.8	3358
587.0	3384
587.2	3421
587.4	3439
587.6	3474
587.8	3513
588.0	3537
588.2	3565
588.4	3593
588.6	3615
588.8	3645
589.0	3682
589.2	3708
589.4	3746
589.6	3772
589.8	3800
590.0	3825
590.2	3849
590.4	3869
590.6	3900
590.8	3931
591.0	3958
591.2	3989
591.4	4021
591.6	4064
591.8	4108
592.0	4150
592.2	4179
592.4	4203
592.6	4220
592.8	4247
593.0	4267
593.2	4290
593.4	4321
593.6	4347
593.8	4380
594.0	4418
594.2	4445
594.4	4478
594.6	4515
594.8	4543
595.0	4564
595.2	4580
595.4	4609
595.6	4644
595.8	4697
596.0	4724
596.2	4723
596.4	4739
596.6	4769
596.8	4804
597.0	4852
597.2	4874
597.4	4888
597.6	4919
597.8	4953
598.0	4986
598.2	5025
598.4	5052
598.6	5077
598.8	5107
599.0	5152
599.2	5175
599.4	5202
599.6	5219
599.8	5230
600.0	5251
600.2	5287
600.4	5318
600.6	5358
600.8	5379
601.0	5391
601.2	5404
601.4	5413
601.6	5437
601.8	5468
602.0	5500
602.2	5542
602.4	5571
602.6	5571
602.8	5594
603.0	5633
603.2	5661
603.4	5706
603.6	5730
603.8	5742
604.0	5768
604.2	5791
604.4	5806
604.6	5835
604.8	5857
605.0	5895
605.2	5916
605.4	5923
605.6	5939
605.8	5965
606.0	5993
606.2	6025
606.4	6071
606.6	6106
606.8	6122
607.0	6130
607.2	6135
607.4	6132
607.6	6151
607.8	6155
608.0	6167
608.2	6181
608.4	6203
608.6	6239
608.8	6282
609.0	6312
609.2	6334
609.4	6347
609.6	6344
609.8	6357
610.0	6365
610.2	6376
610.4	6392
610.6	6419
610.8	6448
611.0	6484
611.2	6509
611.4	6512
611.6	6520
611.8	6526
612.0	6526
612.2	6529
612.4	6570
612.6	6590
612.8	6613
613.0	6629
613.2	6627
613.4	6626
613.6	6654
613.8	6661
614.0	6678
614.2	6684
614.4	6706
614.6	6732
614.8	6753
615.0	6741
615.2	6735
615.4	6728
615.6	6746
615.8	6769
616.0	6803
616.2	6794
616.4	6791
616.6	6801
616.8	6822
617.0	6844
617.2	6858
617.4	6839
617.6	6820
617.8	6822
618.0	6849
618.2	6868
618.4	6873
618.6	6873
618.8	6870
619.0	6893
619.2	6910
619.4	6912
619.6	6908
619.8	6908
620.0	6910
620.2	6933
620.4	6942
620.6	6946
620.8	6948
621.0	6946
621.2	6961
621.4	6970
621.6	6976
621.8	6980
622.0	6960
622.2	6941
622.4	6948
622.6	6946
622.8	6957
623.0	6959
623.2	6961
623.4	6971
623.6	6969
623.8	6961
624.0	6946
624.2	6941
624.4	6945
624.6	6953
624.8	6950
625.0	6937
625.2	6922
625.4	6943
625.6	6943
625.8	6951
626.0	6952
626.2	6932
626.4	6919
626.6	6918
626.8	6908
627.0	6899
627.2	6907
627.4	6910
627.6	6911
627.8	6923
628.0	6942
628.2	6930
628.4	6911
628.6	6877
628.8	6845
629.0	6841
629.2	6851
629.4	6861
629.6	6853
629.8	6850
630.0	6845
630.2	6820
630.4	6799
630.6	6773
630.8	6750
631.0	6740
631.2	6738
631.4	6723
631.6	6747
631.8	6747
632.0	6757
632.2	6757
632.4	6748
632.6	6718
632.8	6708
633.0	6691
633.2	6681
633.4	6680
633.6	6670
633.8	6655
634.0	6644
634.2	6627
634.4	6611
634.6	6612
634.8	6599
635.0	6592
635.2	6582
635.4	6560
635.6	6539
635.8	6524
636.0	6500
636.2	6490
636.4	6477
636.6	6479
636.8	6475
637.0	6459
637.2	6444
637.4	6434
637.6	6420
637.8	6411
638.0	6399
638.2	6382
638.4	6376
638.6	6370
638.8	6349
639.0	6322
639.2	6316
639.4	6300
639.6	6292
639.8	6280
640.0	6251
640.2	6219
640.4	6200
640.6	6186
640.8	6178
641.0	6175
641.2	6158
641.4	6145
641.6	6115
641.8	6102
642.0	6065
642.2	6037
642.4	6004
642.6	6017
642.8	6023
643.0	6029
643.2	6019
643.4	5984
643.6	5952
643.8	5954
644.0	5947
644.2	5941
644.4	5929
644.6	5893
644.8	5862
645.0	5833
645.2	5809
645.4	5783
645.6	5761
645.8	5748
646.0	5720
646.2	5689
646.4	5670
646.6	5648
646.8	5645
647.0	5639
647.2	5627
647.4	5609
647.6	5604
647.8	5590
648.0	5580
648.2	5547
648.4	5503
648.6	5467
648.8	5451
649.0	5445
649.2	5455
649.4	5438
649.6	5403
649.8	5373
650.0	5337
650.2	5333
650.4	5339
650.6	5324
650.8	5307
651.0	5278
651.2	5240
651.4	5220
651.6	5208
651.8	5196
652.0	5191
652.2	5186
652.4	5172
652.6	5159
652.8	5130
653.0	5101
653.2	5084
653.4	5070
653.6	5050
653.8	5034
654.0	5000
654.2	4981
654.4	4964
654.6	4949
654.8	4916
655.0	4882
655.2	4861
655.4	4862
655.6	4849
655.8	4827
656.0	4798
656.2	4780
656.4	4758
656.6	4749
656.8	4736
657.0	4712
657.2	4698
657.4	4693
657.6	4669
657.8	4643
658.0	4637
658.2	4613
658.4	4595
658.6	4557
658.8	4520
659.0	4490
659.2	4487
659.4	4476
659.6	4481
659.8	4458
660.0	4429
660.2	4403
660.4	4376
660.6	4353
660.8	4340
661.0	4334
661.2	4313
661.4	4300
661.6	4272
661.8	4251
662.0	4222
662.2	4205
662.4	4189
662.6	4175
662.8	4150
663.0	4147
663.2	4130
663.4	4119
663.6	4108
663.8	4088
664.0	4072
664.2	4063
664.4	4032
664.6	4002
664.8	3972
665.0	3954
665.2	3941
665.4	3938
665.6	3915
665.8	3892
666.0	3874
666.2	3849
666.4	3823
666.6	3809
666.8	3794
667.0	3778
667.2	3759
667.4	3744
667.6	3739
667.8	3722
668.0	3713
668.2	3695
668.4	3680
668.6	3669
668.8	3654
669.0	3620
669.2	3599
669.4	3582
669.6	3573
669.8	3557
670.0	3543
670.2	3526
670.4	3513
670.6	3505
670.8	3477
671.0	3461
671.2	3438
671.4	3423
671.6	3415
671.8	3405
672.0	3371
672.2	3352
672.4	3324
672.6	3307
672.8	3297
673.0	3289
673.2	3270
673.4	3259
673.6	3244
673.8	3224
674.0	3209
674.2	3203
674.4	3183
674.6	3168
674.8	3153
675.0	3130
675.2	3116
675.4	3101
675.6	3074
675.8	3050
676.0	3036
676.2	3020
676.4	3017
676.6	3000
676.8	2991
677.0	2976
677.2	2953
677.4	2933
677.6	2925
677.8	2919
678.0	2917
678.2	2913
678.4	2892
678.6	2860
678.8	2832
679.0	2815
679.2	2800
679.4	2796
679.6	2793
679.8	2782
680.0	2768
680.2	2756
680.4	2740
680.6	2718
680.8	2700
681.0	2687
681.2	2674
681.4	2660
681.6	2649
681.8	2631
682.0	2612
682.2	2599
682.4	2591
682.6	2576
682.8	2565
683.0	2552
683.2	2535
683.4	2519
683.6	2519
683.8	2509
684.0	2489
684.2	2480
684.4	2464
684.6	2445
684.8	2431
685.0	2416
685.2	2396
685.4	2390
685.6	2378
685.8	2363
686.0	2343
686.2	2335
686.4	2319
686.6	2302
686.8	2282
687.0	2267
687.2	2256
687.4	2253
687.6	2248
687.8	2238
688.0	2225
688.2	2215
688.4	2204
688.6	2184
688.8	2175
689.0	2167
689.2	2161
689.4	2159
689.6	2154
689.8	2135
690.0	2115
690.2	2099
690.4	2089
690.6	2082
690.8	2078
691.0	2067
691.2	2048
691.4	2025
691.6	2009
691.8	1989
692.0	1976
692.2	1974
692.4	1975
692.6	1978
692.8	1978
693.0	1960
693.2	1945
693.4	1932
693.6	1920
693.8	1910
694.0	1901
694.2	1882
694.4	1879
694.6	1872
694.8	1873
695.0	1865
695.2	1859
695.4	1843
695.6	1828
695.8	1811
696.0	1798
696.2	1784
696.4	1777
696.6	1766
696.8	1763
697.0	1769
697.2	1762
697.4	1757
697.6	1747
697.8	1728
698.0	1721
698.2	1722
698.4	1721
698.6	1720
698.8	1702
699.0	1684
699.2	1674
699.4	1667
699.6	1670
699.8	1667
700.0	1646
700.2	1639
700.4	1628
700.6	1614
700.8	1602
701.0	1592
701.2	1578
701.4	1586
701.6	1585
701.8	1582
702.0	1569
702.2	1559
702.4	1552
702.6	1551
702.8	1547
703.0	1537
703.2	1520
703.4	1509
703.6	1509
703.8	1507
704.0	1504
704.2	1494
704.4	1481
704.6	1467
704.8	1462
705.0	1454
705.2	1446
705.4	1438
705.6	1428
705.8	1419
706.0	1416
706.2	1404
706.4	1400
706.6	1394
706.8	1392
707.0	1389
707.2	1387
707.4	1377
707.6	1367
707.8	1357
708.0	1352
708.2	1342
708.4	1335
708.6	1329
708.8	1319
709.0	1310
709.2	1298
709.4	1293
709.6	1284
709.8	1284
710.0	1287
710.2	1286
710.4	1282
710.6	1276
710.8	1255
711.0	1242
711.2	1227
711.4	1222
711.6	1223
711.8	1219
712.0	1214
712.2	1208
712.4	1192
712.6	1184
712.8	1177
713.0	1169
713.2	1165
713.4	1168
713.6	1165
713.8	1166
714.0	1159
714.2	1137
714.4	1127
714.6	1120
714.8	1111
715.0	1105
715.2	1101
715.4	1092
715.6	1094
715.8	1090
716.0	1081
716.2	1068
716.4	1064
716.6	1059
716.8	1055
717.0	1043
717.2	1029
717.4	1020
717.6	1015
717.8	1010
718.0	1013
718.2	1006
718.4	1001
718.6	1001
718.8	995.9
719.0	987.4
719.2	982.7
719.4	973.0
719.6	957.8
719.8	949.6
720.0	937.5
720.2	933.6
720.4	931.1
720.6	932.1
720.8	921.2
721.0	914.0
721.2	909.4
721.4	905.4
721.6	902.6
721.8	898.2
722.0	886.1
722.2	883.9
722.4	884.9
722.6	878.0
722.8	869.1
723.0	862.5
723.2	856.0
723.4	857.4
723.6	853.9
723.8	847.4
724.0	842.2
724.2	839.6
724.4	837.5
724.6	826.0
724.8	811.6
725.0	800.9
725.2	792.2
725.4	788.8
725.6	791.2
725.8	786.8
726.0	785.6
726.2	788.8
726.4	781.6
726.6	773.7
726.8	760.1
727.0	744.7
727.2	738.8
727.4	740.6
727.6	741.9
727.8	743.0
728.0	733.5
728.2	721.4
728.4	716.1
728.6	715.2
728.8	716.3
729.0	711.1
729.2	704.6
729.4	695.4
729.6	693.0
729.8	688.6
730.0	683.3
730.2	670.6
730.4	665.0
730.6	655.9
730.8	658.8
731.0	652.3
731.2	651.4
731.4	650.5
731.6	644.4
731.8	638.9
732.0	638.5
732.2	628.6
732.4	629.8
732.6	629.5
732.8	623.7
733.0	620.3
733.2	614.7
733.4	604.5
733.6	599.8
733.8	595.0
734.0	594.0
734.2	593.3
734.4	591.8
734.6	588.5
734.8	582.6
735.0	579.4
735.2	573.2
735.4	569.6
735.6	564.9
735.8	561.8
736.0	554.1
736.2	555.2
736.4	548.9
736.6	544.5
736.8	541.0
737.0	536.0
737.2	529.7
737.4	530.1
737.6	525.9
737.8	523.1
738.0	516.5
738.2	509.9
738.4	510.2
738.6	505.8
738.8	501.4
739.0	499.4
739.2	495.6
739.4	493.6
739.6	492.3
739.8	484.9
740.0	485.5
740.2	486.6
740.4	488.4
740.6	482.8
740.8	474.5
741.0	465.4
741.2	462.4
741.4	457.2
741.6	457.6
741.8	453.5
742.0	451.8
742.2	447.0
742.4	443.3
742.6	440.1
742.8	436.4
743.0	432.3
743.2	427.5
743.4	423.3
743.6	423.6
743.8	428.1
744.0	425.5
744.2	422.2
744.4	415.6
744.6	410.4
744.8	408.4
745.0	410.2
745.2	411.8
745.4	407.8
745.6	399.5
745.8	391.8
746.0	389.2
746.2	386.8
746.4	385.2
746.6	383.3
746.8	380.0
747.0	380.4
747.2	382.2
747.4	380.5
747.6	376.5
747.8	372.5
748.0	367.4
748.2	367.6
748.4	365.3
748.6	362.1
748.8	361.6
749.0	356.8
749.2	353.3
749.4	348.5
749.6	345.3
749.8	342.8
750.0	345.1
750.2	342.0
750.4	341.0
750.6	337.2
750.8	334.7
751.0	334.7
751.2	333.9
751.4	327.1
751.6	324.5
751.8	320.8
752.0	319.4
752.2	322.0
752.4	320.4
752.6	316.7
752.8	316.1
753.0	313.1
753.2	316.5
753.4	316.7
753.6	314.5
753.8	309.2
754.0	306.1
754.2	303.7
754.4	300.5
754.6	297.9
754.8	297.6
755.0	296.7
755.2	293.4
755.4	290.8
755.6	281.7
755.8	278.1
756.0	277.4
756.2	279.7
756.4	276.7
756.6	275.5
756.8	273.0
757.0	271.4
757.2	271.2
757.4	270.3
757.6	266.1
757.8	262.8
758.0	261.6
758.2	259.1
758.4	259.4
758.6	257.1
758.8	256.1
759.0	254.4
759.2	253.0
759.4	255.1
759.6	256.2
759.8	254.0
760.0	252.2
760.2	248.0
760.4	240.4
760.6	239.7
760.8	236.7
761.0	234.7
761.2	235.7
761.4	236.8
761.6	235.4
761.8	232.4
762.0	226.5
762.2	223.2
762.4	225.8
762.6	227.0
762.8	228.4
763.0	223.4
763.2	219.1
763.4	216.9
763.6	217.1
763.8	217.8
764.0	218.8
764.2	215.0
764.4	213.5
764.6	212.6
764.8	211.4
765.0	210.4
765.2	206.6
765.4	202.6
765.6	199.4
765.8	198.9
766.0	197.4
766.2	193.8
766.4	191.8
766.6	192.8
766.8	193.7
767.0	195.0
767.2	192.9
767.4	188.8
767.6	185.9
767.8	183.5
768.0	181.2
768.2	179.5
768.4	177.9
768.6	178.6
768.8	180.2
769.0	181.2
769.2	180.0
769.4	178.5
769.6	178.3
769.8	176.8
770.0	177.5
770.2	177.1
770.4	173.5
770.6	170.8
770.8	169.9
771.0	166.3
771.2	164.1
771.4	162.1
771.6	159.2
771.8	159.1
772.0	159.1
772.2	155.7
772.4	154.1
772.6	151.5
772.8	150.3
773.0	150.8
773.2	152.9
773.4	153.9
773.6	157.4
773.8	158.3
774.0	157.3
774.2	153.2
774.4	149.6
774.6	146.3
774.8	144.7
775.0	144.6
775.2	145.5
775.4	143.9
775.6	141.9
775.8	140.5
776.0	139.3
776.2	138.0
776.4	137.4
776.6	137.0
776.8	139.2
777.0	140.3
777.2	140.0
777.4	137.7
777.6	131.6
777.8	127.7
778.0	126.5
778.2	126.3
778.4	130.0
778.6	131.5
778.8	128.7
779.0	126.8
779.2	123.3
779.4	121.1
779.6	121.8
779.8	123.5
780.0	125.4
780.2	125.8
780.4	123.1
780.6	119.7
780.8	115.8
781.0	115.8
781.2	116.8
781.4	117.2
781.6	117.4
781.8	118.6
782.0	118.2
782.2	117.2
782.4	116.0
782.6	116.7
782.8	116.2
783.0	116.8
783.2	114.2
783.4	109.6
783.6	109.8
783.8	110.0
784.0	112.4
784.2	113.2
784.4	111.2
784.6	107.8
784.8	108.1
785.0	107.0
785.2	108.6
785.4	107.9
785.6	107.8
785.8	106.2
786.0	105.5
786.2	104.2
786.4	104.6
786.6	104.1
786.8	104.7
787.0	104.6
787.2	105.6
787.4	105.5
787.6	105.7
787.8	104.1
788.0	102.6
788.2	100.9
788.4	101.8
788.6	101.6
788.8	101.0
789.0	99.75
789.2	100.2
789.4	99.61
789.6	99.69
789.8	100.8
790.0	99.67
790.2	98.73
790.4	99.78
790.6	99.23
790.8	98.49
791.0	99.51
791.2	97.11
791.4	96.51
791.6	96.77
791.8	96.87
792.0	97.21
792.2	97.46
792.4	96.95
792.6	95.85
792.8	95.98
793.0	95.52
793.2	91.86
793.4	90.11
793.6	90.15
793.8	89.60
794.0	90.94
794.2	92.32
794.4	90.22
794.6	89.71
794.8	87.87
795.0	85.71
795.2	86.19
795.4	88.83
795.6	88.99
795.8	91.28
796.0	89.11
796.2	87.68
796.4	87.21
796.6	88.22
796.8	87.52
797.0	87.79
797.2	86.25
797.4	85.45
797.6	84.40
797.8	85.90
798.0	85.84
798.2	84.70
798.4	85.07
798.6	84.42
798.8	82.80
799.0	81.28
799.2	81.44
799.4	81.99
799.6	84.87
799.8	86.46
800.0	86.34
800.2	83.51
800.4	81.25
800.6	79.33
800.8	78.49
801.0	78.74
801.2	80.05
801.4	80.06
801.6	79.03
801.8	78.63
802.0	77.21
802.2	77.00
802.4	76.45
802.6	77.95
802.8	80.37
803.0	80.53
803.2	79.37
803.4	77.80
803.6	75.93
803.8	76.06
804.0	77.17
804.2	77.82
804.4	78.12
804.6	77.74
804.8	76.61
805.0	77.20
805.2	76.33
805.4	75.72
805.6	75.11
805.8	73.35
806.0	72.36
806.2	73.75
806.4	72.02
806.6	72.39
806.8	72.33
807.0	72.86
807.2	73.36
807.4	73.24
807.6	71.27
807.8	71.95
808.0	71.57
808.2	72.71
808.4	72.37
808.6	70.92
808.8	68.46
809.0	65.90
809.2	65.28
809.4	66.77
809.6	68.50
809.8	69.13
810.0	68.67
810.2	67.48
810.4	66.34
810.6	66.66
810.8	66.76
811.0	66.08
811.2	65.04
811.4	64.42
811.6	62.60
811.8	62.95
812.0	63.04
812.2	62.10
812.4	61.44
812.6	60.99
812.8	61.38
813.0	61.70
813.2	60.34
813.4	59.91
813.6	59.97
813.8	60.11
814.0	61.39
814.2	62.37
814.4	61.69
814.6	61.24
814.8	59.25
815.0	58.41
815.2	57.37
815.4	57.87
815.6	58.75
815.8	59.23
816.0	60.87
816.2	60.98
816.4	59.62
816.6	58.33
816.8	56.43
817.0	55.94
817.2	56.62
817.4	55.71
817.6	55.46
817.8	55.73
818.0	56.43
818.2	56.61
818.4	57.21
818.6	56.21
818.8	54.88
819.0	54.64
819.2	54.68
819.4	53.53
819.6	53.96
819.8	52.00
820.0	51.65
820.2	51.19
820.4	52.23
820.6	51.77
820.8	50.28
821.0	48.82
821.2	49.16
821.4	48.57
821.6	50.02
821.8	50.23
822.0	48.89
822.2	49.17
822.4	48.61
822.6	47.09
822.8	46.86
823.0	47.88
823.2	47.49
823.4	47.92
823.6	47.26
823.8	45.00
824.0	45.89
824.2	47.21
824.4	47.21
824.6	46.57
824.8	45.83
825.0	44.38
825.2	45.19
825.4	45.01
825.6	43.99
825.8	43.09
826.0	43.20
826.2	42.86
826.4	44.21
826.6	42.73
826.8	41.57
827.0	41.19
827.2	41.27
827.4	40.46
827.6	41.40
827.8	40.46
828.0	40.03
828.2	40.94
828.4	40.42
828.6	39.06
828.8	38.56
829.0	38.26
829.2	38.36
829.4	39.44
829.6	38.81
829.8	38.19
830.0	37.93
830.2	37.31
830.4	36.95
830.6	37.32
830.8	37.05
831.0	36.76
831.2	35.65
831.4	34.82
831.6	33.81
831.8	34.25
832.0	35.24
832.2	34.66
832.4	34.76
832.6	34.78
832.8	33.46
833.0	32.75
833.2	33.63
833.4	32.96
833.6	33.82
833.8	33.97
834.0	33.23
834.2	31.59
834.4	30.35
834.6	28.32
834.8	28.44
835.0	30.24
835.2	32.11
835.4	31.90
835.6	31.01
835.8	28.30
836.0	26.66
836.2	27.18
836.4	26.85
836.6	27.25
836.8	27.59
837.0	27.30
837.2	27.15
837.4	26.88
837.6	25.34
837.8	25.44
838.0	25.19
838.2	24.44
838.4	24.28
838.6	23.41
838.8	22.85
839.0	23.21
839.2	23.78
839.4	23.63
839.6	23.85
839.8	23.20
840.0	22.98
840.2	23.05
840.4	23.81
840.6	23.95
840.8	23.40
841.0	22.06
841.2	20.62
841.4	19.96
841.6	20.37
841.8	20.83
842.0	20.97
842.2	21.06
842.4	19.44
842.6	18.30
842.8	18.21
843.0	18.50
843.2	18.62
843.4	18.95
843.6	18.20
843.8	18.02
844.0	18.22
844.2	17.91
