Sample:	'20211010A(EM)
File name:	640v R-NI-CDs.FDS
Run date:	'16:16:43, 03/23/2023
Operator:	Administrator
Comment:	'

Instrument
Model:	F-4700 FL Spectrophotometer
Serial number:	2019-001
ROM Version:	5J24010 00

Instrument parameters
Measurement type:	Wavelength scan
Scan mode:	Emission
Data mode:	Fluorescence
EX WL:	530.0 nm
EM  Start WL:	550.0 nm
EM  End WL:	900.0 nm
Scan speed:	1200 nm/min
Delay:	0.0 s
EX Slit:	10.0 nm
EM Slit:	10.0 nm
PMT Voltage:	640 V
Response:	0.002 s
Corrected spectra:	Off
Shutter control:	On

Processing performed
Savitsky-Golay smoothed
Smoothing order:	3
Number of points:	7
Number of times:	1

Peak integration
Integration method:	Rectangular
Sensitivity:	1
Threshold:	1.000

Peaks
No.	Start(nm)	Apex(nm)	End(nm)	Height(Data)	Valley(nm)	Valley(Data)
1	550.0	616.2	765.8	7542	765.8	140.1
2	765.8	766.4	786.4	146.8	786.4	75.66
3	786.4	786.8	793.8	79.48	793.8	65.10
4	793.8	794.8	797.2	66.87	797.2	62.31
5	797.2	798.2	800.4	64.52	800.4	56.63
6	800.4	801.0	802.4	59.01	802.4	55.18
7	802.4	803.0	807.8	57.62	807.8	49.58
8	807.8	808.2	809.8	52.41	809.8	47.97
9	809.8	810.8	811.8	50.59	811.8	46.09
10	811.8	812.6	839.6	47.46	839.6	16.74
11	839.6	840.4	848.0	18.35	848.0	8.767
12	848.0	849.0	876.4	10.08	876.4	1.620
13	876.4	878.4	897.2	2.775	897.2	1.380

Data points
nm	Data
550.0	627.0
550.2	631.7
550.4	638.8
550.6	647.4
550.8	654.3
551.0	666.5
551.2	678.4
551.4	695.0
551.6	704.0
551.8	707.2
552.0	715.5
552.2	733.8
552.4	755.7
552.6	776.6
552.8	789.5
553.0	790.2
553.2	798.0
553.4	804.8
553.6	814.6
553.8	826.8
554.0	844.6
554.2	859.5
554.4	878.4
554.6	887.4
554.8	898.4
555.0	915.9
555.2	930.8
555.4	944.1
555.6	960.5
555.8	974.9
556.0	984.9
556.2	1008
556.4	1022
556.6	1030
556.8	1039
557.0	1051
557.2	1064
557.4	1088
557.6	1107
557.8	1126
558.0	1142
558.2	1159
558.4	1177
558.6	1188
558.8	1201
559.0	1218
559.2	1231
559.4	1255
559.6	1271
559.8	1289
560.0	1306
560.2	1328
560.4	1345
560.6	1371
560.8	1382
561.0	1395
561.2	1409
561.4	1428
561.6	1443
561.8	1466
562.0	1488
562.2	1515
562.4	1542
562.6	1565
562.8	1576
563.0	1589
563.2	1603
563.4	1623
563.6	1645
563.8	1679
564.0	1704
564.2	1728
564.4	1742
564.6	1754
564.8	1771
565.0	1806
565.2	1837
565.4	1858
565.6	1879
565.8	1895
566.0	1903
566.2	1924
566.4	1943
566.6	1961
566.8	1983
567.0	2011
567.2	2032
567.4	2066
567.6	2100
567.8	2134
568.0	2157
568.2	2176
568.4	2202
568.6	2223
568.8	2247
569.0	2279
569.2	2299
569.4	2319
569.6	2343
569.8	2362
570.0	2392
570.2	2427
570.4	2447
570.6	2475
570.8	2484
571.0	2511
571.2	2539
571.4	2569
571.6	2605
571.8	2638
572.0	2652
572.2	2684
572.4	2710
572.6	2740
572.8	2777
573.0	2800
573.2	2825
573.4	2857
573.6	2895
573.8	2925
574.0	2948
574.2	2969
574.4	2991
574.6	3020
574.8	3051
575.0	3073
575.2	3097
575.4	3132
575.6	3173
575.8	3208
576.0	3233
576.2	3263
576.4	3281
576.6	3305
576.8	3333
577.0	3361
577.2	3405
577.4	3448
577.6	3478
577.8	3506
578.0	3520
578.2	3546
578.4	3577
578.6	3605
578.8	3631
579.0	3669
579.2	3706
579.4	3746
579.6	3779
579.8	3811
580.0	3829
580.2	3859
580.4	3877
580.6	3894
580.8	3926
581.0	3967
581.2	4011
581.4	4059
581.6	4080
581.8	4104
582.0	4134
582.2	4173
582.4	4197
582.6	4226
582.8	4246
583.0	4282
583.2	4322
583.4	4364
583.6	4390
583.8	4424
584.0	4446
584.2	4484
584.4	4516
584.6	4546
584.8	4579
585.0	4605
585.2	4617
585.4	4652
585.6	4677
585.8	4710
586.0	4755
586.2	4799
586.4	4832
586.6	4862
586.8	4882
587.0	4911
587.2	4950
587.4	4980
587.6	5014
587.8	5041
588.0	5061
588.2	5093
588.4	5118
588.6	5143
588.8	5188
589.0	5218
589.2	5262
589.4	5304
589.6	5326
589.8	5356
590.0	5373
590.2	5393
590.4	5428
590.6	5460
590.8	5483
591.0	5517
591.2	5533
591.4	5568
591.6	5600
591.8	5629
592.0	5666
592.2	5700
592.4	5719
592.6	5743
592.8	5775
593.0	5806
593.2	5853
593.4	5893
593.6	5921
593.8	5948
594.0	5975
594.2	5995
594.4	6025
594.6	6051
594.8	6078
595.0	6107
595.2	6141
595.4	6163
595.6	6196
595.8	6213
596.0	6245
596.2	6260
596.4	6284
596.6	6306
596.8	6319
597.0	6334
597.2	6347
597.4	6373
597.6	6406
597.8	6444
598.0	6460
598.2	6486
598.4	6502
598.6	6521
598.8	6556
599.0	6589
599.2	6603
599.4	6627
599.6	6658
599.8	6672
600.0	6702
600.2	6715
600.4	6738
600.6	6752
600.8	6772
601.0	6792
601.2	6807
601.4	6819
601.6	6855
601.8	6869
602.0	6878
602.2	6887
602.4	6903
602.6	6926
602.8	6950
603.0	6982
603.2	7001
603.4	7023
603.6	7043
603.8	7061
604.0	7071
604.2	7081
604.4	7089
604.6	7102
604.8	7109
605.0	7120
605.2	7144
605.4	7164
605.6	7175
605.8	7184
606.0	7197
606.2	7210
606.4	7232
606.6	7247
606.8	7252
607.0	7276
607.2	7288
607.4	7297
607.6	7304
607.8	7295
608.0	7301
608.2	7320
608.4	7322
608.6	7340
608.8	7366
609.0	7367
609.2	7389
609.4	7409
609.6	7425
609.8	7450
610.0	7466
610.2	7460
610.4	7455
610.6	7446
610.8	7443
611.0	7461
611.2	7473
611.4	7481
611.6	7474
611.8	7469
612.0	7464
612.2	7474
612.4	7468
612.6	7475
612.8	7492
613.0	7501
613.2	7512
613.4	7524
613.6	7518
613.8	7517
614.0	7521
614.2	7510
614.4	7515
614.6	7516
614.8	7525
615.0	7520
615.2	7513
615.4	7523
615.6	7529
615.8	7529
616.0	7541
616.2	7542
616.4	7530
616.6	7531
616.8	7507
617.0	7498
617.2	7506
617.4	7515
617.6	7520
617.8	7516
618.0	7487
618.2	7480
618.4	7483
618.6	7494
618.8	7498
619.0	7493
619.2	7476
619.4	7480
619.6	7470
619.8	7467
620.0	7464
620.2	7463
620.4	7466
620.6	7459
620.8	7426
621.0	7405
621.2	7395
621.4	7385
621.6	7386
621.8	7382
622.0	7393
622.2	7386
622.4	7374
622.6	7351
622.8	7334
623.0	7324
623.2	7326
623.4	7296
623.6	7294
623.8	7300
624.0	7306
624.2	7302
624.4	7282
624.6	7256
624.8	7257
625.0	7242
625.2	7220
625.4	7201
625.6	7177
625.8	7168
626.0	7166
626.2	7152
626.4	7145
626.6	7138
626.8	7133
627.0	7118
627.2	7084
627.4	7060
627.6	7039
627.8	7027
628.0	7026
628.2	7023
628.4	7010
628.6	6999
628.8	6977
629.0	6962
629.2	6949
629.4	6933
629.6	6916
629.8	6903
630.0	6883
630.2	6881
630.4	6870
630.6	6860
630.8	6847
631.0	6830
631.2	6808
631.4	6782
631.6	6740
631.8	6720
632.0	6713
632.2	6710
632.4	6718
632.6	6698
632.8	6660
633.0	6627
633.2	6605
633.4	6576
633.6	6563
633.8	6558
634.0	6554
634.2	6550
634.4	6533
634.6	6497
634.8	6459
635.0	6448
635.2	6449
635.4	6448
635.6	6438
635.8	6417
636.0	6385
636.2	6363
636.4	6345
636.6	6323
636.8	6307
637.0	6299
637.2	6281
637.4	6259
637.6	6235
637.8	6195
638.0	6155
638.2	6126
638.4	6105
638.6	6078
638.8	6078
639.0	6074
639.2	6066
639.4	6041
639.6	6016
639.8	5984
640.0	5975
640.2	5967
640.4	5963
640.6	5932
640.8	5902
641.0	5879
641.2	5859
641.4	5837
641.6	5818
641.8	5781
642.0	5740
642.2	5722
642.4	5711
642.6	5701
642.8	5696
643.0	5686
643.2	5650
643.4	5631
643.6	5602
643.8	5571
644.0	5552
644.2	5537
644.4	5502
644.6	5482
644.8	5469
645.0	5457
645.2	5446
645.4	5430
645.6	5412
645.8	5383
646.0	5362
646.2	5324
646.4	5280
646.6	5259
646.8	5240
647.0	5226
647.2	5208
647.4	5181
647.6	5154
647.8	5136
648.0	5113
648.2	5114
648.4	5093
648.6	5089
648.8	5062
649.0	5032
649.2	5010
649.4	5002
649.6	4984
649.8	4966
650.0	4941
650.2	4914
650.4	4886
650.6	4876
650.8	4868
651.0	4851
651.2	4841
651.4	4818
651.6	4778
651.8	4748
652.0	4717
652.2	4688
652.4	4671
652.6	4654
652.8	4639
653.0	4630
653.2	4614
653.4	4594
653.6	4574
653.8	4548
654.0	4515
654.2	4488
654.4	4474
654.6	4451
654.8	4433
655.0	4423
655.2	4395
655.4	4385
655.6	4384
655.8	4371
656.0	4350
656.2	4320
656.4	4274
656.6	4253
656.8	4241
657.0	4244
657.2	4230
657.4	4192
657.6	4153
657.8	4131
658.0	4122
658.2	4116
658.4	4101
658.6	4079
658.8	4047
659.0	4025
659.2	4016
659.4	3997
659.6	3979
659.8	3959
660.0	3933
660.2	3915
660.4	3896
660.6	3872
660.8	3849
661.0	3825
661.2	3811
661.4	3801
661.6	3785
661.8	3771
662.0	3749
662.2	3727
662.4	3698
662.6	3680
662.8	3670
663.0	3666
663.2	3646
663.4	3622
663.6	3593
663.8	3570
664.0	3558
664.2	3556
664.4	3536
664.6	3516
664.8	3500
665.0	3486
665.2	3475
665.4	3458
665.6	3435
665.8	3421
666.0	3405
666.2	3384
666.4	3369
666.6	3351
666.8	3331
667.0	3322
667.2	3305
667.4	3283
667.6	3261
667.8	3250
668.0	3228
668.2	3205
668.4	3182
668.6	3165
668.8	3147
669.0	3140
669.2	3133
669.4	3120
669.6	3107
669.8	3088
670.0	3071
670.2	3056
670.4	3032
670.6	3013
670.8	2995
671.0	2985
671.2	2974
671.4	2968
671.6	2945
671.8	2915
672.0	2891
672.2	2870
672.4	2852
672.6	2856
672.8	2849
673.0	2839
673.2	2829
673.4	2804
673.6	2785
673.8	2758
674.0	2732
674.2	2719
674.4	2709
674.6	2695
674.8	2695
675.0	2678
675.2	2665
675.4	2646
675.6	2628
675.8	2610
676.0	2606
676.2	2599
676.4	2580
676.6	2560
676.8	2541
677.0	2523
677.2	2508
677.4	2500
677.6	2489
677.8	2476
678.0	2464
678.2	2445
678.4	2430
678.6	2418
678.8	2412
679.0	2392
679.2	2388
679.4	2374
679.6	2358
679.8	2328
680.0	2299
680.2	2274
680.4	2273
680.6	2275
680.8	2278
681.0	2271
681.2	2252
681.4	2238
681.6	2225
681.8	2208
682.0	2199
682.2	2195
682.4	2178
682.6	2165
682.8	2144
683.0	2119
683.2	2110
683.4	2102
683.6	2096
683.8	2088
684.0	2069
684.2	2055
684.4	2041
684.6	2021
684.8	2014
685.0	2009
685.2	1994
685.4	1980
685.6	1970
685.8	1952
686.0	1938
686.2	1932
686.4	1922
686.6	1916
686.8	1915
687.0	1902
687.2	1884
687.4	1874
687.6	1864
687.8	1853
688.0	1847
688.2	1838
688.4	1821
688.6	1809
688.8	1797
689.0	1781
689.2	1770
689.4	1758
689.6	1749
689.8	1746
690.0	1740
690.2	1728
690.4	1710
690.6	1695
690.8	1686
691.0	1683
691.2	1674
691.4	1659
691.6	1652
691.8	1645
692.0	1638
692.2	1635
692.4	1622
692.6	1602
692.8	1600
693.0	1591
693.2	1582
693.4	1576
693.6	1567
693.8	1556
694.0	1550
694.2	1537
694.4	1526
694.6	1518
694.8	1519
695.0	1513
695.2	1511
695.4	1499
695.6	1483
695.8	1472
696.0	1466
696.2	1454
696.4	1455
696.6	1442
696.8	1429
697.0	1417
697.2	1409
697.4	1409
697.6	1409
697.8	1402
698.0	1387
698.2	1372
698.4	1356
698.6	1355
698.8	1357
699.0	1357
699.2	1348
699.4	1340
699.6	1335
699.8	1332
700.0	1327
700.2	1314
700.4	1298
700.6	1287
700.8	1288
701.0	1283
701.2	1279
701.4	1276
701.6	1276
701.8	1271
702.0	1266
702.2	1253
702.4	1237
702.6	1227
702.8	1222
703.0	1209
703.2	1201
703.4	1197
703.6	1191
703.8	1187
704.0	1183
704.2	1175
704.4	1164
704.6	1160
704.8	1156
705.0	1152
705.2	1145
705.4	1140
705.6	1122
705.8	1113
706.0	1108
706.2	1109
706.4	1112
706.6	1116
706.8	1111
707.0	1104
707.2	1096
707.4	1088
707.6	1082
707.8	1075
708.0	1067
708.2	1057
708.4	1049
708.6	1038
708.8	1032
709.0	1021
709.2	1014
709.4	1011
709.6	1010
709.8	1007
710.0	1007
710.2	1004
710.4	995.4
710.6	989.5
710.8	979.8
711.0	965.6
711.2	960.6
711.4	955.5
711.6	946.5
711.8	946.0
712.0	937.3
712.2	923.4
712.4	918.3
712.6	913.0
712.8	910.1
713.0	916.6
713.2	913.2
713.4	902.6
713.6	900.6
713.8	893.8
714.0	884.4
714.2	878.8
714.4	868.7
714.6	860.9
714.8	862.4
715.0	861.1
715.2	856.5
715.4	851.0
715.6	846.7
715.8	836.8
716.0	829.0
716.2	820.7
716.4	813.4
716.6	811.9
716.8	811.9
717.0	805.6
717.2	801.4
717.4	796.6
717.6	792.1
717.8	787.7
718.0	782.0
718.2	772.8
718.4	764.4
718.6	759.7
718.8	756.8
719.0	753.9
719.2	751.3
719.4	742.3
719.6	731.3
719.8	722.9
720.0	724.3
720.2	722.4
720.4	719.1
720.6	710.5
720.8	703.3
721.0	696.2
721.2	694.7
721.4	689.8
721.6	686.7
721.8	680.3
722.0	675.7
722.2	673.3
722.4	672.6
722.6	670.9
722.8	666.7
723.0	661.2
723.2	650.8
723.4	644.6
723.6	638.6
723.8	635.8
724.0	636.5
724.2	633.8
724.4	628.6
724.6	618.5
724.8	606.7
725.0	603.3
725.2	604.3
725.4	600.0
725.6	598.2
725.8	596.2
726.0	592.5
726.2	591.6
726.4	588.6
726.6	583.0
726.8	577.8
727.0	576.2
727.2	568.0
727.4	560.2
727.6	555.8
727.8	552.4
728.0	549.2
728.2	547.1
728.4	542.5
728.6	541.1
728.8	541.8
729.0	542.0
729.2	534.0
729.4	524.2
729.6	518.9
729.8	515.7
730.0	511.2
730.2	512.4
730.4	507.2
730.6	501.5
730.8	497.2
731.0	491.2
731.2	482.9
731.4	481.0
731.6	477.5
731.8	475.2
732.0	474.3
732.2	472.4
732.4	471.1
732.6	468.0
732.8	464.9
733.0	459.2
733.2	454.9
733.4	452.6
733.6	451.5
733.8	445.4
734.0	441.9
734.2	436.1
734.4	433.5
734.6	433.1
734.8	430.4
735.0	426.1
735.2	420.1
735.4	418.2
735.6	420.6
735.8	418.2
736.0	415.1
736.2	412.3
736.4	405.5
736.6	404.7
736.8	402.0
737.0	398.0
737.2	392.7
737.4	390.5
737.6	389.6
737.8	387.4
738.0	383.0
738.2	382.0
738.4	378.2
738.6	376.7
738.8	376.0
739.0	372.6
739.2	371.3
739.4	373.4
739.6	371.2
739.8	364.8
740.0	358.4
740.2	354.8
740.4	352.4
740.6	352.7
740.8	348.1
741.0	344.5
741.2	340.1
741.4	337.5
741.6	337.3
741.8	338.4
742.0	336.6
742.2	334.9
742.4	330.5
742.6	324.5
742.8	324.4
743.0	321.3
743.2	319.6
743.4	317.1
743.6	314.9
743.8	312.4
744.0	311.9
744.2	306.5
744.4	305.1
744.6	302.7
744.8	300.1
745.0	298.8
745.2	294.2
745.4	292.1
745.6	291.4
745.8	291.0
746.0	293.2
746.2	292.7
746.4	288.7
746.6	284.4
746.8	278.2
747.0	274.9
747.2	274.8
747.4	275.0
747.6	275.1
747.8	273.5
748.0	272.9
748.2	272.1
748.4	268.0
748.6	268.6
748.8	265.5
749.0	262.0
749.2	260.1
749.4	257.5
749.6	255.3
749.8	257.2
750.0	256.1
750.2	256.5
750.4	253.6
750.6	250.1
750.8	246.9
751.0	241.6
751.2	240.0
751.4	241.3
751.6	239.7
751.8	242.3
752.0	238.2
752.2	233.7
752.4	233.0
752.6	230.8
752.8	227.9
753.0	229.3
753.2	224.3
753.4	224.2
753.6	225.7
753.8	224.7
754.0	222.6
754.2	221.5
754.4	218.5
754.6	216.6
754.8	215.1
755.0	213.5
755.2	210.4
755.4	208.7
755.6	207.5
755.8	205.8
756.0	205.3
756.2	205.2
756.4	204.1
756.6	200.4
756.8	198.2
757.0	196.4
757.2	195.5
757.4	195.5
757.6	197.6
757.8	197.6
758.0	196.5
758.2	192.5
758.4	188.9
758.6	184.6
758.8	182.4
759.0	182.0
759.2	182.4
759.4	182.0
759.6	182.5
759.8	181.1
760.0	179.6
760.2	179.8
760.4	180.9
760.6	180.7
760.8	176.6
761.0	171.9
761.2	168.5
761.4	168.2
761.6	168.5
761.8	168.0
762.0	163.3
762.2	160.9
762.4	160.5
762.6	160.4
762.8	161.9
763.0	163.5
763.2	162.2
763.4	160.4
763.6	158.2
763.8	154.6
764.0	155.2
764.2	156.4
764.4	156.1
764.6	153.6
764.8	150.0
765.0	147.4
765.2	146.0
765.4	143.5
765.6	141.6
765.8	140.1
766.0	140.4
766.2	144.5
766.4	146.8
766.6	146.4
766.8	144.7
767.0	141.6
767.2	137.5
767.4	134.7
767.6	132.6
767.8	131.1
768.0	129.7
768.2	131.5
768.4	132.6
768.6	132.0
768.8	131.1
769.0	128.4
769.2	123.7
769.4	122.6
769.6	123.9
769.8	123.5
770.0	123.9
770.2	124.2
770.4	122.9
770.6	123.1
770.8	122.7
771.0	121.4
771.2	119.9
771.4	117.5
771.6	115.5
771.8	115.7
772.0	114.0
772.2	115.9
772.4	116.7
772.6	116.1
772.8	116.0
773.0	116.3
773.2	113.3
773.4	114.2
773.6	112.7
773.8	111.2
774.0	108.1
774.2	106.3
774.4	104.8
774.6	106.5
774.8	107.0
775.0	108.3
775.2	106.8
775.4	105.0
775.6	104.0
775.8	104.1
776.0	104.4
776.2	105.6
776.4	106.1
776.6	105.1
776.8	101.8
777.0	100.8
777.2	99.39
777.4	99.43
777.6	100.3
777.8	99.98
778.0	97.23
778.2	96.58
778.4	95.35
778.6	95.22
778.8	96.22
779.0	96.41
779.2	95.03
779.4	93.21
779.6	91.32
779.8	90.97
780.0	90.61
780.2	90.87
780.4	90.91
780.6	90.86
780.8	90.83
781.0	90.55
781.2	88.93
781.4	86.52
781.6	85.09
781.8	85.97
782.0	87.05
782.2	87.18
782.4	85.42
782.6	83.40
782.8	84.20
783.0	86.11
783.2	86.26
783.4	86.78
783.6	85.39
783.8	83.91
784.0	83.41
784.2	83.61
784.4	80.93
784.6	80.39
784.8	80.45
785.0	80.65
785.2	80.49
785.4	79.92
785.6	79.56
785.8	77.97
786.0	75.90
786.2	76.19
786.4	75.66
786.6	77.53
786.8	79.48
787.0	78.04
787.2	76.69
787.4	76.35
787.6	74.80
787.8	76.40
788.0	76.12
788.2	75.50
788.4	76.40
788.6	76.45
788.8	75.81
789.0	75.83
789.2	75.18
789.4	74.80
789.6	74.70
789.8	73.77
790.0	73.96
790.2	74.31
790.4	72.87
790.6	72.33
790.8	72.13
791.0	71.90
791.2	73.11
791.4	72.39
791.6	71.20
791.8	70.07
792.0	69.61
792.2	69.08
792.4	68.87
792.6	67.14
792.8	67.70
793.0	68.07
793.2	67.90
793.4	66.48
793.6	65.69
793.8	65.10
794.0	65.37
794.2	65.97
794.4	65.92
794.6	66.42
794.8	66.87
795.0	66.70
795.2	66.73
795.4	65.05
795.6	64.48
795.8	65.04
796.0	63.80
796.2	64.27
796.4	65.72
796.6	64.50
796.8	63.80
797.0	63.30
797.2	62.31
797.4	63.09
797.6	62.95
797.8	63.92
798.0	64.32
798.2	64.52
798.4	63.82
798.6	62.70
798.8	60.45
799.0	60.74
799.2	60.45
799.4	61.08
799.6	60.77
799.8	59.69
800.0	57.53
800.2	56.91
800.4	56.63
800.6	58.35
800.8	58.68
801.0	59.01
801.2	57.65
801.4	57.76
801.6	57.49
801.8	57.74
802.0	56.55
802.2	55.53
802.4	55.18
802.6	56.58
802.8	56.88
803.0	57.62
803.2	57.49
803.4	56.22
803.6	56.11
803.8	55.44
804.0	54.77
804.2	54.12
804.4	53.02
804.6	52.80
804.8	53.66
805.0	54.32
805.2	54.51
805.4	54.53
805.6	53.43
805.8	52.62
806.0	52.17
806.2	51.82
806.4	51.34
806.6	52.06
806.8	52.34
807.0	53.66
807.2	52.22
807.4	50.22
807.6	50.12
807.8	49.58
808.0	50.07
808.2	52.41
808.4	52.03
808.6	51.45
808.8	51.07
809.0	51.29
809.2	50.56
809.4	49.50
809.6	48.58
809.8	47.97
810.0	48.13
810.2	49.96
810.4	50.41
810.6	50.39
810.8	50.59
811.0	50.22
811.2	49.20
811.4	48.19
811.6	46.64
811.8	46.09
812.0	46.63
812.2	46.28
812.4	46.49
812.6	47.46
812.8	46.88
813.0	47.05
813.2	46.79
813.4	45.75
813.6	45.20
813.8	44.28
814.0	43.26
814.2	43.75
814.4	44.30
814.6	44.71
814.8	44.84
815.0	44.10
815.2	43.15
815.4	43.97
815.6	44.80
815.8	44.68
816.0	44.84
816.2	43.04
816.4	41.66
816.6	42.01
816.8	42.64
817.0	42.43
817.2	42.02
817.4	40.34
817.6	40.05
817.8	39.72
818.0	39.90
818.2	39.56
818.4	38.87
818.6	38.08
818.8	38.29
819.0	38.39
819.2	39.76
819.4	39.27
819.6	38.94
819.8	38.77
820.0	37.89
820.2	37.63
820.4	38.36
820.6	36.97
820.8	36.50
821.0	36.85
821.2	36.87
821.4	36.78
821.6	36.26
821.8	35.94
822.0	35.13
822.2	35.54
822.4	36.12
822.6	35.52
822.8	35.07
823.0	34.78
823.2	34.11
823.4	35.05
823.6	35.42
823.8	34.72
824.0	34.38
824.2	32.72
824.4	32.01
824.6	31.96
824.8	32.25
825.0	32.44
825.2	33.20
825.4	33.41
825.6	32.55
825.8	31.72
826.0	31.65
826.2	32.48
826.4	32.57
826.6	32.27
826.8	31.24
827.0	31.05
827.2	30.76
827.4	31.02
827.6	30.11
827.8	30.07
828.0	30.30
828.2	30.20
828.4	29.21
828.6	28.87
828.8	28.44
829.0	28.32
829.2	29.00
829.4	28.57
829.6	26.81
829.8	26.28
830.0	26.24
830.2	26.28
830.4	27.42
830.6	26.82
830.8	25.44
831.0	24.61
831.2	24.66
831.4	24.32
831.6	24.84
831.8	24.92
832.0	24.56
832.2	24.44
832.4	24.86
832.6	23.67
832.8	23.71
833.0	23.61
833.2	23.36
833.4	24.24
833.6	24.97
833.8	23.87
834.0	22.62
834.2	21.23
834.4	21.15
834.6	21.79
834.8	22.92
835.0	22.35
835.2	21.76
835.4	20.68
835.6	21.11
835.8	21.80
836.0	22.35
836.2	21.63
836.4	21.34
836.6	20.27
836.8	19.89
837.0	19.74
837.2	19.26
837.4	19.15
837.6	18.78
837.8	17.90
838.0	17.35
838.2	17.17
838.4	17.38
838.6	18.05
838.8	17.91
839.0	17.49
839.2	17.27
839.4	16.96
839.6	16.74
839.8	17.42
840.0	17.62
840.2	18.24
840.4	18.35
840.6	17.61
840.8	17.68
841.0	16.84
841.2	16.03
841.4	16.21
841.6	15.64
841.8	15.27
842.0	15.55
842.2	14.53
842.4	14.06
842.6	14.29
842.8	13.98
843.0	14.23
843.2	13.82
843.4	13.22
843.6	12.75
843.8	12.48
844.0	12.00
844.2	11.79
844.4	11.69
844.6	12.05
844.8	12.19
845.0	11.86
845.2	11.60
845.4	11.27
845.6	11.49
845.8	11.65
846.0	11.84
846.2	10.99
846.4	11.09
846.6	11.22
846.8	11.06
847.0	10.24
847.2	9.941
847.4	9.138
847.6	9.082
847.8	8.917
848.0	8.767
848.2	8.791
848.4	9.430
