Sample:	'20211010A(EM)
File name:	660v R-NI-CDs.FDS
Run date:	'16:20:01, 03/23/2023
Operator:	Administrator
Comment:	'

Instrument
Model:	F-4700 FL Spectrophotometer
Serial number:	2019-001
ROM Version:	5J24010 00

Instrument parameters
Measurement type:	Wavelength scan
Scan mode:	Emission
Data mode:	Fluorescence
EX WL:	530.0 nm
EM  Start WL:	550.0 nm
EM  End WL:	900.0 nm
Scan speed:	1200 nm/min
Delay:	0.0 s
EX Slit:	10.0 nm
EM Slit:	10.0 nm
PMT Voltage:	660 V
Response:	0.002 s
Corrected spectra:	Off
Shutter control:	On

Processing performed
Savitsky-Golay smoothed
Smoothing order:	3
Number of points:	7
Number of times:	1

Peak integration
Integration method:	Rectangular
Sensitivity:	1
Threshold:	1.000

Peaks
No.	Start(nm)	Apex(nm)	End(nm)	Height(Data)	Valley(nm)	Valley(Data)
1	550.0	614.0	614.6	9255	614.6	9199
2	614.6	615.4	616.4	9255	616.4	9182
3	616.4	617.2	764.8	9240	764.8	175.0
4	764.8	765.8	785.4	183.2	785.4	93.83
5	785.4	786.2	789.8	97.54	789.8	84.11
6	789.8	791.2	798.0	88.14	798.0	73.47
7	798.0	798.6	799.2	77.73	799.2	70.09
8	799.2	799.8	800.8	73.75	800.8	70.41
9	800.8	802.2	804.2	73.73	804.2	63.37
10	804.2	805.0	811.2	67.54	811.2	55.19
11	811.2	812.0	813.4	61.39	813.4	53.35
12	813.4	814.4	819.6	55.01	819.6	45.54
13	819.6	820.2	823.4	49.31	823.4	40.85
14	823.4	824.8	844.2	43.12	844.2	14.47
15	844.2	845.0	849.8	16.60	849.8	8.541
16	849.8	850.6	852.4	9.855	852.4	7.770
17	852.4	853.0	857.8	9.161	857.8	4.934
18	857.8	859.6	873.0	7.151	873.0	2.531
19	873.0	874.6	878.0	3.630	878.0	2.512
20	878.0	878.6	880.2	3.625	880.2	2.498
21	880.2	881.0	885.6	3.569	885.6	2.243
22	885.6	886.6	887.8	3.463	887.8	2.349
23	887.8	888.6	889.6	3.497	889.6	2.001
24	889.6	892.0	893.2	3.215	893.2	2.098
25	893.2	895.2	900.0	3.550	900.0	3.189

Data points
nm	Data
550.0	789.9
550.2	803.7
550.4	822.8
550.6	844.9
550.8	871.0
551.0	887.1
551.2	897.6
551.4	905.6
551.6	910.7
551.8	916.7
552.0	929.8
552.2	949.2
552.4	969.1
552.6	987.9
552.8	1003
553.0	1022
553.2	1033
553.4	1046
553.6	1062
553.8	1077
554.0	1090
554.2	1107
554.4	1121
554.6	1139
554.8	1158
555.0	1176
555.2	1193
555.4	1214
555.6	1230
555.8	1251
556.0	1263
556.2	1283
556.4	1303
556.6	1330
556.8	1349
557.0	1363
557.2	1383
557.4	1401
557.6	1418
557.8	1439
558.0	1461
558.2	1481
558.4	1498
558.6	1512
558.8	1537
559.0	1566
559.2	1590
559.4	1618
559.6	1633
559.8	1652
560.0	1673
560.2	1702
560.4	1719
560.6	1739
560.8	1762
561.0	1789
561.2	1813
561.4	1850
561.6	1879
561.8	1906
562.0	1924
562.2	1941
562.4	1962
562.6	1984
562.8	2015
563.0	2040
563.2	2056
563.4	2078
563.6	2107
563.8	2144
564.0	2185
564.2	2212
564.4	2230
564.6	2243
564.8	2267
565.0	2302
565.2	2329
565.4	2352
565.6	2381
565.8	2402
566.0	2435
566.2	2477
566.4	2505
566.6	2537
566.8	2560
567.0	2587
567.2	2620
567.4	2654
567.6	2681
567.8	2705
568.0	2719
568.2	2754
568.4	2792
568.6	2823
568.8	2853
569.0	2881
569.2	2922
569.4	2953
569.6	2987
569.8	3013
570.0	3036
570.2	3070
570.4	3117
570.6	3150
570.8	3173
571.0	3200
571.2	3225
571.4	3260
571.6	3300
571.8	3338
572.0	3371
572.2	3406
572.4	3441
572.6	3472
572.8	3501
573.0	3535
573.2	3579
573.4	3619
573.6	3658
573.8	3695
574.0	3725
574.2	3762
574.4	3784
574.6	3829
574.8	3868
575.0	3914
575.2	3946
575.4	3983
575.6	4004
575.8	4046
576.0	4081
576.2	4117
576.4	4141
576.6	4166
576.8	4206
577.0	4252
577.2	4298
577.4	4349
577.6	4388
577.8	4407
578.0	4434
578.2	4463
578.4	4505
578.6	4555
578.8	4615
579.0	4645
579.2	4683
579.4	4718
579.6	4757
579.8	4793
580.0	4831
580.2	4861
580.4	4891
580.6	4924
580.8	4954
581.0	4994
581.2	5032
581.4	5073
581.6	5103
581.8	5151
582.0	5187
582.2	5239
582.4	5289
582.6	5326
582.8	5358
583.0	5389
583.2	5408
583.4	5451
583.6	5491
583.8	5541
584.0	5589
584.2	5631
584.4	5674
584.6	5708
584.8	5729
585.0	5765
585.2	5788
585.4	5818
585.6	5868
585.8	5899
586.0	5949
586.2	6000
586.4	6043
586.6	6085
586.8	6137
587.0	6172
587.2	6195
587.4	6209
587.6	6232
587.8	6282
588.0	6333
588.2	6388
588.4	6428
588.6	6476
588.8	6498
589.0	6549
589.2	6574
589.4	6614
589.6	6650
589.8	6682
590.0	6705
590.2	6750
590.4	6776
590.6	6812
590.8	6837
591.0	6850
591.2	6884
591.4	6934
591.6	6966
591.8	7011
592.0	7057
592.2	7099
592.4	7125
592.6	7163
592.8	7191
593.0	7232
593.2	7268
593.4	7304
593.6	7322
593.8	7355
594.0	7375
594.2	7404
594.4	7434
594.6	7471
594.8	7510
595.0	7546
595.2	7574
595.4	7599
595.6	7618
595.8	7667
596.0	7703
596.2	7757
596.4	7803
596.6	7818
596.8	7819
597.0	7835
597.2	7856
597.4	7926
597.6	7964
597.8	7992
598.0	8016
598.2	8023
598.4	8044
598.6	8087
598.8	8113
599.0	8141
599.2	8151
599.4	8161
599.6	8193
599.8	8229
600.0	8278
600.2	8314
600.4	8314
600.6	8334
600.8	8344
601.0	8362
601.2	8385
601.4	8408
601.6	8420
601.8	8455
602.0	8475
602.2	8511
602.4	8520
602.6	8534
602.8	8557
603.0	8581
603.2	8624
603.4	8656
603.6	8678
603.8	8691
604.0	8711
604.2	8720
604.4	8733
604.6	8743
604.8	8746
605.0	8772
605.2	8799
605.4	8825
605.6	8839
605.8	8859
606.0	8857
606.2	8885
606.4	8906
606.6	8908
606.8	8911
607.0	8921
607.2	8953
607.4	8987
607.6	9038
607.8	9037
608.0	9034
608.2	9004
608.4	9019
608.6	9033
608.8	9067
609.0	9068
609.2	9073
609.4	9078
609.6	9119
609.8	9117
610.0	9133
610.2	9124
610.4	9110
610.6	9132
610.8	9169
611.0	9186
611.2	9210
611.4	9197
611.6	9182
611.8	9191
612.0	9180
612.2	9194
612.4	9211
612.6	9197
612.8	9194
613.0	9200
613.2	9202
613.4	9210
613.6	9243
613.8	9254
614.0	9255
614.2	9242
614.4	9232
614.6	9199
614.8	9201
615.0	9229
615.2	9242
615.4	9255
615.6	9246
615.8	9217
616.0	9205
616.2	9192
616.4	9182
616.6	9203
616.8	9216
617.0	9221
617.2	9240
617.4	9222
617.6	9211
617.8	9192
618.0	9180
618.2	9166
618.4	9164
618.6	9156
618.8	9169
619.0	9164
619.2	9172
619.4	9158
619.6	9140
619.8	9122
620.0	9116
620.2	9108
620.4	9106
620.6	9097
620.8	9107
621.0	9105
621.2	9069
621.4	9030
621.6	9002
621.8	8984
622.0	8973
622.2	8965
622.4	8950
622.6	8942
622.8	8953
623.0	8975
623.2	8966
623.4	8936
623.6	8906
623.8	8890
624.0	8880
624.2	8891
624.4	8888
624.6	8867
624.8	8853
625.0	8837
625.2	8809
625.4	8796
625.6	8783
625.8	8761
626.0	8738
626.2	8715
626.4	8711
626.6	8698
626.8	8670
627.0	8643
627.2	8617
627.4	8604
627.6	8613
627.8	8583
628.0	8562
628.2	8535
628.4	8535
628.6	8512
628.8	8505
629.0	8477
629.2	8484
629.4	8453
629.6	8443
629.8	8413
630.0	8385
630.2	8355
630.4	8349
630.6	8334
630.8	8306
631.0	8288
631.2	8261
631.4	8245
631.6	8237
631.8	8212
632.0	8156
632.2	8129
632.4	8117
632.6	8112
632.8	8119
633.0	8097
633.2	8037
633.4	8013
633.6	7995
633.8	7983
634.0	7981
634.2	7965
634.4	7931
634.6	7902
634.8	7871
635.0	7858
635.2	7834
635.4	7817
635.6	7786
635.8	7749
636.0	7724
636.2	7697
636.4	7660
636.6	7642
636.8	7621
637.0	7613
637.2	7612
637.4	7598
637.6	7581
637.8	7560
638.0	7526
638.2	7484
638.4	7452
638.6	7421
638.8	7409
639.0	7395
639.2	7380
639.4	7359
639.6	7341
639.8	7314
640.0	7281
640.2	7251
640.4	7212
640.6	7180
640.8	7147
641.0	7128
641.2	7097
641.4	7086
641.6	7061
641.8	7043
642.0	7010
642.2	6958
642.4	6915
642.6	6894
642.8	6885
643.0	6894
643.2	6887
643.4	6859
643.6	6816
643.8	6789
644.0	6775
644.2	6743
644.4	6720
644.6	6704
644.8	6662
645.0	6635
645.2	6609
645.4	6582
645.6	6567
645.8	6540
646.0	6509
646.2	6464
646.4	6446
646.6	6431
646.8	6399
647.0	6356
647.2	6332
647.4	6314
647.6	6311
647.8	6290
648.0	6254
648.2	6209
648.4	6175
648.6	6158
648.8	6148
649.0	6128
649.2	6100
649.4	6067
649.6	6030
649.8	6009
650.0	6008
650.2	5983
650.4	5957
650.6	5928
650.8	5895
651.0	5858
651.2	5840
651.4	5808
651.6	5786
651.8	5768
652.0	5734
652.2	5700
652.4	5678
652.6	5649
652.8	5619
653.0	5601
653.2	5569
653.4	5542
653.6	5521
653.8	5499
654.0	5470
654.2	5452
654.4	5439
654.6	5419
654.8	5396
655.0	5361
655.2	5333
655.4	5311
655.6	5294
655.8	5284
656.0	5266
656.2	5238
656.4	5207
656.6	5173
656.8	5140
657.0	5123
657.2	5107
657.4	5079
657.6	5043
657.8	5010
658.0	5009
658.2	5012
658.4	5000
658.6	4962
658.8	4919
659.0	4877
659.2	4855
659.4	4850
659.6	4844
659.8	4830
660.0	4801
660.2	4768
660.4	4724
660.6	4706
660.8	4693
661.0	4681
661.2	4657
661.4	4629
661.6	4590
661.8	4570
662.0	4542
662.2	4529
662.4	4518
662.6	4497
662.8	4460
663.0	4441
663.2	4410
663.4	4385
663.6	4362
663.8	4338
664.0	4311
664.2	4306
664.4	4285
664.6	4267
664.8	4234
665.0	4209
665.2	4200
665.4	4200
665.6	4175
665.8	4165
666.0	4134
666.2	4106
666.4	4090
666.6	4073
666.8	4044
667.0	4026
667.2	4002
667.4	3973
667.6	3946
667.8	3920
668.0	3891
668.2	3880
668.4	3874
668.6	3854
668.8	3833
669.0	3803
669.2	3775
669.4	3757
669.6	3752
669.8	3740
670.0	3723
670.2	3692
670.4	3676
670.6	3643
670.8	3620
671.0	3601
671.2	3590
671.4	3572
671.6	3561
671.8	3536
672.0	3515
672.2	3488
672.4	3482
672.6	3466
672.8	3437
673.0	3411
673.2	3383
673.4	3352
673.6	3344
673.8	3336
674.0	3327
674.2	3321
674.4	3297
674.6	3274
674.8	3250
675.0	3230
675.2	3207
675.4	3186
675.6	3164
675.8	3154
676.0	3137
676.2	3121
676.4	3106
676.6	3089
676.8	3074
677.0	3062
677.2	3038
677.4	3012
677.6	2998
677.8	2975
678.0	2968
678.2	2960
678.4	2942
678.6	2920
678.8	2904
679.0	2886
679.2	2871
679.4	2860
679.6	2852
679.8	2828
680.0	2819
680.2	2804
680.4	2772
680.6	2756
680.8	2750
681.0	2732
681.2	2721
681.4	2710
681.6	2681
681.8	2664
682.0	2652
682.2	2638
682.4	2620
682.6	2605
682.8	2588
683.0	2574
683.2	2565
683.4	2558
683.6	2546
683.8	2537
684.0	2520
684.2	2503
684.4	2484
684.6	2457
684.8	2439
685.0	2434
685.2	2411
685.4	2400
685.6	2385
685.8	2364
686.0	2355
686.2	2353
686.4	2343
686.6	2336
686.8	2317
687.0	2300
687.2	2275
687.4	2253
687.6	2235
687.8	2219
688.0	2208
688.2	2204
688.4	2184
688.6	2178
688.8	2162
689.0	2158
689.2	2151
689.4	2138
689.6	2121
689.8	2113
690.0	2097
690.2	2093
690.4	2077
690.6	2066
690.8	2056
691.0	2040
691.2	2020
691.4	2008
691.6	1990
691.8	1983
692.0	1971
692.2	1961
692.4	1950
692.6	1942
692.8	1933
693.0	1928
693.2	1921
693.4	1908
693.6	1902
693.8	1889
694.0	1876
694.2	1865
694.4	1857
694.6	1839
694.8	1835
695.0	1826
695.2	1812
695.4	1805
695.6	1796
695.8	1791
696.0	1782
696.2	1772
696.4	1749
696.6	1740
696.8	1726
697.0	1726
697.2	1725
697.4	1716
697.6	1699
697.8	1692
698.0	1686
698.2	1680
698.4	1668
698.6	1649
698.8	1642
699.0	1632
699.2	1627
699.4	1614
699.6	1603
699.8	1592
700.0	1588
700.2	1587
700.4	1580
700.6	1573
700.8	1564
701.0	1555
701.2	1546
701.4	1538
701.6	1525
701.8	1516
702.0	1503
702.2	1494
702.4	1486
702.6	1475
702.8	1471
703.0	1473
703.2	1467
703.4	1456
703.6	1443
703.8	1432
704.0	1426
704.2	1419
704.4	1422
704.6	1413
704.8	1407
705.0	1396
705.2	1380
705.4	1366
705.6	1364
705.8	1351
706.0	1346
706.2	1338
706.4	1329
706.6	1318
706.8	1311
707.0	1305
707.2	1301
707.4	1303
707.6	1294
707.8	1283
708.0	1277
708.2	1272
708.4	1269
708.6	1264
708.8	1254
709.0	1240
709.2	1234
709.4	1224
709.6	1210
709.8	1205
710.0	1202
710.2	1204
710.4	1203
710.6	1194
710.8	1171
711.0	1165
711.2	1159
711.4	1159
711.6	1149
711.8	1140
712.0	1135
712.2	1128
712.4	1123
712.6	1118
712.8	1111
713.0	1105
713.2	1104
713.4	1091
713.6	1085
713.8	1071
714.0	1055
714.2	1048
714.4	1043
714.6	1036
714.8	1041
715.0	1036
715.2	1030
715.4	1032
715.6	1022
715.8	1003
716.0	990.4
716.2	977.3
716.4	977.1
716.6	981.3
716.8	977.4
717.0	969.5
717.2	960.9
717.4	957.5
717.6	958.7
717.8	954.2
718.0	945.8
718.2	931.0
718.4	921.2
718.6	919.0
718.8	911.6
719.0	906.6
719.2	897.9
719.4	891.7
719.6	890.4
719.8	885.8
720.0	880.4
720.2	876.5
720.4	871.4
720.6	862.3
720.8	852.1
721.0	847.7
721.2	843.8
721.4	837.2
721.6	831.3
721.8	821.5
722.0	813.3
722.2	814.0
722.4	808.6
722.6	801.6
722.8	799.2
723.0	795.1
723.2	790.2
723.4	781.4
723.6	772.0
723.8	767.0
724.0	762.7
724.2	759.7
724.4	751.0
724.6	747.4
724.8	742.0
725.0	735.1
725.2	726.4
725.4	722.7
725.6	717.0
725.8	713.4
726.0	705.3
726.2	699.0
726.4	695.2
726.6	689.7
726.8	689.2
727.0	678.8
727.2	674.3
727.4	668.5
727.6	665.6
727.8	662.8
728.0	666.2
728.2	668.4
728.4	665.7
728.6	654.1
728.8	641.8
729.0	632.6
729.2	630.6
729.4	628.7
729.6	625.3
729.8	622.1
730.0	615.5
730.2	609.9
730.4	606.9
730.6	598.4
730.8	592.8
731.0	593.4
731.2	593.7
731.4	589.0
731.6	587.6
731.8	579.9
732.0	568.8
732.2	564.1
732.4	563.1
732.6	561.0
732.8	559.7
733.0	556.0
733.2	550.2
733.4	543.8
733.6	544.2
733.8	538.5
734.0	532.8
734.2	529.8
734.4	524.7
734.6	515.6
734.8	513.0
735.0	507.4
735.2	505.9
735.4	503.2
735.6	502.2
735.8	493.4
736.0	491.5
736.2	490.2
736.4	486.1
736.6	479.4
736.8	477.7
737.0	476.1
737.2	472.8
737.4	472.9
737.6	466.5
737.8	461.5
738.0	460.0
738.2	462.3
738.4	456.5
738.6	455.4
738.8	447.7
739.0	441.7
739.2	440.0
739.4	437.3
739.6	431.4
739.8	431.6
740.0	432.3
740.2	431.2
740.4	432.7
740.6	430.3
740.8	420.1
741.0	418.0
741.2	413.3
741.4	408.4
741.6	410.1
741.8	409.0
742.0	407.8
742.2	407.6
742.4	399.5
742.6	392.3
742.8	388.3
743.0	384.7
743.2	386.6
743.4	387.0
743.6	388.2
743.8	383.6
744.0	382.0
744.2	379.3
744.4	371.0
744.6	366.5
744.8	363.1
745.0	356.0
745.2	357.1
745.4	354.9
745.6	349.8
745.8	348.6
746.0	347.5
746.2	348.6
746.4	351.2
746.6	345.4
746.8	342.3
747.0	338.0
747.2	338.1
747.4	338.3
747.6	337.2
747.8	326.9
748.0	319.3
748.2	315.9
748.4	316.7
748.6	316.3
748.8	316.4
749.0	314.1
749.2	309.9
749.4	312.0
749.6	312.8
749.8	311.7
750.0	306.1
750.2	301.8
750.4	294.8
750.6	293.6
750.8	291.5
751.0	292.1
751.2	291.3
751.4	291.5
751.6	291.3
751.8	287.0
752.0	284.4
752.2	283.9
752.4	282.3
752.6	280.6
752.8	279.2
753.0	275.4
753.2	277.8
753.4	277.9
753.6	274.1
753.8	271.4
754.0	266.1
754.2	260.9
754.4	258.7
754.6	259.4
754.8	260.5
755.0	260.5
755.2	259.8
755.4	254.4
755.6	251.2
755.8	251.8
756.0	248.9
756.2	247.3
756.4	248.8
756.6	248.3
756.8	248.1
757.0	246.0
757.2	240.2
757.4	237.2
757.6	233.7
757.8	231.8
758.0	228.8
758.2	228.5
758.4	228.7
758.6	227.5
758.8	226.7
759.0	227.7
759.2	227.0
759.4	225.8
759.6	224.0
759.8	220.5
760.0	216.1
760.2	214.3
760.4	211.0
760.6	210.0
760.8	212.4
761.0	213.4
761.2	214.6
761.4	214.2
761.6	211.0
761.8	205.6
762.0	202.0
762.2	197.0
762.4	196.9
762.6	193.3
762.8	194.3
763.0	192.5
763.2	193.1
763.4	193.6
763.6	194.1
763.8	191.5
764.0	190.0
764.2	184.7
764.4	180.7
764.6	178.0
764.8	175.0
765.0	178.7
765.2	179.4
765.4	181.5
765.6	182.7
765.8	183.2
766.0	177.0
766.2	175.4
766.4	172.2
766.6	169.6
766.8	169.6
767.0	170.0
767.2	167.9
767.4	168.6
767.6	168.2
767.8	163.6
768.0	162.5
768.2	159.6
768.4	159.4
768.6	157.4
768.8	156.7
769.0	152.8
769.2	152.3
769.4	153.3
769.6	155.9
769.8	154.8
770.0	156.9
770.2	153.2
770.4	150.3
770.6	148.4
770.8	146.8
771.0	142.5
771.2	143.2
771.4	140.7
771.6	138.4
771.8	139.5
772.0	140.0
772.2	140.2
772.4	141.7
772.6	137.0
772.8	133.2
773.0	133.3
773.2	132.4
773.4	134.0
773.6	136.3
773.8	132.7
774.0	128.6
774.2	127.6
774.4	126.6
774.6	127.2
774.8	127.8
775.0	127.1
775.2	123.4
775.4	123.0
775.6	123.2
775.8	124.8
776.0	124.2
776.2	124.9
776.4	119.6
776.6	118.3
776.8	115.9
777.0	115.9
777.2	116.1
777.4	118.3
777.6	116.2
777.8	116.9
778.0	115.2
778.2	114.5
778.4	113.8
778.6	113.7
778.8	111.7
779.0	109.4
779.2	108.5
779.4	109.3
779.6	111.4
779.8	112.2
780.0	110.7
780.2	109.5
780.4	107.5
780.6	107.0
780.8	108.1
781.0	108.5
781.2	106.7
781.4	106.7
781.6	104.3
781.8	104.1
782.0	104.4
782.2	104.8
782.4	105.1
782.6	104.1
782.8	103.4
783.0	103.7
783.2	103.5
783.4	101.7
783.6	100.1
783.8	98.31
784.0	97.87
784.2	99.62
784.4	99.58
784.6	97.91
784.8	96.05
785.0	96.02
785.2	94.46
785.4	93.83
785.6	95.23
785.8	96.36
786.0	97.48
786.2	97.54
786.4	95.56
786.6	93.47
786.8	95.19
787.0	95.89
787.2	96.00
787.4	94.46
787.6	92.46
787.8	90.70
788.0	90.01
788.2	89.87
788.4	90.35
788.6	89.50
788.8	90.41
789.0	90.87
789.2	90.84
789.4	89.37
789.6	86.60
789.8	84.11
790.0	84.31
790.2	84.61
790.4	86.04
790.6	86.95
790.8	85.76
791.0	87.84
791.2	88.14
791.4	85.84
791.6	85.46
791.8	85.86
792.0	84.80
792.2	85.08
792.4	84.80
792.6	83.74
792.8	83.90
793.0	84.08
793.2	82.57
793.4	81.80
793.6	81.83
793.8	81.35
794.0	80.20
794.2	79.09
794.4	78.75
794.6	79.67
794.8	81.30
795.0	80.65
795.2	79.56
795.4	78.89
795.6	78.31
795.8	75.88
796.0	76.76
796.2	75.90
796.4	75.96
796.6	75.88
796.8	75.26
797.0	75.25
797.2	76.45
797.4	76.85
797.6	76.15
797.8	73.99
798.0	73.47
798.2	75.82
798.4	76.73
798.6	77.73
798.8	75.39
799.0	71.89
799.2	70.09
799.4	70.60
799.6	71.71
799.8	73.75
800.0	73.33
800.2	72.01
800.4	71.10
800.6	70.92
800.8	70.41
801.0	72.08
801.2	72.74
801.4	72.49
801.6	71.95
801.8	72.14
802.0	72.28
802.2	73.73
802.4	73.13
802.6	70.97
802.8	68.65
803.0	66.34
803.2	67.26
803.4	69.00
803.6	67.23
803.8	66.70
804.0	65.35
804.2	63.37
804.4	65.14
804.6	67.07
804.8	67.03
805.0	67.54
805.2	66.42
805.4	64.90
805.6	66.03
805.8	65.63
806.0	65.81
806.2	65.59
806.4	65.20
806.6	64.32
806.8	64.79
807.0	63.22
807.2	61.75
807.4	61.13
807.6	62.83
807.8	64.00
808.0	64.43
808.2	63.46
808.4	61.91
808.6	60.87
808.8	62.01
809.0	61.39
809.2	61.38
809.4	59.98
809.6	59.21
809.8	59.70
810.0	59.85
810.2	60.33
810.4	60.88
810.6	59.42
810.8	57.91
811.0	56.86
811.2	55.19
811.4	56.23
811.6	57.48
811.8	60.25
812.0	61.39
812.2	60.53
812.4	58.42
812.6	57.38
812.8	54.85
813.0	54.49
813.2	54.81
813.4	53.35
813.6	53.85
813.8	54.93
814.0	54.27
814.2	53.82
814.4	55.01
814.6	53.94
814.8	54.74
815.0	54.71
815.2	53.85
815.4	53.50
815.6	53.41
815.8	53.58
816.0	53.88
816.2	52.97
816.4	51.37
816.6	52.77
816.8	52.37
817.0	52.70
817.2	51.20
817.4	48.94
817.6	48.07
817.8	50.30
818.0	49.90
818.2	50.36
818.4	48.15
818.6	46.92
818.8	47.06
819.0	47.44
819.2	46.07
819.4	46.18
819.6	45.54
819.8	47.65
820.0	49.14
820.2	49.31
820.4	47.00
820.6	45.55
820.8	44.63
821.0	45.14
821.2	45.09
821.4	44.75
821.6	43.64
821.8	43.82
822.0	44.77
822.2	44.31
822.4	44.24
822.6	43.62
822.8	43.05
823.0	42.34
823.2	41.61
823.4	40.85
823.6	41.86
823.8	41.91
824.0	41.93
824.2	41.78
824.4	41.91
824.6	42.30
824.8	43.12
825.0	41.62
825.2	40.30
825.4	38.19
825.6	39.07
825.8	39.27
826.0	39.95
826.2	39.82
826.4	39.52
826.6	37.30
826.8	37.26
827.0	36.26
827.2	35.97
827.4	35.54
827.6	36.19
827.8	35.70
828.0	36.85
828.2	36.32
828.4	35.35
828.6	34.36
828.8	34.00
829.0	32.87
829.2	33.69
829.4	33.26
829.6	33.12
829.8	33.78
830.0	33.53
830.2	33.02
830.4	32.09
830.6	31.41
830.8	31.05
831.0	30.81
831.2	30.76
831.4	31.74
831.6	31.20
831.8	31.50
832.0	30.81
832.2	30.42
832.4	30.39
832.6	31.01
832.8	30.58
833.0	30.32
833.2	29.52
833.4	30.12
833.6	29.95
833.8	29.77
834.0	29.21
834.2	28.79
834.4	28.03
834.6	28.62
834.8	27.51
835.0	25.89
835.2	25.24
835.4	25.41
835.6	24.93
835.8	25.93
836.0	26.12
836.2	24.96
836.4	24.33
836.6	23.56
836.8	23.40
837.0	23.38
837.2	23.44
837.4	22.84
837.6	22.79
837.8	22.43
838.0	23.55
838.2	22.89
838.4	22.36
838.6	22.00
838.8	21.66
839.0	20.87
839.2	21.21
839.4	20.55
839.6	20.30
839.8	20.02
840.0	19.83
840.2	18.86
840.4	18.86
840.6	18.53
840.8	18.55
841.0	17.86
841.2	18.28
841.4	18.59
841.6	18.69
