Sample:	'20211010A(EM)
File name:	B-NI 8.FDS
Run date:	'09:34:05, 06/20/2023
Operator:	Administrator
Comment:	'

Instrument
Model:	F-4700 FL Spectrophotometer
Serial number:	2019-001
ROM Version:	5J24010 00

Instrument parameters
Measurement type:	Wavelength scan
Scan mode:	Emission
Data mode:	Fluorescence
EX WL:	350.0 nm
EM  Start WL:	370.0 nm
EM  End WL:	700.0 nm
Scan speed:	1200 nm/min
Delay:	0.0 s
EX Slit:	10.0 nm
EM Slit:	10.0 nm
PMT Voltage:	350 V
Response:	0.002 s
Corrected spectra:	Off
Shutter control:	On

Processing performed
Savitsky-Golay smoothed
Smoothing order:	3
Number of points:	7
Number of times:	1

Peak integration
Integration method:	Rectangular
Sensitivity:	1
Threshold:	1.000

Peaks
No.	Start(nm)	Apex(nm)	End(nm)	Height(Data)	Valley(nm)	Valley(Data)
1	370.0	458.8	459.8	1194	459.8	1190
2	459.8	461.8	700.0	1197	700.0	2.114

Data points
nm	Data
370.0	1.188
370.2	1.176
370.4	1.147
370.6	1.122
370.8	1.157
371.0	1.163
371.2	1.210
371.4	1.217
371.6	1.219
371.8	1.220
372.0	1.304
372.2	1.305
372.4	1.351
372.6	1.308
372.8	1.302
373.0	1.328
373.2	1.373
373.4	1.362
373.6	1.390
373.8	1.390
374.0	1.398
374.2	1.468
374.4	1.438
374.6	1.405
374.8	1.395
375.0	1.400
375.2	1.417
375.4	1.492
375.6	1.470
375.8	1.472
376.0	1.497
376.2	1.529
376.4	1.600
376.6	1.665
376.8	1.639
377.0	1.636
377.2	1.640
377.4	1.615
377.6	1.684
377.8	1.721
378.0	1.725
378.2	1.709
378.4	1.749
378.6	1.714
378.8	1.752
379.0	1.816
379.2	1.903
379.4	1.953
379.6	2.054
379.8	2.036
380.0	2.028
380.2	1.990
380.4	1.988
380.6	2.096
380.8	2.176
381.0	2.235
381.2	2.302
381.4	2.265
381.6	2.256
381.8	2.272
382.0	2.204
382.2	2.192
382.4	2.241
382.6	2.331
382.8	2.503
383.0	2.615
383.2	2.676
383.4	2.744
383.6	2.725
383.8	2.678
384.0	2.725
384.2	2.829
384.4	3.018
384.6	3.142
384.8	3.178
385.0	3.181
385.2	3.288
385.4	3.332
385.6	3.389
385.8	3.265
386.0	3.291
386.2	3.386
386.4	3.576
386.6	3.707
386.8	3.785
387.0	3.870
387.2	3.985
387.4	3.984
387.6	3.983
387.8	4.012
388.0	4.026
388.2	4.286
388.4	4.492
388.6	4.586
388.8	4.727
389.0	4.864
389.2	4.859
389.4	4.945
389.6	5.011
389.8	5.081
390.0	5.326
390.2	5.571
390.4	5.697
390.6	5.842
390.8	5.916
391.0	5.975
391.2	6.152
391.4	6.338
391.6	6.516
391.8	6.722
392.0	6.969
392.2	7.168
392.4	7.402
392.6	7.537
392.8	7.640
393.0	7.809
393.2	7.998
393.4	8.274
393.6	8.576
393.8	8.761
394.0	8.951
394.2	9.231
394.4	9.429
394.6	9.775
394.8	10.04
395.0	10.36
395.2	10.77
395.4	11.05
395.6	11.45
395.8	11.67
396.0	11.98
396.2	12.27
396.4	12.72
396.6	13.15
396.8	13.65
397.0	13.98
397.2	14.49
397.4	14.93
397.6	15.46
397.8	15.86
398.0	16.23
398.2	16.70
398.4	17.29
398.6	17.92
398.8	18.59
399.0	19.21
399.2	19.87
399.4	20.57
399.6	21.29
399.8	21.84
400.0	22.58
400.2	23.40
400.4	24.25
400.6	25.09
400.8	25.86
401.0	26.60
401.2	27.82
401.4	28.67
401.6	29.62
401.8	30.40
402.0	31.28
402.2	32.28
402.4	33.90
402.6	35.14
402.8	36.23
403.0	37.19
403.2	38.18
403.4	39.27
403.6	40.82
403.8	42.28
404.0	43.63
404.2	45.06
404.4	46.44
404.6	47.86
404.8	49.39
405.0	51.08
405.2	52.71
405.4	54.64
405.6	56.29
405.8	57.89
406.0	59.54
406.2	61.36
406.4	63.27
406.6	65.63
406.8	67.88
407.0	69.89
407.2	72.09
407.4	74.44
407.6	76.49
407.8	78.89
408.0	81.17
408.2	83.77
408.4	86.59
408.6	89.70
408.8	92.24
409.0	94.77
409.2	96.89
409.4	99.75
409.6	102.2
409.8	105.1
410.0	108.6
410.2	112.3
410.4	115.5
410.6	119.1
410.8	122.1
411.0	125.3
411.2	128.9
411.4	132.5
411.6	136.0
411.8	139.6
412.0	143.3
412.2	146.5
412.4	149.6
412.6	153.5
412.8	157.5
413.0	161.7
413.2	166.4
413.4	170.8
413.6	174.3
413.8	179.3
414.0	182.9
414.2	187.6
414.4	192.2
414.6	197.1
414.8	201.5
415.0	206.5
415.2	210.1
415.4	214.6
415.6	219.7
415.8	224.7
416.0	230.0
416.2	235.2
416.4	239.8
416.6	245.4
416.8	251.3
417.0	257.1
417.2	262.3
417.4	268.4
417.6	273.1
417.8	278.6
418.0	283.6
418.2	289.3
418.4	293.8
418.6	299.6
418.8	305.5
419.0	312.0
419.2	318.7
419.4	325.5
419.6	330.9
419.8	336.1
420.0	342.6
420.2	349.4
420.4	356.1
420.6	363.5
420.8	370.2
421.0	376.3
421.2	383.1
421.4	389.5
421.6	394.4
421.8	399.9
422.0	405.1
422.2	411.6
422.4	419.2
422.6	426.4
422.8	433.3
423.0	440.5
423.2	447.4
423.4	454.2
423.6	460.6
423.8	466.0
424.0	473.2
424.2	480.6
424.4	488.7
424.6	495.4
424.8	501.0
425.0	505.9
425.2	512.4
425.4	519.4
425.6	528.2
425.8	536.0
426.0	543.4
426.2	550.3
426.4	556.9
426.6	563.5
426.8	570.4
427.0	576.6
427.2	584.1
427.4	591.5
427.6	598.6
427.8	605.9
428.0	612.9
428.2	619.9
428.4	626.1
428.6	631.5
428.8	637.0
429.0	643.4
429.2	651.2
429.4	660.0
429.6	667.4
429.8	674.1
430.0	681.0
430.2	688.1
430.4	695.8
430.6	701.9
430.8	708.6
431.0	713.9
431.2	720.4
431.4	727.4
431.6	732.9
431.8	737.4
432.0	743.4
432.2	748.5
432.4	756.0
432.6	765.6
432.8	772.3
433.0	779.0
433.2	785.0
433.4	790.1
433.6	797.2
433.8	805.0
434.0	810.5
434.2	815.7
434.4	822.2
434.6	828.6
434.8	834.4
435.0	839.8
435.2	845.4
435.4	849.6
435.6	855.1
435.8	862.0
436.0	868.5
436.2	875.2
436.4	881.6
436.6	886.4
436.8	889.2
437.0	894.6
437.2	900.1
437.4	905.4
437.6	910.1
437.8	916.1
438.0	920.8
438.2	928.8
438.4	935.9
438.6	940.2
438.8	944.9
439.0	947.8
439.2	951.4
439.4	956.3
439.6	959.8
439.8	963.6
440.0	969.0
440.2	971.8
440.4	977.1
440.6	983.1
440.8	986.6
441.0	991.6
441.2	996.2
441.4	999.5
441.6	1004
441.8	1010
442.0	1014
442.2	1018
442.4	1022
442.6	1026
442.8	1029
443.0	1032
443.2	1033
443.4	1038
443.6	1043
443.8	1049
444.0	1052
444.2	1055
444.4	1055
444.6	1058
444.8	1061
445.0	1064
445.2	1066
445.4	1070
445.6	1074
445.8	1077
446.0	1081
446.2	1085
446.4	1090
446.6	1095
446.8	1099
447.0	1100
447.2	1100
447.4	1101
447.6	1101
447.8	1105
448.0	1110
448.2	1113
448.4	1115
448.6	1115
448.8	1115
449.0	1120
449.2	1126
449.4	1127
449.6	1129
449.8	1130
450.0	1132
450.2	1135
450.4	1139
450.6	1142
450.8	1144
451.0	1143
451.2	1143
451.4	1143
451.6	1146
451.8	1150
452.0	1152
452.2	1152
452.4	1154
452.6	1154
452.8	1157
453.0	1159
453.2	1161
453.4	1163
453.6	1166
453.8	1168
454.0	1170
454.2	1171
454.4	1172
454.6	1171
454.8	1171
455.0	1172
455.2	1175
455.4	1180
455.6	1181
455.8	1181
456.0	1180
456.2	1181
456.4	1182
456.6	1183
456.8	1182
457.0	1183
457.2	1184
457.4	1186
457.6	1188
457.8	1189
458.0	1188
458.2	1190
458.4	1191
458.6	1193
458.8	1194
459.0	1194
459.2	1193
459.4	1192
459.6	1191
459.8	1190
460.0	1193
460.2	1195
460.4	1197
460.6	1197
460.8	1195
461.0	1194
461.2	1195
461.4	1197
461.6	1197
461.8	1197
462.0	1194
462.2	1193
462.4	1192
462.6	1192
462.8	1191
463.0	1192
463.2	1191
463.4	1193
463.6	1192
463.8	1192
464.0	1191
464.2	1190
464.4	1192
464.6	1192
464.8	1192
465.0	1191
465.2	1187
465.4	1184
465.6	1184
465.8	1182
466.0	1183
466.2	1182
466.4	1180
466.6	1177
466.8	1177
467.0	1176
467.2	1176
467.4	1175
467.6	1172
467.8	1168
468.0	1168
468.2	1168
468.4	1170
468.6	1169
468.8	1165
469.0	1162
469.2	1161
469.4	1159
469.6	1160
469.8	1159
470.0	1157
470.2	1155
470.4	1153
470.6	1149
470.8	1149
471.0	1148
471.2	1147
471.4	1145
471.6	1142
471.8	1139
472.0	1137
472.2	1134
472.4	1131
472.6	1131
472.8	1130
473.0	1129
473.2	1126
473.4	1123
473.6	1120
473.8	1120
474.0	1119
474.2	1115
474.4	1112
474.6	1109
474.8	1107
475.0	1105
475.2	1102
475.4	1099
475.6	1095
475.8	1093
476.0	1093
476.2	1091
476.4	1089
476.6	1087
476.8	1082
477.0	1079
477.2	1076
477.4	1072
477.6	1070
477.8	1070
478.0	1068
478.2	1067
478.4	1065
478.6	1063
478.8	1061
479.0	1058
479.2	1053
479.4	1050
479.6	1048
479.8	1047
480.0	1045
480.2	1042
480.4	1039
480.6	1036
480.8	1032
481.0	1029
481.2	1026
481.4	1024
481.6	1023
481.8	1020
482.0	1017
482.2	1015
482.4	1012
482.6	1011
482.8	1006
483.0	1003
483.2	999.3
483.4	996.8
483.6	992.8
483.8	989.8
484.0	985.2
484.2	983.9
484.4	983.2
484.6	983.3
484.8	980.3
485.0	977.5
485.2	974.8
485.4	971.3
485.6	967.4
485.8	964.5
486.0	960.1
486.2	956.9
486.4	953.7
486.6	950.5
486.8	947.8
487.0	944.2
487.2	941.2
487.4	939.2
487.6	937.6
487.8	935.8
488.0	934.6
488.2	929.9
488.4	925.8
488.6	923.2
488.8	921.9
489.0	920.3
489.2	918.5
489.4	914.4
489.6	909.5
489.8	905.7
490.0	901.9
490.2	897.9
490.4	894.7
490.6	892.9
490.8	890.3
491.0	887.3
491.2	883.3
491.4	878.7
491.6	875.6
491.8	873.7
492.0	871.1
492.2	868.4
492.4	865.9
492.6	861.7
492.8	858.8
493.0	856.0
493.2	853.9
493.4	848.5
493.6	844.7
493.8	840.5
494.0	836.9
494.2	833.5
494.4	832.0
494.6	826.2
494.8	822.8
495.0	820.7
495.2	817.3
495.4	813.9
495.6	811.4
495.8	808.4
496.0	804.7
496.2	801.3
496.4	797.3
496.6	793.6
496.8	791.4
497.0	789.6
497.2	787.8
497.4	784.3
497.6	780.0
497.8	775.0
498.0	771.9
498.2	768.3
498.4	765.3
498.6	762.4
498.8	760.4
499.0	756.5
499.2	753.4
499.4	750.5
499.6	746.2
499.8	742.4
500.0	738.2
500.2	735.0
500.4	732.3
500.6	730.8
500.8	729.6
501.0	724.1
501.2	719.3
501.4	715.7
501.6	712.5
501.8	710.3
502.0	708.9
502.2	704.9
502.4	702.6
502.6	699.0
502.8	695.0
503.0	691.2
503.2	687.0
503.4	683.6
503.6	680.2
503.8	676.2
504.0	672.5
504.2	669.6
504.4	665.7
504.6	661.5
504.8	658.7
505.0	654.5
505.2	652.3
505.4	649.9
505.6	646.9
505.8	644.0
506.0	640.3
506.2	636.2
506.4	634.1
506.6	630.8
506.8	627.0
507.0	624.7
507.2	620.4
507.4	617.5
507.6	615.8
507.8	612.7
508.0	609.0
508.2	606.4
508.4	604.5
508.6	601.5
508.8	598.3
509.0	594.0
509.2	590.6
509.4	588.1
509.6	586.6
509.8	584.2
510.0	581.3
510.2	577.9
510.4	574.9
510.6	571.6
510.8	567.6
511.0	564.0
511.2	561.3
511.4	560.0
511.6	559.2
511.8	557.0
512.0	552.4
512.2	547.7
512.4	543.2
512.6	541.0
512.8	538.7
513.0	536.4
513.2	532.8
513.4	529.9
513.6	527.6
513.8	525.7
514.0	523.3
514.2	519.9
514.4	516.7
514.6	514.8
514.8	512.9
515.0	509.2
515.2	507.1
515.4	502.9
515.6	500.3
515.8	498.2
516.0	495.5
516.2	491.9
516.4	489.1
516.6	485.6
516.8	483.5
517.0	481.3
517.2	479.6
517.4	477.2
517.6	473.9
517.8	470.5
518.0	469.1
518.2	467.2
518.4	465.8
518.6	462.5
518.8	459.0
519.0	455.0
519.2	453.0
519.4	451.8
519.6	450.9
519.8	448.9
520.0	446.7
520.2	443.7
520.4	440.7
520.6	438.1
520.8	435.2
521.0	432.7
521.2	430.0
521.4	428.0
521.6	426.1
521.8	425.1
522.0	422.9
522.2	420.4
522.4	417.4
522.6	415.0
522.8	412.6
523.0	410.6
523.2	408.6
523.4	407.2
523.6	404.4
523.8	402.5
524.0	399.8
524.2	396.6
524.4	394.4
524.6	393.1
524.8	389.8
525.0	387.5
525.2	385.1
525.4	381.7
525.6	379.4
525.8	377.6
526.0	375.3
526.2	373.5
526.4	371.2
526.6	369.1
526.8	368.0
527.0	366.7
527.2	365.4
527.4	364.1
527.6	362.0
527.8	359.9
528.0	358.0
528.2	355.1
528.4	352.3
528.6	348.8
528.8	346.1
529.0	343.8
529.2	343.5
529.4	342.4
529.6	341.3
529.8	339.6
530.0	337.9
530.2	335.1
530.4	333.6
530.6	331.0
530.8	328.0
531.0	326.1
531.2	324.4
531.4	322.2
531.6	321.4
531.8	319.6
532.0	317.6
532.2	315.6
532.4	314.0
532.6	313.0
532.8	312.0
533.0	310.3
533.2	308.5
533.4	305.7
533.6	303.7
533.8	301.7
534.0	300.1
534.2	298.3
534.4	296.8
534.6	294.8
534.8	293.4
535.0	291.7
535.2	290.7
535.4	288.8
535.6	287.3
535.8	285.7
536.0	284.0
536.2	281.9
536.4	279.9
536.6	278.2
536.8	277.1
537.0	276.5
537.2	275.6
537.4	273.6
537.6	271.8
537.8	269.3
538.0	268.0
538.2	266.4
538.4	264.9
538.6	263.2
538.8	262.2
539.0	260.3
539.2	259.8
539.4	258.0
539.6	255.7
539.8	252.7
540.0	251.3
540.2	250.2
540.4	249.8
540.6	248.2
540.8	246.7
541.0	244.5
541.2	242.7
541.4	241.1
541.6	240.2
541.8	238.0
542.0	236.8
542.2	235.1
542.4	233.7
542.6	233.1
542.8	232.5
543.0	230.9
543.2	229.5
543.4	227.9
543.6	227.2
543.8	226.0
544.0	224.1
544.2	222.5
544.4	220.2
544.6	218.8
544.8	218.3
545.0	216.7
545.2	215.5
545.4	214.4
545.6	212.6
545.8	210.9
546.0	210.1
546.2	208.9
546.4	208.0
546.6	206.8
546.8	204.9
547.0	202.9
547.2	201.6
547.4	200.4
547.6	200.1
547.8	199.3
548.0	198.3
548.2	197.2
548.4	195.2
548.6	193.9
548.8	192.9
549.0	191.6
549.2	190.8
549.4	189.7
549.6	188.0
549.8	186.9
550.0	185.7
550.2	184.8
550.4	183.6
550.6	181.9
550.8	180.4
551.0	179.0
551.2	177.7
551.4	177.0
551.6	175.6
551.8	174.0
552.0	173.7
552.2	173.7
552.4	173.0
552.6	172.4
552.8	171.1
553.0	169.3
553.2	168.3
553.4	167.3
553.6	166.1
553.8	165.2
554.0	164.5
554.2	163.4
554.4	162.2
554.6	160.8
554.8	159.0
555.0	158.1
555.2	157.1
555.4	155.9
555.6	154.7
555.8	153.7
556.0	152.8
556.2	152.4
556.4	151.9
556.6	150.9
556.8	149.8
557.0	148.8
557.2	147.9
557.4	146.9
557.6	146.1
557.8	145.3
558.0	144.6
558.2	143.6
558.4	142.2
558.6	140.8
558.8	139.0
559.0	138.0
559.2	137.5
559.4	137.5
559.6	137.1
559.8	136.9
560.0	135.9
560.2	134.7
560.4	133.4
560.6	132.3
560.8	131.2
561.0	130.4
561.2	129.5
561.4	128.7
561.6	128.0
561.8	127.7
562.0	127.1
562.2	126.6
562.4	125.7
562.6	124.5
562.8	123.4
563.0	122.5
563.2	121.6
563.4	120.8
563.6	120.1
563.8	119.3
564.0	118.9
564.2	118.2
564.4	117.2
564.6	116.1
564.8	115.4
565.0	114.7
565.2	114.5
565.4	114.1
565.6	112.9
565.8	112.1
566.0	111.2
566.2	109.9
566.4	109.5
566.6	108.4
566.8	107.3
567.0	106.9
567.2	106.3
567.4	106.2
567.6	106.1
567.8	105.1
568.0	104.3
568.2	103.4
568.4	102.4
568.6	102.0
568.8	101.2
569.0	100.5
569.2	100.4
569.4	99.90
569.6	99.22
569.8	98.62
570.0	97.58
570.2	96.44
570.4	95.76
570.6	95.49
570.8	95.21
571.0	94.81
571.2	94.33
571.4	93.66
571.6	92.67
571.8	92.44
572.0	91.91
572.2	91.10
572.4	90.85
572.6	90.33
572.8	89.42
573.0	88.89
573.2	88.03
573.4	87.30
573.6	86.90
573.8	86.21
574.0	85.50
574.2	85.01
574.4	84.41
574.6	83.95
574.8	83.41
575.0	82.83
575.2	82.21
575.4	82.08
575.6	81.40
575.8	80.56
576.0	80.05
576.2	79.38
576.4	78.84
576.6	78.67
576.8	78.13
577.0	77.71
577.2	77.22
577.4	76.84
577.6	76.27
577.8	76.27
578.0	75.87
578.2	75.26
578.4	74.35
578.6	73.96
578.8	73.58
579.0	73.53
579.2	73.14
579.4	72.52
579.6	71.54
579.8	70.65
580.0	70.03
580.2	69.39
580.4	68.86
580.6	68.86
580.8	68.31
581.0	68.11
581.2	67.78
581.4	67.22
581.6	66.59
581.8	66.54
582.0	66.18
582.2	66.02
582.4	65.72
582.6	65.20
582.8	64.59
583.0	64.11
583.2	63.89
583.4	63.43
583.6	63.07
583.8	62.64
584.0	62.00
584.2	61.47
584.4	61.40
584.6	61.24
584.8	60.95
585.0	60.36
585.2	59.63
585.4	59.02
585.6	58.79
585.8	58.48
586.0	58.27
586.2	57.80
586.4	57.31
586.6	57.00
586.8	56.75
587.0	56.57
587.2	56.46
587.4	56.24
587.6	55.61
587.8	55.32
588.0	54.76
588.2	54.39
588.4	53.85
588.6	53.42
588.8	52.81
589.0	52.58
589.2	52.33
589.4	52.00
589.6	51.81
589.8	51.46
590.0	51.16
590.2	50.63
590.4	50.13
590.6	49.87
590.8	50.01
591.0	49.65
591.2	49.57
591.4	49.21
591.6	48.50
591.8	47.91
592.0	47.71
592.2	47.38
592.4	47.34
592.6	47.13
592.8	46.93
593.0	46.64
593.2	46.37
593.4	46.08
593.6	45.62
593.8	45.09
594.0	44.80
594.2	44.45
594.4	44.19
594.6	43.97
594.8	43.72
595.0	43.53
595.2	43.04
595.4	42.08
595.6	41.80
595.8	41.60
596.0	41.63
596.2	41.73
596.4	41.27
596.6	40.54
596.8	40.38
597.0	40.39
597.2	40.51
597.4	40.42
597.6	40.05
597.8	39.61
598.0	39.02
598.2	38.82
598.4	38.83
598.6	38.75
598.8	38.55
599.0	38.14
599.2	37.66
599.4	37.40
599.6	37.29
599.8	37.07
600.0	36.62
600.2	36.33
600.4	36.12
600.6	35.91
600.8	35.56
601.0	35.23
601.2	35.10
601.4	35.26
601.6	34.99
601.8	34.78
602.0	34.66
602.2	34.63
602.4	34.48
602.6	34.24
602.8	33.44
603.0	32.97
603.2	33.03
603.4	33.01
603.6	32.95
603.8	32.73
604.0	32.23
604.2	31.92
604.4	31.70
604.6	31.65
604.8	31.62
605.0	31.35
605.2	30.88
605.4	30.53
605.6	30.34
605.8	30.53
606.0	30.65
606.2	30.39
606.4	29.85
606.6	29.36
606.8	28.81
607.0	28.63
607.2	28.70
607.4	28.74
607.6	28.65
607.8	28.39
608.0	27.97
608.2	27.71
608.4	27.61
608.6	27.65
608.8	27.62
609.0	27.33
609.2	27.04
609.4	26.77
609.6	26.50
609.8	26.34
610.0	26.41
610.2	26.47
610.4	26.46
610.6	26.29
610.8	25.80
611.0	25.08
611.2	24.69
611.4	24.46
611.6	24.45
611.8	24.46
612.0	24.42
612.2	24.24
612.4	24.25
612.6	24.01
612.8	23.93
613.0	23.80
613.2	23.69
613.4	23.59
613.6	23.46
613.8	23.16
614.0	22.98
614.2	22.82
614.4	22.66
614.6	22.51
614.8	22.07
615.0	21.84
615.2	21.68
615.4	21.65
615.6	21.56
615.8	21.49
616.0	21.28
616.2	21.29
616.4	21.25
616.6	21.27
616.8	21.01
617.0	20.76
617.2	20.58
617.4	20.43
617.6	20.20
617.8	20.03
618.0	19.60
618.2	19.41
618.4	19.31
618.6	19.22
618.8	19.18
619.0	19.19
619.2	19.13
619.4	19.13
619.6	19.10
619.8	18.84
620.0	18.62
620.2	18.32
620.4	18.15
620.6	17.99
620.8	17.90
621.0	17.84
621.2	17.91
621.4	17.72
621.6	17.51
621.8	17.21
622.0	16.92
622.2	16.89
622.4	16.90
622.6	16.71
622.8	16.53
623.0	16.47
623.2	16.47
623.4	16.51
623.6	16.39
623.8	16.28
624.0	16.08
624.2	15.83
624.4	15.72
624.6	15.60
624.8	15.52
625.0	15.63
625.2	15.39
625.4	15.06
625.6	14.90
625.8	14.86
626.0	14.89
626.2	14.99
626.4	14.82
626.6	14.81
626.8	14.69
627.0	14.58
627.2	14.31
627.4	14.14
627.6	14.00
627.8	14.14
628.0	14.22
628.2	14.18
628.4	14.05
628.6	13.89
628.8	13.70
629.0	13.65
629.2	13.60
629.4	13.37
629.6	13.28
629.8	13.08
630.0	12.90
630.2	12.82
630.4	12.80
630.6	12.55
630.8	12.51
631.0	12.49
631.2	12.41
631.4	12.39
631.6	12.33
631.8	12.28
632.0	12.22
632.2	12.24
632.4	12.12
632.6	11.89
632.8	11.70
633.0	11.77
633.2	11.77
633.4	11.77
633.6	11.54
633.8	11.32
634.0	11.32
634.2	11.36
634.4	11.36
634.6	11.18
634.8	10.93
635.0	10.75
635.2	10.83
635.4	10.86
635.6	10.84
635.8	10.68
636.0	10.60
636.2	10.39
636.4	10.25
636.6	10.28
636.8	10.27
637.0	10.24
637.2	10.29
637.4	10.11
637.6	9.839
637.8	9.925
638.0	9.860
638.2	9.720
638.4	9.655
638.6	9.468
638.8	9.300
639.0	9.450
639.2	9.495
639.4	9.506
639.6	9.542
639.8	9.565
640.0	9.365
640.2	9.133
640.4	8.982
640.6	8.800
640.8	8.648
641.0	8.805
641.2	8.765
641.4	8.729
641.6	8.830
641.8	8.742
642.0	8.567
642.2	8.713
642.4	8.573
642.6	8.466
642.8	8.391
643.0	8.246
643.2	8.003
643.4	8.028
643.6	7.880
643.8	7.880
644.0	7.949
644.2	7.942
644.4	7.789
644.6	7.802
644.8	7.838
645.0	7.797
645.2	7.809
645.4	7.662
645.6	7.480
645.8	7.430
646.0	7.503
646.2	7.400
646.4	7.433
646.6	7.319
646.8	7.198
647.0	7.063
647.2	6.994
647.4	6.864
647.6	6.918
647.8	6.901
648.0	6.913
648.2	6.828
648.4	6.767
648.6	6.612
648.8	6.590
649.0	6.602
649.2	6.634
649.4	6.668
649.6	6.669
649.8	6.609
650.0	6.460
650.2	6.380
650.4	6.291
650.6	6.277
650.8	6.371
651.0	6.436
651.2	6.364
651.4	6.215
651.6	6.076
651.8	5.927
652.0	5.953
652.2	5.989
652.4	5.924
652.6	5.886
652.8	5.792
653.0	5.648
653.2	5.555
653.4	5.522
653.6	5.420
653.8	5.596
654.0	5.617
654.2	5.575
654.4	5.489
654.6	5.274
654.8	5.193
655.0	5.235
655.2	5.286
655.4	5.331
655.6	5.388
655.8	5.260
656.0	5.262
656.2	5.189
656.4	5.110
656.6	5.044
656.8	4.996
657.0	4.912
657.2	4.858
657.4	4.824
657.6	4.787
657.8	4.799
658.0	4.875
658.2	4.957
658.4	4.970
658.6	4.930
658.8	4.835
659.0	4.720
659.2	4.695
659.4	4.712
659.6	4.692
659.8	4.624
660.0	4.541
660.2	4.469
660.4	4.376
660.6	4.332
660.8	4.264
661.0	4.270
661.2	4.310
661.4	4.279
661.6	4.284
661.8	4.283
662.0	4.214
662.2	4.204
662.4	4.198
662.6	4.073
662.8	4.050
663.0	4.042
663.2	4.013
663.4	4.009
663.6	3.997
663.8	4.017
664.0	4.004
664.2	4.009
664.4	3.923
664.6	3.890
664.8	3.797
665.0	3.872
665.2	3.847
665.4	3.853
665.6	3.817
665.8	3.873
666.0	3.847
666.2	3.826
666.4	3.678
