Sample:	'20211010A(EM)
File name:	R-CDs 8 800.FDS
Run date:	'16:47:48, 06/09/2023
Operator:	Administrator
Comment:	'

Instrument
Model:	F-4700 FL Spectrophotometer
Serial number:	2019-001
ROM Version:	5J24010 00

Instrument parameters
Measurement type:	Wavelength scan
Scan mode:	Emission
Data mode:	Fluorescence
EX WL:	520.0 nm
EM  Start WL:	540.0 nm
EM  End WL:	800.0 nm
Scan speed:	1200 nm/min
Delay:	0.0 s
EX Slit:	10.0 nm
EM Slit:	10.0 nm
PMT Voltage:	604 V
Response:	0.002 s
Corrected spectra:	Off
Shutter control:	On

Processing performed
Savitsky-Golay smoothed
Smoothing order:	3
Number of points:	7
Number of times:	1

Peak integration
Integration method:	Rectangular
Sensitivity:	1
Threshold:	1.000

Peaks
No.	Start(nm)	Apex(nm)	End(nm)	Height(Data)	Valley(nm)	Valley(Data)
1	540.0	606.2	607.2	1460	607.2	1441
2	607.2	610.8	611.6	1482	611.6	1469
3	611.6	612.6	615.2	1491	615.2	1474
4	615.2	615.8	621.6	1486	621.6	1437
5	621.6	622.6	623.4	1450	623.4	1428
6	623.4	624.8	716.8	1435	716.8	176.5
7	716.8	717.4	749.0	184.1	749.0	62.63
8	749.0	750.4	760.6	65.63	760.6	43.62
9	760.6	761.2	761.8	45.80	761.8	41.20
10	761.8	762.6	764.4	44.27	764.4	38.83
11	764.4	764.8	768.4	41.31	768.4	34.55
12	768.4	769.8	779.2	36.76	779.2	24.44
13	779.2	780.6	784.2	26.13	784.2	22.27
14	784.2	786.2	787.8	24.07	787.8	20.36
15	787.8	788.6	790.2	22.68	790.2	19.27
16	790.2	790.8	800.0	21.40	800.0	17.94

Data points
nm	Data
540.0	221.9
540.2	219.6
540.4	220.9
540.6	224.2
540.8	226.9
541.0	229.2
541.2	229.2
541.4	233.8
541.6	235.9
541.8	239.4
542.0	241.1
542.2	239.2
542.4	236.4
542.6	236.7
542.8	236.6
543.0	240.7
543.2	245.3
543.4	246.0
543.6	242.9
543.8	243.1
544.0	242.9
544.2	247.3
544.4	250.8
544.6	253.7
544.8	254.3
545.0	258.1
545.2	259.5
545.4	260.7
545.6	259.4
545.8	261.1
546.0	263.6
546.2	266.3
546.4	271.0
546.6	273.9
546.8	275.0
547.0	278.4
547.2	280.1
547.4	278.7
547.6	278.9
547.8	278.0
548.0	278.4
548.2	282.1
548.4	284.6
548.6	288.8
548.8	292.2
549.0	292.4
549.2	292.2
549.4	292.1
549.6	294.4
549.8	295.5
550.0	299.8
550.2	303.0
550.4	305.3
550.6	307.6
550.8	312.3
551.0	311.8
551.2	313.4
551.4	316.5
551.6	316.5
551.8	316.6
552.0	318.6
552.2	319.4
552.4	320.7
552.6	326.2
552.8	331.0
553.0	332.3
553.2	333.2
553.4	336.4
553.6	339.0
553.8	343.0
554.0	345.8
554.2	343.8
554.4	346.3
554.6	349.9
554.8	351.5
555.0	354.6
555.2	358.1
555.4	365.2
555.6	370.2
555.8	371.4
556.0	371.2
556.2	372.7
556.4	374.5
556.6	376.6
556.8	378.5
557.0	384.3
557.2	386.7
557.4	390.6
557.6	391.6
557.8	390.9
558.0	395.1
558.2	400.3
558.4	401.4
558.6	404.5
558.8	410.3
559.0	413.5
559.2	415.3
559.4	418.3
559.6	417.7
559.8	420.7
560.0	426.5
560.2	428.4
560.4	431.6
560.6	435.8
560.8	438.8
561.0	443.9
561.2	450.8
561.4	452.6
561.6	458.2
561.8	460.0
562.0	462.3
562.2	465.6
562.4	474.4
562.6	477.5
562.8	481.7
563.0	484.3
563.2	488.3
563.4	498.2
563.6	502.1
563.8	505.9
564.0	507.3
564.2	508.1
564.4	508.7
564.6	514.8
564.8	517.9
565.0	526.6
565.2	535.5
565.4	541.8
565.6	541.0
565.8	541.7
566.0	547.4
566.2	549.5
566.4	556.7
566.6	562.3
566.8	566.4
567.0	569.7
567.2	575.9
567.4	580.6
567.6	586.6
567.8	591.1
568.0	597.5
568.2	604.6
568.4	612.0
568.6	620.1
568.8	621.8
569.0	621.1
569.2	624.6
569.4	630.4
569.6	634.8
569.8	639.2
570.0	645.2
570.2	648.1
570.4	654.3
570.6	659.2
570.8	665.9
571.0	677.1
571.2	687.1
571.4	694.4
571.6	699.2
571.8	703.9
572.0	710.4
572.2	718.6
572.4	719.6
572.6	723.6
572.8	727.1
573.0	731.7
573.2	740.5
573.4	747.7
573.6	755.0
573.8	761.2
574.0	766.6
574.2	768.6
574.4	777.4
574.6	787.6
574.8	796.3
575.0	804.0
575.2	809.4
575.4	813.3
575.6	819.3
575.8	824.6
576.0	827.3
576.2	833.5
576.4	838.5
576.6	848.3
576.8	857.1
577.0	866.9
577.2	875.6
577.4	885.5
577.6	888.3
577.8	893.8
578.0	896.0
578.2	895.0
578.4	899.5
578.6	908.6
578.8	916.6
579.0	927.2
579.2	936.6
579.4	937.7
579.6	942.5
579.8	948.0
580.0	950.6
580.2	957.8
580.4	962.4
580.6	970.6
580.8	979.0
581.0	985.7
581.2	990.6
581.4	997.6
581.6	1003
581.8	1017
582.0	1023
582.2	1029
582.4	1029
582.6	1027
582.8	1028
583.0	1038
583.2	1042
583.4	1055
583.6	1064
583.8	1072
584.0	1075
584.2	1084
584.4	1086
584.6	1093
584.8	1102
585.0	1105
585.2	1107
585.4	1113
585.6	1117
585.8	1121
586.0	1127
586.2	1131
586.4	1135
586.6	1142
586.8	1147
587.0	1154
587.2	1158
587.4	1169
587.6	1176
587.8	1181
588.0	1180
588.2	1184
588.4	1180
588.6	1182
588.8	1194
589.0	1202
589.2	1205
589.4	1213
589.6	1217
589.8	1220
590.0	1230
590.2	1239
590.4	1240
590.6	1236
590.8	1236
591.0	1236
591.2	1247
591.4	1259
591.6	1269
591.8	1264
592.0	1264
592.2	1269
592.4	1278
592.6	1285
592.8	1295
593.0	1292
593.2	1295
593.4	1297
593.6	1294
593.8	1292
594.0	1298
594.2	1304
594.4	1309
594.6	1315
594.8	1320
595.0	1329
595.2	1334
595.4	1336
595.6	1329
595.8	1325
596.0	1330
596.2	1347
596.4	1356
596.6	1360
596.8	1354
597.0	1351
597.2	1349
597.4	1349
597.6	1355
597.8	1358
598.0	1360
598.2	1368
598.4	1371
598.6	1375
598.8	1378
599.0	1379
599.2	1379
599.4	1391
599.6	1392
599.8	1396
600.0	1394
600.2	1391
600.4	1391
600.6	1398
600.8	1397
601.0	1400
601.2	1405
601.4	1402
601.6	1407
601.8	1412
602.0	1418
602.2	1423
602.4	1426
602.6	1422
602.8	1425
603.0	1429
603.2	1437
603.4	1439
603.6	1436
603.8	1437
604.0	1440
604.2	1429
604.4	1432
604.6	1436
604.8	1440
605.0	1448
605.2	1448
605.4	1441
605.6	1446
605.8	1447
606.0	1456
606.2	1460
606.4	1456
606.6	1451
606.8	1448
607.0	1442
607.2	1441
607.4	1445
607.6	1449
607.8	1451
608.0	1456
608.2	1460
608.4	1466
608.6	1467
608.8	1468
609.0	1462
609.2	1457
609.4	1463
609.6	1477
609.8	1481
610.0	1480
610.2	1476
610.4	1471
610.6	1474
610.8	1482
611.0	1480
611.2	1476
611.4	1476
611.6	1469
611.8	1473
612.0	1479
612.2	1484
612.4	1490
612.6	1491
612.8	1480
613.0	1479
613.2	1477
613.4	1479
613.6	1476
613.8	1478
614.0	1475
614.2	1480
614.4	1480
614.6	1478
614.8	1475
615.0	1476
615.2	1474
615.4	1481
615.6	1483
615.8	1486
616.0	1483
616.2	1480
616.4	1473
616.6	1472
616.8	1474
617.0	1476
617.2	1477
617.4	1480
617.6	1482
617.8	1480
618.0	1470
618.2	1463
618.4	1461
618.6	1466
618.8	1464
619.0	1471
619.2	1467
619.4	1462
619.6	1464
619.8	1468
620.0	1463
620.2	1470
620.4	1465
620.6	1458
620.8	1459
621.0	1453
621.2	1441
621.4	1442
621.6	1437
621.8	1439
622.0	1443
622.2	1444
622.4	1445
622.6	1450
622.8	1443
623.0	1438
623.2	1430
623.4	1428
623.6	1432
623.8	1431
624.0	1430
624.2	1431
624.4	1431
624.6	1432
624.8	1435
625.0	1432
625.2	1421
625.4	1421
625.6	1420
625.8	1421
626.0	1422
626.2	1420
626.4	1405
626.6	1407
626.8	1401
627.0	1396
627.2	1394
627.4	1394
627.6	1392
627.8	1400
628.0	1399
628.2	1391
628.4	1389
628.6	1388
628.8	1378
629.0	1382
629.2	1385
629.4	1383
629.6	1380
629.8	1380
630.0	1366
630.2	1366
630.4	1364
630.6	1364
630.8	1354
631.0	1353
631.2	1354
631.4	1359
631.6	1354
631.8	1354
632.0	1346
632.2	1341
632.4	1339
632.6	1338
632.8	1329
633.0	1326
633.2	1327
633.4	1324
633.6	1320
633.8	1317
634.0	1307
634.2	1307
634.4	1304
634.6	1304
634.8	1307
635.0	1305
635.2	1300
635.4	1302
635.6	1298
635.8	1292
636.0	1288
636.2	1280
636.4	1272
636.6	1269
636.8	1269
637.0	1270
637.2	1267
637.4	1265
637.6	1254
637.8	1246
638.0	1246
638.2	1245
638.4	1243
638.6	1246
638.8	1241
639.0	1234
639.2	1231
639.4	1222
639.6	1218
639.8	1220
640.0	1220
640.2	1216
640.4	1209
640.6	1204
640.8	1200
641.0	1195
641.2	1192
641.4	1194
641.6	1185
641.8	1182
642.0	1180
642.2	1176
642.4	1175
642.6	1175
642.8	1162
643.0	1156
643.2	1155
643.4	1150
643.6	1149
643.8	1139
644.0	1130
644.2	1126
644.4	1124
644.6	1120
644.8	1116
645.0	1109
645.2	1107
645.4	1111
645.6	1112
645.8	1110
646.0	1109
646.2	1100
646.4	1093
646.6	1094
646.8	1094
647.0	1089
647.2	1086
647.4	1076
647.6	1062
647.8	1050
648.0	1049
648.2	1046
648.4	1046
648.6	1050
648.8	1048
649.0	1047
649.2	1046
649.4	1040
649.6	1032
649.8	1028
650.0	1019
650.2	1019
650.4	1014
650.6	1006
650.8	999.2
651.0	994.1
651.2	989.7
651.4	991.8
651.6	989.1
651.8	986.3
652.0	986.4
652.2	986.9
652.4	981.8
652.6	975.9
652.8	967.5
653.0	959.6
653.2	953.7
653.4	953.9
653.6	952.9
653.8	947.2
654.0	946.8
654.2	942.9
654.4	934.1
654.6	930.3
654.8	930.1
655.0	924.0
655.2	921.0
655.4	919.0
655.6	907.1
655.8	904.5
656.0	900.4
656.2	899.9
656.4	896.6
656.6	895.7
656.8	885.5
657.0	880.9
657.2	875.1
657.4	875.0
657.6	872.6
657.8	869.4
658.0	858.6
658.2	856.4
658.4	854.2
658.6	855.7
658.8	859.4
659.0	854.7
659.2	846.7
659.4	845.4
659.6	836.4
659.8	830.7
660.0	827.3
660.2	822.4
660.4	814.2
660.6	810.1
660.8	804.8
661.0	799.8
661.2	800.4
661.4	798.0
661.6	793.7
661.8	795.6
662.0	797.0
662.2	789.4
662.4	786.7
662.6	777.5
662.8	772.9
663.0	772.0
663.2	773.3
663.4	768.3
663.6	761.9
663.8	753.3
664.0	746.9
664.2	739.5
664.4	736.9
664.6	734.5
664.8	733.7
665.0	733.3
665.2	733.4
665.4	728.7
665.6	723.8
665.8	715.4
666.0	713.4
666.2	710.2
666.4	708.1
666.6	701.9
666.8	696.1
667.0	689.5
667.2	687.2
667.4	682.7
667.6	683.1
667.8	678.4
668.0	675.6
668.2	673.6
668.4	670.0
668.6	667.6
668.8	669.5
669.0	665.4
669.2	661.4
669.4	651.5
669.6	646.5
669.8	645.8
670.0	648.4
670.2	647.7
670.4	644.3
670.6	635.0
670.8	632.7
671.0	627.4
671.2	625.5
671.4	621.0
671.6	616.5
671.8	612.6
672.0	612.9
672.2	609.0
672.4	607.8
672.6	607.5
672.8	607.4
673.0	603.1
673.2	597.9
673.4	590.7
673.6	588.6
673.8	585.3
674.0	587.0
674.2	583.8
674.4	579.0
674.6	574.8
674.8	572.9
675.0	571.9
675.2	571.0
675.4	567.1
675.6	561.7
675.8	559.4
676.0	553.6
676.2	549.9
676.4	544.5
676.6	541.8
676.8	538.8
677.0	539.5
677.2	535.6
677.4	528.5
677.6	526.6
677.8	521.9
678.0	518.5
678.2	513.3
678.4	507.6
678.6	508.5
678.8	512.1
679.0	514.0
679.2	512.8
679.4	505.7
679.6	501.1
679.8	499.3
680.0	497.9
680.2	494.8
680.4	490.6
680.6	487.1
680.8	486.3
681.0	486.4
681.2	484.6
681.4	475.8
681.6	474.9
681.8	471.9
682.0	466.7
682.2	467.0
682.4	466.6
682.6	461.4
682.8	460.6
683.0	456.8
683.2	449.3
683.4	448.7
683.6	450.0
683.8	447.6
684.0	444.8
684.2	438.2
684.4	432.4
684.6	435.8
684.8	436.3
685.0	435.7
685.2	433.1
685.4	429.2
685.6	427.0
685.8	425.5
686.0	419.5
686.2	415.7
686.4	411.5
686.6	409.9
686.8	408.4
687.0	407.5
687.2	406.4
687.4	407.5
687.6	403.4
687.8	399.2
688.0	396.3
688.2	393.8
688.4	391.4
688.6	393.7
688.8	392.0
689.0	389.1
689.2	388.0
689.4	385.0
689.6	379.4
689.8	378.5
690.0	377.0
690.2	372.4
690.4	372.5
690.6	372.5
690.8	369.6
691.0	368.8
691.2	365.0
691.4	362.1
691.6	361.4
691.8	358.2
692.0	355.9
692.2	354.7
692.4	352.2
692.6	351.3
692.8	350.8
693.0	347.9
693.2	347.1
693.4	343.6
693.6	344.2
693.8	344.8
694.0	342.7
694.2	342.5
694.4	339.7
694.6	331.3
694.8	330.7
695.0	327.1
695.2	325.8
695.4	327.9
695.6	328.1
695.8	324.6
696.0	325.5
696.2	320.9
696.4	319.9
696.6	315.8
696.8	313.9
697.0	309.6
697.2	308.3
697.4	307.5
697.6	310.2
697.8	310.0
698.0	311.0
698.2	306.2
698.4	305.0
698.6	300.3
698.8	300.0
699.0	299.3
699.2	297.9
699.4	291.8
699.6	293.9
699.8	290.5
700.0	290.7
700.2	292.6
700.4	289.2
700.6	285.5
700.8	285.7
701.0	281.9
701.2	279.9
701.4	277.7
701.6	279.0
701.8	282.5
702.0	283.9
702.2	283.1
702.4	281.0
702.6	275.7
702.8	274.2
703.0	272.8
703.2	268.9
703.4	265.0
703.6	263.1
703.8	259.5
704.0	258.9
704.2	261.8
704.4	262.6
704.6	262.3
704.8	261.7
705.0	258.8
705.2	258.5
705.4	258.3
705.6	256.2
705.8	252.8
706.0	247.5
706.2	246.0
706.4	243.4
706.6	242.7
706.8	243.2
707.0	242.4
707.2	242.4
707.4	242.0
707.6	241.1
707.8	240.3
708.0	241.5
708.2	236.9
708.4	233.9
708.6	230.5
708.8	230.3
709.0	229.1
709.2	229.6
709.4	225.6
709.6	223.7
709.8	224.4
710.0	224.6
710.2	223.7
710.4	221.5
710.6	218.6
710.8	217.7
711.0	218.1
711.2	219.6
711.4	218.2
711.6	217.5
711.8	216.2
712.0	215.2
712.2	215.3
712.4	212.3
712.6	208.6
712.8	207.2
713.0	206.7
713.2	206.7
713.4	207.1
713.6	203.8
713.8	204.0
714.0	201.7
714.2	199.8
714.4	199.3
714.6	198.6
714.8	195.7
715.0	194.1
715.2	191.8
715.4	193.1
715.6	191.4
715.8	191.7
716.0	189.6
716.2	186.1
716.4	180.1
716.6	179.3
716.8	176.5
717.0	180.1
717.2	182.9
717.4	184.1
717.6	181.2
717.8	179.6
718.0	177.6
718.2	178.4
718.4	178.6
718.6	176.3
718.8	172.3
719.0	169.9
719.2	166.7
719.4	166.8
719.6	168.6
719.8	169.8
720.0	166.9
720.2	166.2
720.4	165.2
720.6	163.9
720.8	161.9
721.0	161.5
721.2	158.4
721.4	157.5
721.6	158.9
721.8	158.1
722.0	158.0
722.2	157.5
722.4	155.7
722.6	153.9
722.8	152.6
723.0	150.7
723.2	149.5
723.4	148.0
723.6	147.3
723.8	146.9
724.0	146.9
724.2	146.0
724.4	143.5
724.6	142.8
724.8	142.8
725.0	142.2
725.2	142.7
725.4	143.1
725.6	142.4
725.8	141.6
726.0	140.0
726.2	136.5
726.4	136.1
726.6	134.9
726.8	132.4
727.0	131.1
727.2	130.7
727.4	128.5
727.6	129.8
727.8	129.7
728.0	129.2
728.2	128.7
728.4	128.2
728.6	126.1
728.8	125.8
729.0	124.4
729.2	123.7
729.4	123.2
729.6	123.2
729.8	124.4
730.0	124.2
730.2	121.6
730.4	119.3
730.6	118.2
730.8	116.6
731.0	116.0
731.2	115.1
731.4	114.1
731.6	113.9
731.8	113.7
732.0	113.2
732.2	112.2
732.4	112.1
732.6	111.5
732.8	111.7
733.0	111.7
733.2	110.6
733.4	109.0
733.6	106.8
733.8	104.6
734.0	104.6
734.2	103.9
734.4	101.4
734.6	102.0
734.8	101.4
735.0	102.5
735.2	104.2
735.4	102.8
735.6	99.69
735.8	97.93
736.0	95.52
736.2	97.46
736.4	100.3
736.6	102.4
736.8	101.6
737.0	98.88
737.2	94.20
737.4	92.97
737.6	91.41
737.8	92.67
738.0	92.36
738.2	92.56
738.4	92.71
738.6	93.52
738.8	91.31
739.0	90.43
739.2	88.49
739.4	87.10
739.6	88.24
739.8	88.47
740.0	89.17
740.2	88.28
740.4	87.34
740.6	86.03
740.8	85.55
741.0	83.70
741.2	83.98
741.4	81.96
741.6	80.71
741.8	81.48
742.0	80.80
742.2	79.63
742.4	80.13
742.6	80.01
742.8	80.98
743.0	81.56
743.2	79.25
743.4	77.46
743.6	76.95
743.8	78.25
744.0	79.48
744.2	77.48
744.4	74.75
744.6	72.80
744.8	71.23
745.0	72.29
745.2	72.91
745.4	73.08
745.6	73.45
745.8	73.33
746.0	71.15
746.2	69.71
746.4	69.14
746.6	69.44
746.8	70.41
747.0	70.49
747.2	69.36
747.4	68.66
747.6	67.80
747.8	67.43
748.0	67.55
748.2	67.69
748.4	66.01
748.6	65.02
748.8	63.82
749.0	62.63
749.2	64.06
749.4	64.85
749.6	63.50
749.8	63.85
750.0	64.29
750.2	63.98
750.4	65.63
750.6	64.87
750.8	63.27
751.0	62.53
751.2	61.96
751.4	62.37
751.6	61.42
751.8	60.19
752.0	59.50
752.2	58.44
752.4	57.74
752.6	59.06
752.8	58.85
753.0	58.95
753.2	57.21
753.4	56.42
753.6	55.15
753.8	55.41
754.0	54.76
754.2	55.06
754.4	54.83
754.6	55.56
754.8	55.82
755.0	55.49
755.2	53.81
755.4	53.08
755.6	53.42
755.8	52.97
756.0	52.52
756.2	51.96
756.4	51.30
756.6	50.80
756.8	51.57
757.0	51.61
757.2	51.24
757.4	50.68
757.6	49.48
757.8	50.12
758.0	49.76
758.2	49.81
758.4	48.72
758.6	46.68
758.8	45.32
759.0	47.04
759.2	48.01
759.4	48.29
759.6	46.96
759.8	45.57
760.0	44.37
760.2	43.96
760.4	44.11
760.6	43.62
760.8	44.38
761.0	45.67
761.2	45.80
761.4	44.19
761.6	42.66
761.8	41.20
762.0	41.36
762.2	41.89
762.4	43.43
762.6	44.27
762.8	43.93
763.0	42.50
763.2	41.81
763.4	40.82
763.6	41.18
763.8	40.91
764.0	39.99
764.2	39.29
764.4	38.83
764.6	39.87
764.8	41.31
765.0	40.68
765.2	40.23
765.4	39.44
765.6	38.85
765.8	38.77
766.0	38.08
766.2	36.39
766.4	35.86
766.6	36.91
766.8	37.94
767.0	38.25
767.2	37.53
767.4	36.99
767.6	36.30
767.8	36.42
768.0	36.38
768.2	34.63
768.4	34.55
768.6	34.90
768.8	35.25
769.0	35.27
769.2	36.49
769.4	35.47
769.6	36.32
769.8	36.76
770.0	35.73
770.2	34.33
770.4	33.54
770.6	33.19
770.8	33.33
771.0	34.05
771.2	34.15
771.4	33.68
771.6	32.87
771.8	32.23
772.0	30.92
772.2	30.21
772.4	30.85
772.6	31.42
772.8	31.87
773.0	31.80
773.2	31.53
773.4	31.00
773.6	30.70
773.8	30.94
774.0	29.82
774.2	28.86
774.4	28.49
774.6	28.64
774.8	28.51
775.0	29.57
775.2	29.80
775.4	29.05
775.6	28.86
775.8	28.27
776.0	27.83
776.2	28.03
776.4	28.37
776.6	27.46
776.8	26.97
777.0	26.46
777.2	26.93
777.4	27.11
777.6	27.43
777.8	27.62
778.0	26.61
778.2	26.17
778.4	25.66
778.6	25.46
778.8	24.97
779.0	24.71
779.2	24.44
779.4	24.91
779.6	24.79
779.8	25.38
780.0	25.44
780.2	24.72
780.4	25.53
780.6	26.13
780.8	25.68
781.0	26.03
781.2	25.33
781.4	24.37
781.6	24.56
781.8	25.27
782.0	25.15
782.2	25.40
782.4	24.64
782.6	23.50
782.8	22.25
783.0	22.38
783.2	22.43
783.4	23.21
783.6	23.34
783.8	22.94
784.0	22.50
784.2	22.27
784.4	23.31
784.6	23.98
784.8	23.53
785.0	23.34
785.2	22.62
785.4	22.01
785.6	23.33
785.8	23.67
786.0	23.44
786.2	24.07
786.4	22.73
786.6	21.90
786.8	22.14
787.0	21.54
787.2	21.23
787.4	21.53
787.6	20.57
787.8	20.36
788.0	20.75
788.2	21.13
788.4	21.97
788.6	22.68
788.8	22.61
789.0	21.85
789.2	21.26
789.4	21.19
789.6	20.65
789.8	20.49
790.0	20.24
790.2	19.27
790.4	20.13
790.6	21.27
790.8	21.40
791.0	20.81
791.2	20.50
791.4	19.59
791.6	20.24
791.8	20.67
792.0	20.55
792.2	20.66
792.4	19.99
792.6	19.83
792.8	19.74
793.0	20.31
793.2	20.07
793.4	20.28
793.6	19.39
793.8	19.69
794.0	19.02
794.2	19.41
794.4	19.35
794.6	19.07
794.8	19.60
795.0	19.75
795.2	19.56
795.4	19.66
795.6	19.84
795.8	19.12
796.0	19.25
796.2	18.49
796.4	17.94
796.6	18.05
796.8	18.80
797.0	19.23
797.2	19.15
797.4	18.24
797.6	17.59
797.8	17.77
798.0	17.77
798.2	18.37
798.4	17.87
798.6	17.00
798.8	17.48
799.0	18.47
799.2	17.83
799.4	17.53
799.6	16.24
799.8	15.99
800.0	17.94

