Sample:	'20211010A(EM)
File name:	R-CDs 4 400.FDS
Run date:	'16:30:46, 06/09/2023
Operator:	Administrator
Comment:	'

Instrument
Model:	F-4700 FL Spectrophotometer
Serial number:	2019-001
ROM Version:	5J24010 00

Instrument parameters
Measurement type:	Wavelength scan
Scan mode:	Emission
Data mode:	Fluorescence
EX WL:	520.0 nm
EM  Start WL:	540.0 nm
EM  End WL:	800.0 nm
Scan speed:	1200 nm/min
Delay:	0.0 s
EX Slit:	10.0 nm
EM Slit:	10.0 nm
PMT Voltage:	610 V
Response:	0.002 s
Corrected spectra:	Off
Shutter control:	On

Processing performed
Savitsky-Golay smoothed
Smoothing order:	3
Number of points:	7
Number of times:	1

Peak integration
Integration method:	Rectangular
Sensitivity:	1
Threshold:	1.000

Peaks
No.	Start(nm)	Apex(nm)	End(nm)	Height(Data)	Valley(nm)	Valley(Data)
1	540.0	607.2	609.4	2040	609.4	2024
2	609.4	610.8	611.8	2038	611.8	2026
3	611.8	612.6	613.2	2043	613.2	2020
4	613.2	615.4	749.6	2033	749.6	74.44
5	749.6	750.6	769.8	78.34	769.8	37.39
6	769.8	771.2	772.8	39.94	772.8	35.20
7	772.8	773.6	779.0	37.28	779.0	28.89
8	779.0	779.8	784.2	31.29	784.2	26.34
9	784.2	784.8	785.8	28.53	785.8	23.80
10	785.8	786.6	788.6	27.75	788.6	22.38
11	788.6	789.6	792.6	24.98	792.6	19.63
12	792.6	793.6	795.8	23.75	795.8	19.05
13	795.8	796.8	800.0	23.01	800.0	19.00

Data points
nm	Data
540.0	186.9
540.2	189.7
540.4	190.8
540.6	191.0
540.8	191.9
541.0	190.2
541.2	191.5
541.4	196.1
541.6	197.5
541.8	198.1
542.0	199.6
542.2	198.8
542.4	200.9
542.6	203.0
542.8	206.3
543.0	210.6
543.2	214.1
543.4	216.7
543.6	220.1
543.8	221.5
544.0	220.6
544.2	222.5
544.4	221.2
544.6	221.3
544.8	224.4
545.0	227.8
545.2	229.8
545.4	236.6
545.6	237.8
545.8	236.7
546.0	233.5
546.2	235.1
546.4	237.5
546.6	241.6
546.8	245.7
547.0	248.5
547.2	247.9
547.4	250.8
547.6	254.2
547.8	254.5
548.0	260.1
548.2	264.6
548.4	264.5
548.6	263.2
548.8	266.2
549.0	269.6
549.2	275.4
549.4	276.9
549.6	277.0
549.8	276.8
550.0	278.0
550.2	284.8
550.4	289.4
550.6	291.2
550.8	295.0
551.0	296.0
551.2	296.3
551.4	300.6
551.6	306.2
551.8	308.2
552.0	311.2
552.2	311.2
552.4	310.1
552.6	310.2
552.8	315.6
553.0	318.0
553.2	324.5
553.4	329.8
553.6	330.8
553.8	332.8
554.0	336.6
554.2	342.6
554.4	348.7
554.6	351.5
554.8	352.6
555.0	354.4
555.2	357.7
555.4	367.9
555.6	374.9
555.8	380.4
556.0	384.3
556.2	385.8
556.4	386.9
556.6	390.2
556.8	393.7
557.0	399.8
557.2	404.1
557.4	411.1
557.6	415.4
557.8	419.8
558.0	424.6
558.2	428.5
558.4	432.6
558.6	438.0
558.8	443.3
559.0	450.3
559.2	453.5
559.4	457.3
559.6	460.6
559.8	466.2
560.0	474.1
560.2	484.2
560.4	492.6
560.6	500.3
560.8	503.7
561.0	509.1
561.2	514.2
561.4	523.5
561.6	531.3
561.8	538.8
562.0	543.8
562.2	547.4
562.4	559.0
562.6	570.5
562.8	582.3
563.0	589.7
563.2	594.6
563.4	596.6
563.6	607.1
563.8	607.9
564.0	612.6
564.2	617.5
564.4	625.1
564.6	633.8
564.8	645.0
565.0	649.3
565.2	656.5
565.4	668.6
565.6	677.1
565.8	684.3
566.0	691.2
566.2	704.4
566.4	711.1
566.6	721.3
566.8	727.3
567.0	733.3
567.2	743.4
567.4	760.6
567.6	766.2
567.8	774.9
568.0	781.3
568.2	790.3
568.4	800.1
568.6	806.5
568.8	820.3
569.0	831.6
569.2	841.2
569.4	849.7
569.6	859.6
569.8	863.5
570.0	884.3
570.2	896.3
570.4	908.0
570.6	916.0
570.8	925.4
571.0	935.3
571.2	946.6
571.4	955.2
571.6	967.5
571.8	976.6
572.0	984.0
572.2	989.9
572.4	992.1
572.6	1005
572.8	1018
573.0	1031
573.2	1049
573.4	1058
573.6	1066
573.8	1084
574.0	1092
574.2	1098
574.4	1108
574.6	1115
574.8	1129
575.0	1143
575.2	1156
575.4	1168
575.6	1172
575.8	1183
576.0	1198
576.2	1203
576.4	1215
576.6	1220
576.8	1230
577.0	1242
577.2	1257
577.4	1264
577.6	1274
577.8	1278
578.0	1289
578.2	1291
578.4	1298
578.6	1308
578.8	1323
579.0	1341
579.2	1360
579.4	1370
579.6	1369
579.8	1375
580.0	1380
580.2	1391
580.4	1405
580.6	1413
580.8	1418
581.0	1429
581.2	1438
581.4	1448
581.6	1458
581.8	1467
582.0	1475
582.2	1485
582.4	1484
582.6	1496
582.8	1507
583.0	1518
583.2	1523
583.4	1527
583.6	1527
583.8	1547
584.0	1556
584.2	1570
584.4	1573
584.6	1575
584.8	1576
585.0	1587
585.2	1590
585.4	1606
585.6	1613
585.8	1620
586.0	1628
586.2	1635
586.4	1645
586.6	1656
586.8	1658
587.0	1659
587.2	1663
587.4	1663
587.6	1680
587.8	1692
588.0	1697
588.2	1691
588.4	1689
588.6	1684
588.8	1694
589.0	1706
589.2	1722
589.4	1734
589.6	1743
589.8	1741
590.0	1739
590.2	1739
590.4	1751
590.6	1763
590.8	1773
591.0	1780
591.2	1777
591.4	1772
591.6	1779
591.8	1786
592.0	1790
592.2	1796
592.4	1806
592.6	1809
592.8	1822
593.0	1840
593.2	1844
593.4	1847
593.6	1855
593.8	1856
594.0	1851
594.2	1852
594.4	1854
594.6	1859
594.8	1863
595.0	1873
595.2	1874
595.4	1881
595.6	1896
595.8	1903
596.0	1906
596.2	1913
596.4	1910
596.6	1911
596.8	1914
597.0	1908
597.2	1913
597.4	1928
597.6	1933
597.8	1943
598.0	1941
598.2	1928
598.4	1933
598.6	1938
598.8	1939
599.0	1952
599.2	1957
599.4	1958
599.6	1977
599.8	1979
600.0	1973
600.2	1975
600.4	1971
600.6	1973
600.8	1980
601.0	1980
601.2	1981
601.4	1988
601.6	1986
601.8	1982
602.0	1989
602.2	1989
602.4	1992
602.6	1996
602.8	1992
603.0	1984
603.2	1994
603.4	1998
603.6	2004
603.8	2006
604.0	2005
604.2	2004
604.4	2002
604.6	2006
604.8	2010
605.0	2012
605.2	2015
605.4	2019
605.6	2011
605.8	2016
606.0	2020
606.2	2026
606.4	2030
606.6	2030
606.8	2026
607.0	2033
607.2	2040
607.4	2040
607.6	2036
607.8	2029
608.0	2027
608.2	2028
608.4	2038
608.6	2036
608.8	2036
609.0	2034
609.2	2030
609.4	2024
609.6	2028
609.8	2026
610.0	2029
610.2	2031
610.4	2030
610.6	2033
610.8	2038
611.0	2034
611.2	2038
611.4	2035
611.6	2029
611.8	2026
612.0	2032
612.2	2038
612.4	2040
612.6	2043
612.8	2038
613.0	2026
613.2	2020
613.4	2024
613.6	2024
613.8	2024
614.0	2028
614.2	2028
614.4	2022
614.6	2027
614.8	2032
615.0	2030
615.2	2030
615.4	2033
615.6	2027
615.8	2017
616.0	2016
616.2	2011
616.4	2011
616.6	2015
616.8	2021
617.0	2017
617.2	2017
617.4	2012
617.6	2010
617.8	2003
618.0	2008
618.2	1997
618.4	1994
618.6	1995
618.8	1999
619.0	1998
619.2	2003
619.4	1991
619.6	1981
619.8	1986
620.0	1985
620.2	1981
620.4	1983
620.6	1979
620.8	1966
621.0	1972
621.2	1968
621.4	1960
621.6	1962
621.8	1959
622.0	1949
622.2	1955
622.4	1955
622.6	1953
622.8	1960
623.0	1946
623.2	1938
623.4	1936
623.6	1929
623.8	1930
624.0	1935
624.2	1929
624.4	1921
624.6	1916
624.8	1921
625.0	1920
625.2	1915
625.4	1908
625.6	1898
625.8	1892
626.0	1900
626.2	1899
626.4	1894
626.6	1885
626.8	1883
627.0	1880
627.2	1877
627.4	1873
627.6	1871
627.8	1868
628.0	1864
628.2	1871
628.4	1866
628.6	1864
628.8	1866
629.0	1861
629.2	1853
629.4	1853
629.6	1841
629.8	1835
630.0	1827
630.2	1825
630.4	1815
630.6	1811
630.8	1809
631.0	1810
631.2	1803
631.4	1807
631.6	1798
631.8	1796
632.0	1790
632.2	1787
632.4	1781
632.6	1779
632.8	1776
633.0	1762
633.2	1746
633.4	1739
633.6	1734
633.8	1744
634.0	1745
634.2	1733
634.4	1725
634.6	1717
634.8	1714
635.0	1717
635.2	1706
635.4	1699
635.6	1698
635.8	1696
636.0	1698
636.2	1690
636.4	1678
636.6	1668
636.8	1674
637.0	1679
637.2	1678
637.4	1673
637.6	1664
637.8	1650
638.0	1648
638.2	1644
638.4	1635
638.6	1631
638.8	1627
639.0	1624
639.2	1619
639.4	1615
639.6	1612
639.8	1606
640.0	1602
640.2	1601
640.4	1595
640.6	1587
640.8	1576
641.0	1559
641.2	1556
641.4	1554
641.6	1546
641.8	1538
642.0	1528
642.2	1527
642.4	1530
642.6	1525
642.8	1521
643.0	1514
643.2	1506
643.4	1499
643.6	1494
643.8	1488
644.0	1486
644.2	1485
644.4	1477
644.6	1468
644.8	1462
645.0	1459
645.2	1452
645.4	1450
645.6	1444
645.8	1441
646.0	1437
646.2	1427
646.4	1414
646.6	1404
646.8	1407
647.0	1405
647.2	1399
647.4	1385
647.6	1379
647.8	1374
648.0	1373
648.2	1370
648.4	1364
648.6	1360
648.8	1364
649.0	1359
649.2	1347
649.4	1336
649.6	1331
649.8	1326
650.0	1321
650.2	1312
650.4	1305
650.6	1301
650.8	1300
651.0	1299
651.2	1297
651.4	1288
651.6	1279
651.8	1278
652.0	1269
652.2	1264
652.4	1258
652.6	1251
652.8	1242
653.0	1249
653.2	1246
653.4	1244
653.6	1234
653.8	1225
654.0	1215
654.2	1217
654.4	1208
654.6	1203
654.8	1192
655.0	1183
655.2	1180
655.4	1176
655.6	1173
655.8	1169
656.0	1161
656.2	1148
656.4	1143
656.6	1133
656.8	1136
657.0	1139
657.2	1140
657.4	1135
657.6	1131
657.8	1119
658.0	1113
658.2	1107
658.4	1103
658.6	1104
658.8	1102
659.0	1096
659.2	1084
659.4	1076
659.6	1071
659.8	1065
660.0	1064
660.2	1055
660.4	1049
660.6	1052
660.8	1052
661.0	1044
661.2	1039
661.4	1023
661.6	1013
661.8	1007
662.0	1009
662.2	1009
662.4	1008
662.6	1002
662.8	994.5
663.0	985.4
663.2	985.0
663.4	982.3
663.6	974.5
663.8	966.8
664.0	957.0
664.2	952.3
664.4	947.2
664.6	943.4
664.8	938.2
665.0	933.8
665.2	933.3
665.4	935.9
665.6	928.2
665.8	922.9
666.0	912.2
666.2	906.0
666.4	899.6
666.6	900.3
666.8	893.8
667.0	893.6
667.2	888.9
667.4	886.4
667.6	877.5
667.8	874.3
668.0	865.3
668.2	861.2
668.4	857.5
668.6	853.1
668.8	848.5
669.0	838.2
669.2	836.6
669.4	830.4
669.6	827.6
669.8	829.5
670.0	826.5
670.2	820.2
670.4	819.6
670.6	810.0
670.8	803.2
671.0	803.2
671.2	802.9
671.4	803.3
671.6	800.5
671.8	791.8
672.0	781.6
672.2	773.2
672.4	768.6
672.6	762.2
672.8	759.6
673.0	760.1
673.2	759.2
673.4	755.7
673.6	755.4
673.8	750.4
674.0	746.2
674.2	744.3
674.4	735.6
674.6	727.0
674.8	723.5
675.0	717.9
675.2	716.7
675.4	713.2
675.6	705.7
675.8	701.7
676.0	697.5
676.2	698.0
676.4	699.8
676.6	696.0
676.8	688.3
677.0	680.3
677.2	674.8
677.4	670.5
677.6	670.7
677.8	669.5
678.0	665.9
678.2	659.6
678.4	657.9
678.6	653.2
678.8	652.1
679.0	646.4
679.2	643.1
679.4	636.5
679.6	632.7
679.8	630.1
680.0	629.8
680.2	628.1
680.4	626.4
680.6	618.8
680.8	611.2
681.0	605.6
681.2	604.7
681.4	602.5
681.6	601.3
681.8	598.6
682.0	596.0
682.2	597.4
682.4	596.6
682.6	588.9
682.8	584.2
683.0	578.6
683.2	570.7
683.4	571.8
683.6	569.2
683.8	569.6
684.0	569.3
684.2	567.6
684.4	559.0
684.6	554.7
684.8	547.5
685.0	546.5
685.2	546.1
685.4	543.1
685.6	536.5
685.8	531.3
686.0	528.4
686.2	527.5
686.4	527.7
686.6	523.2
686.8	518.5
687.0	513.8
687.2	510.0
687.4	509.5
687.6	511.9
687.8	512.2
688.0	509.5
688.2	502.0
688.4	495.1
688.6	488.4
688.8	489.0
689.0	490.9
689.2	492.8
689.4	490.0
689.6	486.6
689.8	479.4
690.0	473.6
690.2	470.9
690.4	472.0
690.6	470.6
690.8	470.4
691.0	469.1
691.2	461.7
691.4	453.8
691.6	451.9
691.8	449.0
692.0	449.0
692.2	449.9
692.4	450.3
692.6	444.3
692.8	440.8
693.0	435.6
693.2	431.9
693.4	433.3
693.6	436.1
693.8	431.4
694.0	427.2
694.2	423.0
694.4	423.6
694.6	423.4
694.8	423.6
695.0	419.7
695.2	418.9
695.4	417.8
695.6	413.4
695.8	408.2
696.0	404.4
696.2	401.0
696.4	399.3
696.6	400.1
696.8	395.7
697.0	394.8
697.2	394.4
697.4	390.0
697.6	387.8
697.8	387.6
698.0	385.1
698.2	384.9
698.4	384.9
698.6	379.7
698.8	378.9
699.0	375.4
699.2	368.8
699.4	369.3
699.6	369.1
699.8	366.7
700.0	366.1
700.2	361.1
700.4	355.4
700.6	355.1
700.8	354.4
701.0	350.3
701.2	350.6
701.4	348.5
701.6	348.2
701.8	347.9
702.0	347.2
702.2	343.4
702.4	340.4
702.6	338.0
702.8	339.9
703.0	341.1
703.2	340.4
703.4	341.6
703.6	337.1
703.8	333.3
704.0	334.3
704.2	330.5
704.4	328.3
704.6	330.1
704.8	325.8
705.0	326.1
705.2	326.8
705.4	322.6
705.6	319.0
705.8	315.4
706.0	310.7
706.2	311.5
706.4	310.4
706.6	308.3
706.8	306.4
707.0	306.0
707.2	304.5
707.4	305.2
707.6	301.3
707.8	299.4
708.0	298.5
708.2	298.4
708.4	295.6
708.6	293.0
708.8	288.7
709.0	285.7
709.2	282.9
709.4	282.7
709.6	279.6
709.8	277.9
710.0	278.3
710.2	277.5
710.4	277.4
710.6	275.8
710.8	275.0
711.0	274.1
711.2	273.4
711.4	271.6
711.6	270.0
711.8	267.0
712.0	265.1
712.2	260.3
712.4	258.8
712.6	256.2
712.8	255.0
713.0	258.0
713.2	258.9
713.4	259.6
713.6	259.6
713.8	257.2
714.0	254.3
714.2	248.9
714.4	244.5
714.6	242.2
714.8	239.4
715.0	240.5
715.2	243.4
715.4	241.6
715.6	241.3
715.8	239.3
716.0	236.1
716.2	235.0
716.4	233.9
716.6	233.3
716.8	232.4
717.0	229.1
717.2	228.1
717.4	224.2
717.6	219.0
717.8	218.8
718.0	218.4
718.2	220.9
718.4	221.6
718.6	219.5
718.8	215.7
719.0	213.0
719.2	210.0
719.4	211.4
719.6	208.2
719.8	209.7
720.0	210.3
720.2	206.3
720.4	204.0
720.6	203.1
720.8	200.6
721.0	198.9
721.2	198.5
721.4	195.4
721.6	195.7
721.8	195.9
722.0	195.8
722.2	192.2
722.4	191.3
722.6	189.7
722.8	189.9
723.0	188.0
723.2	184.3
723.4	182.2
723.6	181.8
723.8	179.5
724.0	178.2
724.2	177.8
724.4	176.6
724.6	176.3
724.8	176.7
725.0	175.0
725.2	174.0
725.4	173.3
725.6	173.8
725.8	168.8
726.0	168.7
726.2	167.8
726.4	167.5
726.6	164.9
726.8	163.4
727.0	159.8
727.2	160.7
727.4	161.2
727.6	161.4
727.8	161.4
728.0	158.4
728.2	157.7
728.4	155.9
728.6	153.8
728.8	152.9
729.0	153.1
729.2	153.7
729.4	155.5
729.6	156.5
729.8	154.9
730.0	150.5
730.2	148.2
730.4	148.0
730.6	145.8
730.8	145.1
731.0	141.0
731.2	137.0
731.4	137.0
731.6	136.5
731.8	136.3
732.0	135.9
732.2	135.6
732.4	135.6
732.6	136.9
732.8	134.3
733.0	134.0
733.2	132.6
733.4	131.3
733.6	130.6
733.8	132.0
734.0	130.4
734.2	130.1
734.4	127.5
734.6	125.7
734.8	125.0
735.0	125.1
735.2	123.1
735.4	122.9
735.6	120.6
735.8	121.5
736.0	122.5
736.2	122.3
736.4	119.6
736.6	119.0
736.8	117.7
737.0	116.2
737.2	115.7
737.4	114.2
737.6	111.9
737.8	112.1
738.0	112.8
738.2	110.5
738.4	109.5
738.6	109.2
738.8	107.9
739.0	108.7
739.2	110.1
739.4	109.8
739.6	109.3
739.8	107.6
740.0	107.5
740.2	106.2
740.4	106.2
740.6	105.1
740.8	104.6
741.0	101.8
741.2	102.5
741.4	101.6
741.6	101.4
741.8	99.39
742.0	99.93
742.2	97.61
742.4	96.65
742.6	96.47
742.8	96.39
743.0	93.65
743.2	91.31
743.4	89.97
743.6	88.01
743.8	90.39
744.0	91.12
744.2	90.67
744.4	88.50
744.6	88.48
744.8	88.36
745.0	88.99
745.2	88.39
745.4	88.12
745.6	86.87
745.8	87.25
746.0	86.94
746.2	85.90
746.4	86.19
746.6	85.50
746.8	85.48
747.0	86.75
747.2	86.03
747.4	85.43
747.6	83.44
747.8	80.75
748.0	79.52
748.2	81.03
748.4	80.83
748.6	81.94
748.8	79.76
749.0	76.91
749.2	75.24
749.4	76.27
749.6	74.44
749.8	75.63
750.0	75.88
750.2	75.05
750.4	76.51
750.6	78.34
750.8	76.22
751.0	73.36
751.2	71.85
751.4	70.16
751.6	69.71
751.8	69.09
752.0	70.66
752.2	70.95
752.4	71.20
752.6	71.41
752.8	69.40
753.0	67.33
753.2	67.96
753.4	67.18
753.6	65.32
753.8	64.22
754.0	63.42
754.2	62.70
754.4	62.79
754.6	62.80
754.8	62.57
755.0	63.27
755.2	63.54
755.4	62.80
755.6	60.81
755.8	60.79
756.0	61.72
756.2	63.46
756.4	63.24
756.6	62.87
756.8	60.40
757.0	59.45
757.2	60.17
757.4	60.61
757.6	59.29
757.8	59.04
758.0	58.89
758.2	56.75
758.4	57.38
758.6	57.31
758.8	55.63
759.0	55.67
759.2	55.50
759.4	54.53
759.6	55.81
759.8	56.19
760.0	56.84
760.2	56.97
760.4	54.93
760.6	53.66
760.8	53.46
761.0	52.52
761.2	53.66
761.4	53.14
761.6	52.05
761.8	50.46
762.0	50.76
762.2	50.12
762.4	51.13
762.6	51.50
762.8	50.90
763.0	49.24
763.2	49.43
763.4	49.40
763.6	50.02
763.8	50.80
764.0	49.55
764.2	49.14
764.4	49.39
764.6	48.62
764.8	47.54
765.0	46.62
765.2	45.40
765.4	46.03
765.6	46.93
765.8	46.22
766.0	45.93
766.2	45.09
766.4	44.10
766.6	43.61
766.8	43.77
767.0	43.77
767.2	44.02
767.4	43.32
767.6	42.40
767.8	41.88
768.0	42.29
768.2	42.85
768.4	42.41
768.6	41.30
768.8	41.93
769.0	41.97
769.2	41.86
769.4	41.51
769.6	39.31
769.8	37.39
770.0	38.74
770.2	37.73
770.4	38.41
770.6	39.50
770.8	39.19
771.0	38.74
771.2	39.94
771.4	38.30
771.6	37.72
771.8	37.22
772.0	36.88
772.2	36.30
772.4	37.15
772.6	35.56
772.8	35.20
773.0	35.69
773.2	36.90
773.4	37.19
773.6	37.28
773.8	36.04
774.0	36.03
774.2	35.67
774.4	36.98
774.6	36.35
774.8	35.75
775.0	35.13
775.2	34.19
775.4	33.82
775.6	34.05
775.8	33.48
776.0	33.29
776.2	33.02
776.4	32.41
776.6	32.75
776.8	32.77
777.0	32.97
777.2	33.11
777.4	33.29
777.6	32.24
777.8	32.48
778.0	32.95
778.2	32.54
778.4	31.81
778.6	30.65
778.8	29.30
779.0	28.89
779.2	29.69
779.4	30.06
779.6	30.74
779.8	31.29
780.0	30.97
780.2	30.39
780.4	30.22
780.6	29.78
780.8	30.07
781.0	29.60
781.2	28.71
781.4	27.74
781.6	27.51
781.8	27.28
782.0	27.37
782.2	27.70
782.4	27.84
782.6	27.96
782.8	28.21
783.0	27.74
783.2	28.03
783.4	28.22
783.6	27.80
783.8	27.32
784.0	26.54
784.2	26.34
784.4	27.63
784.6	27.50
784.8	28.53
785.0	27.68
785.2	26.72
785.4	26.02
785.6	24.92
785.8	23.80
786.0	24.90
786.2	26.07
786.4	26.95
786.6	27.75
786.8	27.28
787.0	27.24
787.2	26.58
787.4	25.99
787.6	24.98
787.8	24.06
788.0	23.56
788.2	23.75
788.4	23.20
788.6	22.38
788.8	23.24
789.0	23.70
789.2	24.45
789.4	24.71
789.6	24.98
789.8	24.61
790.0	24.21
790.2	23.99
790.4	23.98
790.6	23.95
790.8	24.71
791.0	23.62
791.2	21.98
791.4	21.11
791.6	21.33
791.8	22.44
792.0	23.07
792.2	21.57
792.4	21.12
792.6	19.63
792.8	20.63
793.0	21.94
793.2	22.28
793.4	22.59
793.6	23.75
793.8	22.05
794.0	22.27
794.2	21.69
794.4	20.86
794.6	21.03
794.8	21.89
795.0	21.11
795.2	21.12
795.4	20.65
795.6	20.32
795.8	19.05
796.0	19.51
796.2	20.09
796.4	21.17
796.6	22.39
796.8	23.01
797.0	21.98
797.2	21.85
797.4	20.92
797.6	21.41
797.8	21.57
798.0	21.34
798.2	20.62
798.4	20.76
798.6	19.39
798.8	19.72
799.0	19.39
799.2	19.55
799.4	19.29
799.6	19.67
799.8	19.72
800.0	19.00

