Sample:	'20211010A(EM)
File name:	R-CDs 9.FDS
Run date:	'16:49:25, 06/09/2023
Operator:	Administrator
Comment:	'

Instrument
Model:	F-4700 FL Spectrophotometer
Serial number:	2019-001
ROM Version:	5J24010 00

Instrument parameters
Measurement type:	Wavelength scan
Scan mode:	Emission
Data mode:	Fluorescence
EX WL:	520.0 nm
EM  Start WL:	540.0 nm
EM  End WL:	800.0 nm
Scan speed:	1200 nm/min
Delay:	0.0 s
EX Slit:	10.0 nm
EM Slit:	10.0 nm
PMT Voltage:	604 V
Response:	0.002 s
Corrected spectra:	Off
Shutter control:	On

Processing performed
Savitsky-Golay smoothed
Smoothing order:	3
Number of points:	7
Number of times:	1

Peak integration
Integration method:	Rectangular
Sensitivity:	1
Threshold:	1.000

Peaks
No.	Start(nm)	Apex(nm)	End(nm)	Height(Data)	Valley(nm)	Valley(Data)
1	540.0	603.8	605.4	8772	605.4	8725
2	605.4	606.8	780.0	8765	780.0	63.75
3	780.0	781.0	785.8	65.47	785.8	52.52
4	785.8	787.4	790.6	54.80	790.6	48.66
5	790.6	790.8	792.8	50.84	792.8	44.62
6	792.8	793.4	795.2	48.48	795.2	42.19
7	795.2	796.0	800.0	46.71	800.0	40.94

Data points
nm	Data
540.0	743.0
540.2	759.8
540.4	771.0
540.6	778.7
540.8	787.6
541.0	791.6
541.2	801.3
541.4	811.4
541.6	822.9
541.8	832.2
542.0	846.5
542.2	862.8
542.4	872.5
542.6	882.8
542.8	886.0
543.0	898.4
543.2	913.7
543.4	937.6
543.6	949.4
543.8	960.8
544.0	968.1
544.2	980.6
544.4	990.3
544.6	1008
544.8	1016
545.0	1031
545.2	1045
545.4	1061
545.6	1073
545.8	1095
546.0	1109
546.2	1121
546.4	1131
546.6	1140
546.8	1147
547.0	1168
547.2	1180
547.4	1196
547.6	1214
547.8	1235
548.0	1255
548.2	1278
548.4	1287
548.6	1305
548.8	1309
549.0	1323
549.2	1340
549.4	1359
549.6	1382
549.8	1404
550.0	1423
550.2	1437
550.4	1457
550.6	1472
550.8	1488
551.0	1501
551.2	1522
551.4	1537
551.6	1560
551.8	1582
552.0	1599
552.2	1617
552.4	1642
552.6	1669
552.8	1691
553.0	1709
553.2	1714
553.4	1727
553.6	1749
553.8	1777
554.0	1800
554.2	1832
554.4	1852
554.6	1880
554.8	1903
555.0	1917
555.2	1929
555.4	1948
555.6	1970
555.8	1999
556.0	2028
556.2	2053
556.4	2082
556.6	2106
556.8	2131
557.0	2149
557.2	2177
557.4	2211
557.6	2244
557.8	2265
558.0	2286
558.2	2303
558.4	2329
558.6	2361
558.8	2383
559.0	2406
559.2	2432
559.4	2457
559.6	2481
559.8	2513
560.0	2539
560.2	2580
560.4	2613
560.6	2646
560.8	2676
561.0	2703
561.2	2733
561.4	2766
561.6	2788
561.8	2827
562.0	2857
562.2	2878
562.4	2915
562.6	2945
562.8	2974
563.0	3012
563.2	3045
563.4	3084
563.6	3131
563.8	3166
564.0	3195
564.2	3215
564.4	3234
564.6	3271
564.8	3314
565.0	3354
565.2	3392
565.4	3426
565.6	3449
565.8	3478
566.0	3519
566.2	3546
566.4	3574
566.6	3608
566.8	3648
567.0	3692
567.2	3743
567.4	3775
567.6	3794
567.8	3821
568.0	3859
568.2	3906
568.4	3958
568.6	4001
568.8	4031
569.0	4065
569.2	4102
569.4	4143
569.6	4180
569.8	4208
570.0	4243
570.2	4290
570.4	4343
570.6	4396
570.8	4432
571.0	4468
571.2	4490
571.4	4522
571.6	4570
571.8	4622
572.0	4665
572.2	4710
572.4	4731
572.6	4759
572.8	4798
573.0	4837
573.2	4875
573.4	4917
573.6	4961
573.8	4999
574.0	5043
574.2	5073
574.4	5111
574.6	5156
574.8	5205
575.0	5250
575.2	5295
575.4	5336
575.6	5375
575.8	5413
576.0	5453
576.2	5492
576.4	5524
576.6	5570
576.8	5611
577.0	5657
577.2	5697
577.4	5732
577.6	5778
577.8	5815
578.0	5842
578.2	5873
578.4	5898
578.6	5936
578.8	5989
579.0	6020
579.2	6045
579.4	6081
579.6	6118
579.8	6157
580.0	6205
580.2	6242
580.4	6272
580.6	6299
580.8	6327
581.0	6366
581.2	6397
581.4	6438
581.6	6476
581.8	6518
582.0	6554
582.2	6599
582.4	6623
582.6	6672
582.8	6725
583.0	6773
583.2	6804
583.4	6838
583.6	6856
583.8	6894
584.0	6927
584.2	6948
584.4	6978
584.6	7013
584.8	7045
585.0	7086
585.2	7128
585.4	7153
585.6	7190
585.8	7208
586.0	7212
586.2	7237
586.4	7266
586.6	7299
586.8	7342
587.0	7367
587.2	7374
587.4	7409
587.6	7449
587.8	7496
588.0	7528
588.2	7547
588.4	7561
588.6	7584
588.8	7617
589.0	7664
589.2	7689
589.4	7706
589.6	7730
589.8	7739
590.0	7757
590.2	7789
590.4	7806
590.6	7823
590.8	7860
591.0	7886
591.2	7916
591.4	7943
591.6	7966
591.8	7972
592.0	7998
592.2	8027
592.4	8046
592.6	8072
592.8	8093
593.0	8098
593.2	8117
593.4	8147
593.6	8163
593.8	8176
594.0	8198
594.2	8215
594.4	8224
594.6	8242
594.8	8249
595.0	8260
595.2	8300
595.4	8328
595.6	8352
595.8	8365
596.0	8381
596.2	8379
596.4	8391
596.6	8399
596.8	8429
597.0	8443
597.2	8461
597.4	8463
597.6	8455
597.8	8465
598.0	8493
598.2	8514
598.4	8529
598.6	8553
598.8	8545
599.0	8560
599.2	8572
599.4	8576
599.6	8589
599.8	8609
600.0	8614
600.2	8602
600.4	8599
600.6	8598
600.8	8635
601.0	8673
601.2	8701
601.4	8688
601.6	8683
601.8	8679
602.0	8701
602.2	8709
602.4	8710
602.6	8702
602.8	8689
603.0	8699
603.2	8723
603.4	8733
603.6	8764
603.8	8772
604.0	8767
604.2	8761
604.4	8760
604.6	8746
604.8	8744
605.0	8737
605.2	8729
605.4	8725
605.6	8744
605.8	8740
606.0	8750
606.2	8754
606.4	8750
606.6	8758
606.8	8765
607.0	8758
607.2	8763
607.4	8739
607.6	8733
607.8	8733
608.0	8743
608.2	8749
608.4	8754
608.6	8739
608.8	8735
609.0	8731
609.2	8727
609.4	8725
609.6	8724
609.8	8706
610.0	8709
610.2	8723
610.4	8705
610.6	8691
610.8	8655
611.0	8620
611.2	8626
611.4	8632
611.6	8646
611.8	8650
612.0	8638
612.2	8633
612.4	8635
612.6	8611
612.8	8602
613.0	8578
613.2	8552
613.4	8532
613.6	8536
613.8	8538
614.0	8544
614.2	8533
614.4	8508
614.6	8483
614.8	8456
615.0	8447
615.2	8458
615.4	8445
615.6	8445
615.8	8440
616.0	8434
616.2	8434
616.4	8427
616.6	8404
616.8	8368
617.0	8326
617.2	8299
617.4	8274
617.6	8260
617.8	8241
618.0	8230
618.2	8229
618.4	8211
618.6	8187
618.8	8177
619.0	8146
619.2	8138
619.4	8130
619.6	8126
619.8	8118
620.0	8110
620.2	8098
620.4	8071
620.6	8050
620.8	8031
621.0	8006
621.2	7987
621.4	7963
621.6	7942
621.8	7934
622.0	7906
622.2	7881
622.4	7879
622.6	7865
622.8	7851
623.0	7829
623.2	7804
623.4	7775
623.6	7771
623.8	7763
624.0	7746
624.2	7715
624.4	7691
624.6	7648
624.8	7632
625.0	7604
625.2	7593
625.4	7572
625.6	7538
625.8	7511
626.0	7501
626.2	7479
626.4	7459
626.6	7440
626.8	7412
627.0	7402
627.2	7394
627.4	7368
627.6	7328
627.8	7294
628.0	7268
628.2	7267
628.4	7261
628.6	7228
628.8	7204
629.0	7172
629.2	7132
629.4	7103
629.6	7082
629.8	7062
630.0	7066
630.2	7060
630.4	7025
630.6	6981
630.8	6940
631.0	6911
631.2	6900
631.4	6888
631.6	6876
631.8	6861
632.0	6829
632.2	6790
632.4	6756
632.6	6724
632.8	6712
633.0	6697
633.2	6677
633.4	6646
633.6	6612
633.8	6587
634.0	6568
634.2	6541
634.4	6526
634.6	6497
634.8	6462
635.0	6432
635.2	6401
635.4	6382
635.6	6375
635.8	6350
636.0	6332
636.2	6313
636.4	6276
636.6	6249
636.8	6216
637.0	6181
637.2	6159
637.4	6155
637.6	6140
637.8	6120
638.0	6100
638.2	6077
638.4	6039
638.6	6007
638.8	5987
639.0	5955
639.2	5932
639.4	5927
639.6	5911
639.8	5891
640.0	5862
640.2	5830
640.4	5793
640.6	5771
640.8	5742
641.0	5716
641.2	5675
641.4	5653
641.6	5629
641.8	5614
642.0	5595
642.2	5572
642.4	5533
642.6	5508
642.8	5487
643.0	5462
643.2	5439
643.4	5412
643.6	5393
643.8	5389
644.0	5384
644.2	5351
644.4	5316
644.6	5273
644.8	5249
645.0	5234
645.2	5216
645.4	5181
645.6	5155
645.8	5128
646.0	5099
646.2	5079
646.4	5061
646.6	5032
646.8	5027
647.0	4996
647.2	4970
647.4	4948
647.6	4929
647.8	4902
648.0	4888
648.2	4855
648.4	4834
648.6	4810
648.8	4774
649.0	4750
649.2	4720
649.4	4695
649.6	4673
649.8	4656
650.0	4636
650.2	4623
650.4	4601
650.6	4577
650.8	4556
651.0	4539
651.2	4522
651.4	4497
651.6	4472
651.8	4446
652.0	4420
652.2	4401
652.4	4381
652.6	4359
652.8	4335
653.0	4309
653.2	4275
653.4	4251
653.6	4226
653.8	4203
654.0	4184
654.2	4172
654.4	4152
654.6	4127
654.8	4113
655.0	4082
655.2	4054
655.4	4033
655.6	4017
655.8	3993
656.0	3982
656.2	3952
656.4	3923
656.6	3897
656.8	3884
657.0	3876
657.2	3873
657.4	3857
657.6	3833
657.8	3807
658.0	3776
658.2	3757
658.4	3746
658.6	3721
658.8	3699
659.0	3675
659.2	3655
659.4	3640
659.6	3621
659.8	3590
660.0	3568
660.2	3551
660.4	3539
660.6	3526
660.8	3504
661.0	3486
661.2	3472
661.4	3459
661.6	3440
661.8	3426
662.0	3402
662.2	3385
662.4	3351
662.6	3326
662.8	3313
663.0	3303
663.2	3296
663.4	3279
663.6	3254
663.8	3237
664.0	3220
664.2	3199
664.4	3178
664.6	3154
664.8	3137
665.0	3115
665.2	3094
665.4	3077
665.6	3076
665.8	3062
666.0	3041
666.2	3015
666.4	2993
666.6	2971
666.8	2964
667.0	2943
667.2	2933
667.4	2916
667.6	2900
667.8	2886
668.0	2866
668.2	2845
668.4	2838
668.6	2823
668.8	2806
669.0	2796
669.2	2778
669.4	2758
669.6	2739
669.8	2717
670.0	2704
670.2	2692
670.4	2679
670.6	2671
670.8	2652
671.0	2630
671.2	2608
671.4	2592
671.6	2576
671.8	2563
672.0	2548
672.2	2536
672.4	2525
672.6	2516
672.8	2502
673.0	2483
673.2	2463
673.4	2447
673.6	2443
673.8	2421
674.0	2408
674.2	2386
674.4	2369
674.6	2353
674.8	2343
675.0	2325
675.2	2326
675.4	2309
675.6	2300
675.8	2287
676.0	2268
676.2	2258
676.4	2251
676.6	2227
676.8	2207
677.0	2191
677.2	2178
677.4	2173
677.6	2164
677.8	2142
678.0	2121
678.2	2101
678.4	2089
678.6	2073
678.8	2064
679.0	2051
679.2	2045
679.4	2037
679.6	2024
679.8	2012
680.0	2002
680.2	1993
680.4	1980
680.6	1971
680.8	1951
681.0	1942
681.2	1933
681.4	1922
681.6	1906
681.8	1897
682.0	1885
682.2	1878
682.4	1874
682.6	1873
682.8	1855
683.0	1839
683.2	1824
683.4	1807
683.6	1795
683.8	1789
684.0	1777
684.2	1770
684.4	1757
684.6	1739
684.8	1725
685.0	1715
685.2	1707
685.4	1699
685.6	1679
685.8	1662
686.0	1660
686.2	1658
686.4	1652
686.6	1646
686.8	1630
687.0	1613
687.2	1601
687.4	1592
687.6	1583
687.8	1579
688.0	1568
688.2	1551
688.4	1536
688.6	1530
688.8	1525
689.0	1521
689.2	1508
689.4	1493
689.6	1481
689.8	1470
690.0	1466
690.2	1460
690.4	1449
690.6	1445
690.8	1443
691.0	1436
691.2	1431
691.4	1421
691.6	1399
691.8	1382
692.0	1374
692.2	1367
692.4	1363
692.6	1363
692.8	1350
693.0	1340
693.2	1337
693.4	1327
693.6	1319
693.8	1317
694.0	1308
694.2	1300
694.4	1296
694.6	1288
694.8	1282
695.0	1274
695.2	1266
695.4	1255
695.6	1248
695.8	1239
696.0	1235
696.2	1227
696.4	1219
696.6	1208
696.8	1200
697.0	1190
697.2	1186
697.4	1180
697.6	1170
697.8	1162
698.0	1160
698.2	1155
698.4	1146
698.6	1143
698.8	1132
699.0	1125
699.2	1118
699.4	1106
699.6	1095
699.8	1098
700.0	1091
700.2	1085
700.4	1082
700.6	1074
700.8	1068
701.0	1066
701.2	1060
701.4	1054
701.6	1052
701.8	1046
702.0	1038
702.2	1031
702.4	1027
702.6	1023
702.8	1019
703.0	1011
703.2	1002
703.4	993.0
703.6	986.6
703.8	982.3
704.0	977.5
704.2	963.4
704.4	954.0
704.6	949.3
704.8	947.3
705.0	945.5
705.2	941.5
705.4	930.1
705.6	924.6
705.8	922.0
706.0	922.3
706.2	918.3
706.4	911.2
706.6	903.0
706.8	895.2
707.0	888.6
707.2	891.3
707.4	886.7
707.6	885.9
707.8	881.8
708.0	877.3
708.2	868.7
708.4	864.5
708.6	851.9
708.8	846.8
709.0	838.6
709.2	831.5
709.4	822.6
709.6	816.2
709.8	811.1
710.0	808.8
710.2	809.3
710.4	806.2
710.6	802.2
710.8	793.2
711.0	789.0
711.2	780.3
711.4	778.3
711.6	775.1
711.8	772.3
712.0	768.7
712.2	764.3
712.4	754.9
712.6	748.6
712.8	745.9
713.0	741.3
713.2	739.4
713.4	735.6
713.6	726.2
713.8	719.2
714.0	712.7
714.2	707.5
714.4	707.8
714.6	705.2
714.8	698.7
715.0	694.1
715.2	684.1
715.4	675.7
715.6	672.6
715.8	667.5
716.0	665.8
716.2	665.1
716.4	664.5
716.6	658.1
716.8	655.2
717.0	649.8
717.2	645.7
717.4	640.4
717.6	637.2
717.8	631.0
718.0	630.5
718.2	626.0
718.4	618.6
718.6	613.5
718.8	608.9
719.0	605.3
719.2	601.9
719.4	593.8
719.6	587.7
719.8	583.6
720.0	583.0
720.2	580.2
720.4	578.7
720.6	573.4
720.8	572.2
721.0	566.4
721.2	562.8
721.4	554.4
721.6	549.2
721.8	541.9
722.0	536.5
722.2	533.4
722.4	533.7
722.6	531.7
722.8	528.1
723.0	524.5
723.2	517.0
723.4	512.8
723.6	508.5
723.8	503.1
724.0	497.4
724.2	493.8
724.4	490.9
724.6	490.7
724.8	487.3
725.0	489.9
725.2	488.4
725.4	483.9
725.6	476.1
725.8	469.3
726.0	462.2
726.2	463.2
726.4	459.7
726.6	455.4
726.8	450.9
727.0	449.7
727.2	447.3
727.4	446.4
727.6	445.3
727.8	441.0
728.0	439.1
728.2	436.7
728.4	431.4
728.6	423.1
728.8	423.0
729.0	417.8
729.2	416.6
729.4	416.2
729.6	413.1
729.8	410.3
730.0	407.7
730.2	403.7
730.4	398.5
730.6	392.1
730.8	386.2
731.0	386.8
731.2	384.2
731.4	383.0
731.6	377.3
731.8	372.7
732.0	368.0
732.2	366.9
732.4	369.0
732.6	366.2
732.8	365.1
733.0	357.7
733.2	352.2
733.4	350.7
733.6	350.5
733.8	347.9
734.0	349.0
734.2	342.0
734.4	340.6
734.6	339.1
734.8	336.0
735.0	334.1
735.2	332.3
735.4	330.8
735.6	327.5
735.8	322.4
736.0	316.7
736.2	314.0
736.4	310.7
736.6	310.5
736.8	308.7
737.0	305.7
737.2	302.0
737.4	300.8
737.6	296.8
737.8	293.8
738.0	293.0
738.2	292.2
738.4	292.4
738.6	288.6
738.8	284.4
739.0	280.8
739.2	281.0
739.4	281.5
739.6	283.5
739.8	276.0
740.0	274.5
740.2	269.5
740.4	267.3
740.6	266.8
740.8	266.5
741.0	263.2
741.2	262.7
741.4	258.0
741.6	254.7
741.8	254.5
742.0	254.4
742.2	255.6
742.4	255.6
742.6	252.9
742.8	250.2
743.0	246.3
743.2	243.7
743.4	243.0
743.6	238.0
743.8	235.5
744.0	235.6
744.2	235.0
744.4	232.0
744.6	229.1
744.8	226.5
745.0	227.3
745.2	227.3
745.4	226.8
745.6	219.6
745.8	213.8
746.0	214.4
746.2	215.3
746.4	216.4
746.6	214.8
746.8	212.3
747.0	211.2
747.2	206.4
747.4	203.8
747.6	201.0
747.8	197.7
748.0	198.9
748.2	199.6
748.4	195.8
748.6	196.4
748.8	197.2
749.0	193.5
749.2	193.4
749.4	192.2
749.6	189.6
749.8	189.8
750.0	192.2
750.2	189.2
750.4	188.5
750.6	187.0
750.8	185.5
751.0	182.9
751.2	182.0
751.4	179.6
751.6	177.5
751.8	176.7
752.0	176.2
752.2	174.2
752.4	173.5
752.6	171.5
752.8	171.0
753.0	170.1
753.2	168.0
753.4	165.1
753.6	164.4
753.8	164.1
754.0	163.1
754.2	161.9
754.4	159.6
754.6	159.1
754.8	158.3
755.0	158.9
755.2	157.6
755.4	156.7
755.6	153.6
755.8	153.7
756.0	151.8
756.2	149.4
756.4	149.3
756.6	148.5
756.8	146.6
757.0	146.2
757.2	145.0
757.4	142.7
757.6	142.5
757.8	141.5
758.0	140.2
758.2	139.6
758.4	138.1
758.6	137.8
758.8	136.4
759.0	135.5
759.2	136.1
759.4	135.9
759.6	135.5
759.8	135.2
760.0	131.7
760.2	129.8
760.4	133.1
760.6	132.0
760.8	132.2
761.0	131.5
761.2	129.4
761.4	125.5
761.6	126.2
761.8	124.1
762.0	124.5
762.2	124.0
762.4	123.4
762.6	122.3
762.8	122.5
763.0	122.0
763.2	120.3
763.4	117.8
763.6	113.3
763.8	112.3
764.0	113.0
764.2	114.0
764.4	114.8
764.6	114.9
764.8	113.0
765.0	110.6
765.2	109.7
765.4	109.2
765.6	108.3
765.8	107.1
766.0	105.7
766.2	104.6
766.4	103.6
766.6	102.4
766.8	100.3
767.0	99.24
767.2	97.66
767.4	98.61
767.6	98.43
767.8	96.97
768.0	96.53
768.2	97.55
768.4	97.29
768.6	97.78
768.8	97.26
769.0	95.20
769.2	95.10
769.4	95.66
769.6	94.43
769.8	94.31
770.0	93.38
770.2	91.18
770.4	89.58
770.6	89.18
770.8	88.80
771.0	89.79
771.2	88.38
771.4	86.88
771.6	85.77
771.8	87.26
772.0	87.18
772.2	87.13
772.4	84.93
772.6	83.94
772.8	84.16
773.0	84.50
773.2	82.55
773.4	81.39
773.6	80.27
773.8	79.86
774.0	79.56
774.2	78.57
774.4	77.04
774.6	76.07
774.8	76.17
775.0	76.00
775.2	75.64
775.4	74.70
775.6	74.63
775.8	73.96
776.0	72.81
776.2	72.22
776.4	71.83
776.6	71.34
776.8	71.09
777.0	69.90
777.2	69.62
777.4	70.04
777.6	71.14
777.8	71.40
778.0	70.31
778.2	67.97
778.4	66.62
778.6	65.49
778.8	64.89
779.0	65.89
779.2	66.60
779.4	65.48
779.6	64.51
779.8	63.90
780.0	63.75
780.2	64.07
780.4	64.35
780.6	65.09
780.8	65.24
781.0	65.47
781.2	64.45
781.4	61.90
781.6	61.03
781.8	61.98
782.0	61.46
782.2	61.59
782.4	60.09
782.6	59.21
782.8	58.62
783.0	58.36
783.2	57.41
783.4	57.85
783.6	58.71
783.8	59.06
784.0	58.93
784.2	56.94
784.4	55.96
784.6	55.46
784.8	56.27
785.0	55.70
785.2	54.86
785.4	53.12
785.6	53.08
785.8	52.52
786.0	52.82
786.2	54.28
786.4	54.40
786.6	53.40
786.8	54.41
787.0	53.61
787.2	53.38
787.4	54.80
787.6	54.79
787.8	52.89
788.0	52.88
788.2	52.15
788.4	50.67
788.6	51.46
788.8	52.46
789.0	51.85
789.2	51.65
789.4	50.96
789.6	49.84
789.8	50.20
790.0	50.05
790.2	49.25
790.4	49.02
790.6	48.66
790.8	50.84
791.0	50.55
791.2	50.10
791.4	48.95
791.6	47.76
791.8	47.91
792.0	49.45
792.2	48.62
792.4	47.24
792.6	45.65
792.8	44.62
793.0	45.31
793.2	46.84
793.4	48.48
793.6	47.72
793.8	46.71
794.0	45.99
794.2	45.28
794.4	44.73
794.6	44.54
794.8	43.48
795.0	42.62
795.2	42.19
795.4	42.62
795.6	44.67
795.8	46.53
796.0	46.71
796.2	45.59
796.4	44.89
796.6	43.88
796.8	44.29
797.0	44.97
797.2	44.23
797.4	44.47
797.6	44.99
797.8	44.58
798.0	43.77
798.2	42.77
798.4	41.44
798.6	41.30
798.8	40.77
799.0	40.60
799.2	40.98
799.4	41.44
799.6	41.81
799.8	41.74
800.0	40.94

