Sample:	'20211010A(EM)
File name:	R-CDs 7 700.FDS
Run date:	'16:43:50, 06/09/2023
Operator:	Administrator
Comment:	'

Instrument
Model:	F-4700 FL Spectrophotometer
Serial number:	2019-001
ROM Version:	5J24010 00

Instrument parameters
Measurement type:	Wavelength scan
Scan mode:	Emission
Data mode:	Fluorescence
EX WL:	520.0 nm
EM  Start WL:	540.0 nm
EM  End WL:	800.0 nm
Scan speed:	1200 nm/min
Delay:	0.0 s
EX Slit:	10.0 nm
EM Slit:	10.0 nm
PMT Voltage:	604 V
Response:	0.002 s
Corrected spectra:	Off
Shutter control:	On

Processing performed
Savitsky-Golay smoothed
Smoothing order:	3
Number of points:	7
Number of times:	1

Peak integration
Integration method:	Rectangular
Sensitivity:	1
Threshold:	1.000

Peaks
No.	Start(nm)	Apex(nm)	End(nm)	Height(Data)	Valley(nm)	Valley(Data)
1	540.0	605.8	606.6	1827	606.6	1807
2	606.6	614.2	615.2	1865	615.2	1832
3	615.2	615.8	618.8	1858	618.8	1818
4	618.8	621.2	740.0	1832	740.0	94.25
5	740.0	740.6	773.6	98.51	773.6	30.42
6	773.6	774.4	775.8	31.84	775.8	28.39
7	775.8	776.4	779.0	30.68	779.0	25.37
8	779.0	780.4	781.8	26.56	781.8	23.32
9	781.8	782.8	785.2	26.31	785.2	22.38
10	785.2	785.8	788.4	24.83	788.4	20.61
11	788.4	789.8	792.6	22.25	792.6	19.77
12	792.6	793.0	795.0	20.87	795.0	18.53
13	795.0	797.2	800.0	21.39	800.0	19.07

Data points
nm	Data
540.0	193.2
540.2	193.8
540.4	194.4
540.6	195.1
540.8	196.4
541.0	197.4
541.2	196.4
541.4	198.3
541.6	197.5
541.8	198.4
542.0	201.0
542.2	204.6
542.4	208.5
542.6	211.9
542.8	212.5
543.0	213.1
543.2	212.6
543.4	215.0
543.6	217.9
543.8	219.6
544.0	221.2
544.2	221.7
544.4	222.9
544.6	221.4
544.8	221.9
545.0	225.5
545.2	228.9
545.4	230.7
545.6	236.0
545.8	235.8
546.0	237.5
546.2	241.3
546.4	243.7
546.6	245.0
546.8	245.9
547.0	244.1
547.2	244.2
547.4	246.6
547.6	248.6
547.8	249.2
548.0	251.2
548.2	252.4
548.4	257.0
548.6	262.0
548.8	267.2
549.0	270.6
549.2	274.9
549.4	274.5
549.6	270.8
549.8	268.7
550.0	269.1
550.2	273.6
550.4	280.8
550.6	286.7
550.8	292.5
551.0	294.3
551.2	295.2
551.4	296.4
551.6	295.2
551.8	296.8
552.0	300.3
552.2	300.1
552.4	308.0
552.6	312.8
552.8	317.5
553.0	322.5
553.2	324.6
553.4	324.4
553.6	326.6
553.8	324.0
554.0	325.8
554.2	329.3
554.4	333.8
554.6	338.8
554.8	342.9
555.0	346.4
555.2	348.8
555.4	351.2
555.6	354.3
555.8	358.5
556.0	362.9
556.2	369.5
556.4	371.6
556.6	371.5
556.8	373.7
557.0	375.4
557.2	380.2
557.4	388.6
557.6	392.8
557.8	396.2
558.0	402.4
558.2	405.0
558.4	409.0
558.6	410.7
558.8	413.5
559.0	417.9
559.2	424.2
559.4	429.1
559.6	432.1
559.8	433.8
560.0	438.2
560.2	444.3
560.4	451.4
560.6	460.0
560.8	464.9
561.0	468.8
561.2	472.3
561.4	475.6
561.6	484.0
561.8	492.0
562.0	497.5
562.2	500.9
562.4	503.0
562.6	504.4
562.8	511.8
563.0	515.3
563.2	521.3
563.4	528.9
563.6	536.1
563.8	543.6
564.0	549.3
564.2	547.5
564.4	552.1
564.6	561.0
564.8	569.2
565.0	574.8
565.2	580.2
565.4	582.3
565.6	593.5
565.8	605.5
566.0	610.6
566.2	615.9
566.4	619.4
566.6	621.7
566.8	628.8
567.0	633.3
567.2	635.7
567.4	644.9
567.6	651.1
567.8	663.0
568.0	676.6
568.2	688.8
568.4	699.5
568.6	704.7
568.8	707.0
569.0	712.0
569.2	712.9
569.4	720.9
569.6	731.3
569.8	737.5
570.0	747.2
570.2	756.7
570.4	761.4
570.6	773.5
570.8	778.4
571.0	783.2
571.2	786.4
571.4	790.7
571.6	801.3
571.8	814.8
572.0	824.8
572.2	838.2
572.4	842.6
572.6	849.7
572.8	862.8
573.0	870.7
573.2	879.7
573.4	888.1
573.6	892.7
573.8	896.9
574.0	904.3
574.2	913.0
574.4	923.8
574.6	934.1
574.8	945.6
575.0	946.4
575.2	951.8
575.4	962.6
575.6	975.2
575.8	985.4
576.0	990.7
576.2	991.3
576.4	999.5
576.6	1012
576.8	1025
577.0	1038
577.2	1046
577.4	1052
577.6	1056
577.8	1063
578.0	1073
578.2	1082
578.4	1094
578.6	1101
578.8	1106
579.0	1110
579.2	1115
579.4	1124
579.6	1137
579.8	1148
580.0	1155
580.2	1165
580.4	1171
580.6	1185
580.8	1197
581.0	1205
581.2	1206
581.4	1215
581.6	1220
581.8	1223
582.0	1229
582.2	1236
582.4	1246
582.6	1259
582.8	1269
583.0	1271
583.2	1279
583.4	1289
583.6	1304
583.8	1315
584.0	1320
584.2	1322
584.4	1325
584.6	1336
584.8	1347
585.0	1356
585.2	1355
585.4	1358
585.6	1367
585.8	1380
586.0	1383
586.2	1382
586.4	1385
586.6	1390
586.8	1409
587.0	1423
587.2	1432
587.4	1435
587.6	1443
587.8	1448
588.0	1460
588.2	1454
588.4	1460
588.6	1465
588.8	1472
589.0	1481
589.2	1487
589.4	1488
589.6	1500
589.8	1509
590.0	1520
590.2	1524
590.4	1521
590.6	1529
590.8	1535
591.0	1538
591.2	1546
591.4	1555
591.6	1559
591.8	1573
592.0	1579
592.2	1582
592.4	1586
592.6	1598
592.8	1593
593.0	1592
593.2	1596
593.4	1601
593.6	1606
593.8	1619
594.0	1621
594.2	1632
594.4	1643
594.6	1647
594.8	1653
595.0	1658
595.2	1663
595.4	1669
595.6	1664
595.8	1658
596.0	1661
596.2	1669
596.4	1682
596.6	1688
596.8	1691
597.0	1691
597.2	1687
597.4	1695
597.6	1706
597.8	1707
598.0	1706
598.2	1704
598.4	1705
598.6	1721
598.8	1731
599.0	1736
599.2	1734
599.4	1733
599.6	1739
599.8	1755
600.0	1757
600.2	1754
600.4	1757
600.6	1751
600.8	1751
601.0	1755
601.2	1752
601.4	1746
601.6	1762
601.8	1771
602.0	1788
602.2	1797
602.4	1792
602.6	1787
602.8	1786
603.0	1791
603.2	1802
603.4	1803
603.6	1801
603.8	1801
604.0	1796
604.2	1805
604.4	1806
604.6	1806
604.8	1807
605.0	1806
605.2	1800
605.4	1812
605.6	1814
605.8	1827
606.0	1827
606.2	1825
606.4	1814
606.6	1807
606.8	1812
607.0	1823
607.2	1832
607.4	1840
607.6	1839
607.8	1830
608.0	1833
608.2	1836
608.4	1838
608.6	1835
608.8	1836
609.0	1831
609.2	1836
609.4	1849
609.6	1851
609.8	1848
610.0	1847
610.2	1846
610.4	1838
610.6	1847
610.8	1853
611.0	1852
611.2	1849
611.4	1851
611.6	1847
611.8	1850
612.0	1853
612.2	1853
612.4	1858
612.6	1858
612.8	1864
613.0	1856
613.2	1852
613.4	1850
613.6	1858
613.8	1860
614.0	1863
614.2	1865
614.4	1858
614.6	1845
614.8	1838
615.0	1832
615.2	1832
615.4	1847
615.6	1854
615.8	1858
616.0	1856
616.2	1852
616.4	1848
616.6	1844
616.8	1841
617.0	1844
617.2	1839
617.4	1836
617.6	1834
617.8	1831
618.0	1828
618.2	1831
618.4	1823
618.6	1824
618.8	1818
619.0	1819
619.2	1822
619.4	1823
619.6	1820
619.8	1829
620.0	1830
620.2	1823
620.4	1822
620.6	1822
620.8	1825
621.0	1831
621.2	1832
621.4	1822
621.6	1812
621.8	1813
622.0	1811
622.2	1806
622.4	1803
622.6	1800
622.8	1793
623.0	1797
623.2	1801
623.4	1805
623.6	1801
623.8	1798
624.0	1787
624.2	1782
624.4	1778
624.6	1783
624.8	1778
625.0	1787
625.2	1787
625.4	1784
625.6	1778
625.8	1775
626.0	1760
626.2	1756
626.4	1748
626.6	1750
626.8	1749
627.0	1749
627.2	1743
627.4	1743
627.6	1731
627.8	1725
628.0	1717
628.2	1717
628.4	1715
628.6	1719
628.8	1712
629.0	1712
629.2	1718
629.4	1716
629.6	1707
629.8	1699
630.0	1691
630.2	1693
630.4	1698
630.6	1695
630.8	1684
631.0	1672
631.2	1663
631.4	1655
631.6	1651
631.8	1643
632.0	1644
632.2	1648
632.4	1648
632.6	1642
632.8	1641
633.0	1637
633.2	1639
633.4	1639
633.6	1630
633.8	1626
634.0	1620
634.2	1621
634.4	1617
634.6	1608
634.8	1600
635.0	1598
635.2	1594
635.4	1591
635.6	1585
635.8	1574
636.0	1563
636.2	1561
636.4	1560
636.6	1566
636.8	1571
637.0	1562
637.2	1553
637.4	1550
637.6	1539
637.8	1533
638.0	1533
638.2	1532
638.4	1527
638.6	1518
638.8	1512
639.0	1493
639.2	1487
639.4	1491
639.6	1489
639.8	1486
640.0	1489
640.2	1485
640.4	1484
640.6	1480
640.8	1477
641.0	1471
641.2	1463
641.4	1461
641.6	1451
641.8	1438
642.0	1432
642.2	1434
642.4	1431
642.6	1432
642.8	1425
643.0	1422
643.2	1418
643.4	1414
643.6	1406
643.8	1399
644.0	1392
644.2	1387
644.4	1381
644.6	1375
644.8	1373
645.0	1368
645.2	1363
645.4	1350
645.6	1341
645.8	1338
646.0	1336
646.2	1342
646.4	1341
646.6	1333
646.8	1319
647.0	1312
647.2	1305
647.4	1310
647.6	1305
647.8	1301
648.0	1291
648.2	1287
648.4	1279
648.6	1278
648.8	1266
649.0	1259
649.2	1245
649.4	1243
649.6	1238
649.8	1241
650.0	1236
650.2	1235
650.4	1233
650.6	1234
650.8	1225
651.0	1221
651.2	1211
651.4	1205
651.6	1203
651.8	1203
652.0	1197
652.2	1188
652.4	1184
652.6	1179
652.8	1171
653.0	1166
653.2	1155
653.4	1141
653.6	1138
653.8	1136
654.0	1138
654.2	1138
654.4	1134
654.6	1130
654.8	1125
655.0	1114
655.2	1109
655.4	1108
655.6	1104
655.8	1101
656.0	1098
656.2	1088
656.4	1077
656.6	1076
656.8	1070
657.0	1065
657.2	1060
657.4	1059
657.6	1057
657.8	1058
658.0	1052
658.2	1047
658.4	1040
658.6	1028
658.8	1021
659.0	1017
659.2	1005
659.4	995.3
659.6	994.7
659.8	986.6
660.0	984.5
660.2	991.8
660.4	986.1
660.6	977.3
660.8	971.6
661.0	968.1
661.2	960.6
661.4	959.4
661.6	948.6
661.8	943.4
662.0	939.5
662.2	939.9
662.4	936.0
662.6	934.0
662.8	927.8
663.0	922.0
663.2	913.3
663.4	906.9
663.6	902.5
663.8	899.4
664.0	900.7
664.2	900.1
664.4	896.2
664.6	893.1
664.8	886.5
665.0	876.9
665.2	871.2
665.4	864.2
665.6	857.9
665.8	854.2
666.0	855.5
666.2	853.7
666.4	853.1
666.6	842.8
666.8	833.0
667.0	825.9
667.2	824.9
667.4	825.2
667.6	828.2
667.8	826.4
668.0	821.7
668.2	812.6
668.4	806.7
668.6	803.0
668.8	802.6
669.0	799.6
669.2	797.3
669.4	791.8
669.6	785.3
669.8	778.0
670.0	773.5
670.2	768.1
670.4	760.2
670.6	759.8
670.8	753.8
671.0	748.7
671.2	743.0
671.4	742.1
671.6	737.7
671.8	738.3
672.0	733.9
672.2	727.6
672.4	722.2
672.6	722.4
672.8	725.4
673.0	719.7
673.2	710.2
673.4	701.6
673.6	699.0
673.8	695.9
674.0	698.9
674.2	696.0
674.4	694.6
674.6	694.1
674.8	689.8
675.0	678.9
675.2	670.5
675.4	663.2
675.6	655.8
675.8	653.1
676.0	651.9
676.2	648.7
676.4	647.6
676.6	647.1
676.8	638.7
677.0	638.6
677.2	638.0
677.4	631.3
677.6	624.8
677.8	617.1
678.0	613.6
678.2	617.6
678.4	620.5
678.6	618.5
678.8	615.1
679.0	605.1
679.2	600.8
679.4	602.6
679.6	600.3
679.8	596.7
680.0	591.7
680.2	582.2
680.4	579.0
680.6	580.4
680.8	578.3
681.0	577.2
681.2	570.7
681.4	566.2
681.6	564.6
681.8	562.3
682.0	562.5
682.2	560.1
682.4	553.8
682.6	545.1
682.8	536.7
683.0	532.5
683.2	533.9
683.4	533.8
683.6	536.4
683.8	532.1
684.0	528.7
684.2	521.0
684.4	515.3
684.6	513.1
684.8	510.4
685.0	509.4
685.2	511.4
685.4	505.7
685.6	501.6
685.8	496.5
686.0	489.0
686.2	485.1
686.4	484.3
686.6	484.3
686.8	487.3
687.0	482.6
687.2	480.3
687.4	473.5
687.6	467.9
687.8	470.0
688.0	471.8
688.2	467.6
688.4	467.0
688.6	462.5
688.8	458.1
689.0	455.9
689.2	451.9
689.4	447.1
689.6	442.3
689.8	439.9
690.0	437.5
690.2	436.4
690.4	438.2
690.6	438.0
690.8	435.2
691.0	432.7
691.2	428.7
691.4	423.6
691.6	422.1
691.8	419.6
692.0	419.1
692.2	418.7
692.4	418.7
692.6	414.6
692.8	412.7
693.0	409.3
693.2	406.0
693.4	400.4
693.6	399.7
693.8	396.8
694.0	397.6
694.2	400.4
694.4	397.3
694.6	393.4
694.8	388.9
695.0	384.9
695.2	385.5
695.4	386.6
695.6	382.6
695.8	380.2
696.0	376.3
696.2	372.4
696.4	371.1
696.6	369.1
696.8	370.2
697.0	370.1
697.2	369.2
697.4	362.9
697.6	359.2
697.8	355.2
698.0	356.1
698.2	354.9
698.4	349.8
698.6	351.5
698.8	355.0
699.0	355.4
699.2	354.2
699.4	349.9
699.6	340.3
699.8	338.9
700.0	340.1
700.2	341.4
700.4	341.6
700.6	339.1
700.8	335.9
701.0	333.1
701.2	330.0
701.4	329.1
701.6	328.0
701.8	326.0
702.0	326.8
702.2	327.9
702.4	327.4
702.6	322.2
702.8	320.5
703.0	316.7
703.2	314.3
703.4	313.5
703.6	312.6
703.8	309.4
704.0	308.7
704.2	305.6
704.4	306.1
704.6	302.0
704.8	301.3
705.0	301.6
705.2	298.5
705.4	294.8
705.6	293.7
705.8	290.1
706.0	291.0
706.2	290.3
706.4	290.1
706.6	287.0
706.8	286.4
707.0	282.6
707.2	281.7
707.4	278.7
707.6	277.2
707.8	273.5
708.0	274.5
708.2	270.2
708.4	272.4
708.6	270.7
708.8	270.0
709.0	267.0
709.2	264.8
709.4	262.2
709.6	264.4
709.8	263.9
710.0	265.4
710.2	265.1
710.4	263.5
710.6	259.3
710.8	257.5
711.0	253.2
711.2	252.0
711.4	250.8
711.6	251.7
711.8	247.8
712.0	245.3
712.2	242.4
712.4	241.4
712.6	241.3
712.8	241.5
713.0	236.6
713.2	231.7
713.4	229.6
713.6	227.6
713.8	228.3
714.0	231.0
714.2	229.9
714.4	228.5
714.6	228.5
714.8	226.3
715.0	222.5
715.2	224.1
715.4	222.9
715.6	223.3
715.8	220.6
716.0	218.5
716.2	214.2
716.4	213.5
716.6	211.4
716.8	212.1
717.0	209.9
717.2	208.3
717.4	207.6
717.6	207.1
717.8	206.2
718.0	205.5
718.2	206.0
718.4	202.5
718.6	200.5
718.8	198.6
719.0	197.4
719.2	197.0
719.4	197.3
719.6	196.0
719.8	194.8
720.0	193.7
720.2	192.9
720.4	191.3
720.6	185.9
720.8	181.5
721.0	177.4
721.2	177.6
721.4	181.0
721.6	183.3
721.8	182.4
722.0	180.7
722.2	177.3
722.4	175.0
722.6	172.0
722.8	170.3
723.0	170.0
723.2	169.4
723.4	169.9
723.6	169.9
723.8	169.2
724.0	168.1
724.2	165.9
724.4	163.1
724.6	161.4
724.8	159.3
725.0	159.6
725.2	158.7
725.4	158.1
725.6	159.0
725.8	158.9
726.0	155.8
726.2	154.8
726.4	153.0
726.6	151.7
726.8	151.8
727.0	153.0
727.2	151.8
727.4	150.5
727.6	147.5
727.8	145.2
728.0	146.5
728.2	147.2
728.4	147.6
728.6	145.5
728.8	144.4
729.0	141.7
729.2	140.4
729.4	138.7
729.6	138.5
729.8	136.8
730.0	139.5
730.2	137.8
730.4	134.8
730.6	133.3
730.8	132.6
731.0	130.5
731.2	132.7
731.4	132.2
731.6	130.4
731.8	129.2
732.0	128.4
732.2	126.3
732.4	125.1
732.6	123.9
732.8	122.9
733.0	121.0
733.2	118.3
733.4	118.3
733.6	118.8
733.8	118.6
734.0	118.9
734.2	117.4
734.4	115.9
734.6	117.4
734.8	118.4
735.0	115.8
735.2	113.7
735.4	112.1
735.6	112.2
735.8	112.2
736.0	114.5
736.2	113.4
736.4	111.5
736.6	111.1
736.8	109.6
737.0	107.9
737.2	108.9
737.4	108.9
737.6	106.6
737.8	105.0
738.0	101.4
738.2	99.40
738.4	97.95
738.6	100.5
738.8	100.3
739.0	101.8
739.2	99.77
739.4	97.94
739.6	95.34
739.8	95.11
740.0	94.25
740.2	98.17
740.4	98.34
740.6	98.51
740.8	97.19
741.0	95.22
741.2	92.89
741.4	91.05
741.6	89.36
741.8	89.43
742.0	89.67
742.2	91.32
742.4	90.61
742.6	89.44
742.8	88.56
743.0	87.46
743.2	86.51
743.4	86.37
743.6	84.89
743.8	83.56
744.0	82.91
744.2	82.87
744.4	83.03
744.6	81.88
744.8	81.75
745.0	81.00
745.2	80.31
745.4	80.50
745.6	80.04
745.8	78.38
746.0	78.62
746.2	79.03
746.4	78.25
746.6	77.26
746.8	76.62
747.0	77.08
747.2	77.92
747.4	77.99
747.6	77.06
747.8	75.09
748.0	73.08
748.2	73.62
748.4	73.20
748.6	72.23
748.8	73.03
749.0	73.44
749.2	72.32
749.4	72.95
749.6	71.05
749.8	68.81
750.0	68.76
750.2	68.71
750.4	68.58
750.6	68.42
750.8	67.53
751.0	66.48
751.2	65.73
751.4	66.36
751.6	65.88
751.8	64.97
752.0	64.41
752.2	64.90
752.4	64.25
752.6	64.49
752.8	63.05
753.0	62.47
753.2	62.00
753.4	61.80
753.6	61.85
753.8	62.73
754.0	60.99
754.2	60.32
754.4	59.38
754.6	57.61
754.8	58.05
755.0	57.40
755.2	55.24
755.4	54.48
755.6	54.29
755.8	54.18
756.0	55.53
756.2	55.76
756.4	54.66
756.6	54.14
756.8	54.27
757.0	53.94
757.2	55.00
757.4	54.78
757.6	52.64
757.8	52.18
758.0	52.09
758.2	52.19
758.4	53.25
758.6	53.43
758.8	53.12
759.0	52.91
759.2	51.86
759.4	51.47
759.6	51.85
759.8	52.60
760.0	52.40
760.2	51.95
760.4	50.66
760.6	49.06
760.8	47.20
761.0	46.63
761.2	46.59
761.4	48.52
761.6	49.03
761.8	48.39
762.0	46.63
762.2	46.08
762.4	44.95
762.6	45.86
762.8	44.48
763.0	43.33
763.2	43.58
763.4	43.86
763.6	43.02
763.8	43.77
764.0	43.19
764.2	43.01
764.4	43.38
764.6	43.49
764.8	43.00
765.0	42.36
765.2	42.27
765.4	42.01
765.6	41.45
765.8	41.55
766.0	41.04
766.2	41.10
766.4	40.97
766.6	40.11
766.8	40.04
767.0	38.38
767.2	37.88
767.4	38.96
767.6	38.17
767.8	38.05
768.0	38.40
768.2	37.90
768.4	38.14
768.6	38.34
768.8	37.79
769.0	37.90
769.2	36.77
769.4	35.92
769.6	35.31
769.8	34.61
770.0	34.58
770.2	36.21
770.4	36.30
770.6	35.92
770.8	35.06
771.0	33.49
771.2	32.38
771.4	32.84
771.6	33.22
771.8	33.63
772.0	33.19
772.2	31.93
772.4	31.19
772.6	30.51
772.8	30.49
773.0	30.70
773.2	31.03
773.4	30.83
773.6	30.42
773.8	31.45
774.0	31.82
774.2	31.48
774.4	31.84
774.6	31.52
774.8	30.44
775.0	30.56
775.2	29.98
775.4	28.75
775.6	28.58
775.8	28.39
776.0	29.10
776.2	30.17
776.4	30.68
776.6	30.18
776.8	29.11
777.0	28.36
777.2	28.80
777.4	29.45
777.6	29.13
777.8	28.59
778.0	27.89
778.2	27.25
778.4	26.68
778.6	26.70
778.8	25.76
779.0	25.37
779.2	26.11
779.4	26.27
779.6	25.57
779.8	25.69
780.0	25.92
780.2	25.99
780.4	26.56
780.6	26.30
780.8	26.02
781.0	25.71
781.2	25.79
781.4	25.00
781.6	24.36
781.8	23.32
782.0	23.99
782.2	24.55
782.4	25.06
782.6	25.59
782.8	26.31
783.0	25.30
783.2	24.97
783.4	24.42
783.6	23.72
783.8	23.75
784.0	23.34
784.2	23.00
784.4	23.15
784.6	23.66
784.8	23.64
785.0	23.66
785.2	22.38
785.4	22.93
785.6	23.98
785.8	24.83
786.0	24.10
786.2	23.58
786.4	22.18
786.6	21.98
786.8	22.94
787.0	23.53
787.2	23.30
787.4	22.97
787.6	22.61
787.8	21.79
788.0	21.48
788.2	21.30
788.4	20.61
788.6	20.95
788.8	21.59
789.0	21.82
789.2	21.62
789.4	22.16
789.6	21.34
789.8	22.25
790.0	22.04
790.2	22.08
790.4	21.31
790.6	20.92
790.8	20.54
791.0	20.66
791.2	20.89
791.4	21.00
791.6	21.04
791.8	20.62
792.0	20.52
792.2	20.05
792.4	20.17
792.6	19.77
792.8	20.04
793.0	20.87
793.2	20.65
793.4	20.35
793.6	19.77
793.8	19.18
794.0	19.54
794.2	20.44
794.4	20.60
794.6	19.20
794.8	18.57
795.0	18.53
795.2	19.27
795.4	19.64
795.6	19.85
795.8	18.75
796.0	19.16
796.2	19.40
796.4	19.47
796.6	19.57
796.8	19.50
797.0	20.22
797.2	21.39
797.4	21.04
797.6	20.46
797.8	19.77
798.0	19.03
798.2	18.05
798.4	17.62
798.6	17.41
798.8	17.86
799.0	18.14
799.2	18.72
799.4	17.86
799.6	17.43
799.8	17.68
800.0	19.07

