Sample:	'20211010A(EM)
File name:	R-CDs 9 900.FDS
Run date:	'16:50:44, 06/09/2023
Operator:	Administrator
Comment:	'

Instrument
Model:	F-4700 FL Spectrophotometer
Serial number:	2019-001
ROM Version:	5J24010 00

Instrument parameters
Measurement type:	Wavelength scan
Scan mode:	Emission
Data mode:	Fluorescence
EX WL:	520.0 nm
EM  Start WL:	540.0 nm
EM  End WL:	800.0 nm
Scan speed:	1200 nm/min
Delay:	0.0 s
EX Slit:	10.0 nm
EM Slit:	10.0 nm
PMT Voltage:	604 V
Response:	0.002 s
Corrected spectra:	Off
Shutter control:	On

Processing performed
Savitsky-Golay smoothed
Smoothing order:	3
Number of points:	7
Number of times:	1

Peak integration
Integration method:	Rectangular
Sensitivity:	1
Threshold:	1.000

Peaks
No.	Start(nm)	Apex(nm)	End(nm)	Height(Data)	Valley(nm)	Valley(Data)
1	540.0	607.4	608.8	1513	608.8	1501
2	608.8	609.6	610.8	1531	610.8	1514
3	610.8	611.6	612.0	1528	612.0	1513
4	612.0	616.0	616.8	1549	616.8	1511
5	616.8	618.2	743.4	1521	743.4	76.27
6	743.4	744.4	749.8	79.15	749.8	59.91
7	749.8	750.6	754.6	64.39	754.6	52.66
8	754.6	755.6	757.4	55.65	757.4	47.05
9	757.4	758.2	760.6	50.65	760.6	43.45
10	760.6	761.4	770.6	45.62	770.6	30.76
11	770.6	772.2	773.6	32.24	773.6	28.67
12	773.6	774.2	777.4	32.23	777.4	24.06
13	777.4	778.4	779.2	26.62	779.2	24.48
14	779.2	780.6	784.4	26.12	784.4	21.50
15	784.4	785.0	789.8	24.10	789.8	19.11
16	789.8	790.6	792.0	20.80	792.0	19.06
17	792.0	793.0	793.8	21.07	793.8	17.72
18	793.8	794.6	795.4	19.59	795.4	17.02
19	795.4	796.2	797.0	19.40	797.0	16.61
20	797.0	797.8	800.0	19.44	800.0	16.37

Data points
nm	Data
540.0	160.0
540.2	161.0
540.4	160.9
540.6	160.5
540.8	161.6
541.0	163.0
541.2	162.4
541.4	163.0
541.6	162.5
541.8	161.9
542.0	164.8
542.2	168.2
542.4	169.1
542.6	173.3
542.8	174.2
543.0	176.4
543.2	176.7
543.4	176.6
543.6	176.3
543.8	177.2
544.0	177.8
544.2	180.9
544.4	180.6
544.6	180.1
544.8	182.8
545.0	183.3
545.2	186.6
545.4	189.6
545.6	191.4
545.8	191.6
546.0	195.3
546.2	198.3
546.4	199.9
546.6	198.2
546.8	200.7
547.0	201.8
547.2	207.6
547.4	212.7
547.6	211.8
547.8	210.0
548.0	209.8
548.2	207.8
548.4	211.0
548.6	216.0
548.8	216.7
549.0	218.6
549.2	220.7
549.4	220.2
549.6	221.8
549.8	227.5
550.0	227.9
550.2	229.4
550.4	233.0
550.6	232.7
550.8	235.3
551.0	242.4
551.2	245.5
551.4	250.3
551.6	254.6
551.8	253.6
552.0	255.5
552.2	256.4
552.4	253.7
552.6	252.8
552.8	253.8
553.0	255.6
553.2	259.8
553.4	262.0
553.6	265.0
553.8	265.3
554.0	266.2
554.2	272.0
554.4	275.9
554.6	282.1
554.8	285.7
555.0	286.0
555.2	289.0
555.4	294.5
555.6	297.6
555.8	302.2
556.0	299.7
556.2	300.8
556.4	304.2
556.6	308.0
556.8	312.8
557.0	316.8
557.2	318.5
557.4	319.1
557.6	321.4
557.8	323.0
558.0	330.1
558.2	334.7
558.4	338.4
558.6	340.3
558.8	342.5
559.0	341.8
559.2	345.6
559.4	348.3
559.6	352.7
559.8	360.1
560.0	365.9
560.2	369.7
560.4	376.9
560.6	381.2
560.8	384.7
561.0	389.5
561.2	391.4
561.4	394.6
561.6	400.3
561.8	403.8
562.0	405.2
562.2	407.5
562.4	411.4
562.6	416.7
562.8	426.0
563.0	433.9
563.2	436.3
563.4	436.7
563.6	440.5
563.8	442.3
564.0	451.0
564.2	459.0
564.4	461.2
564.6	462.6
564.8	463.0
565.0	466.4
565.2	473.5
565.4	483.0
565.6	489.8
565.8	495.6
566.0	502.0
566.2	509.9
566.4	511.7
566.6	514.8
566.8	519.1
567.0	523.9
567.2	531.6
567.4	538.2
567.6	540.9
567.8	545.7
568.0	552.8
568.2	561.1
568.4	570.9
568.6	576.0
568.8	581.8
569.0	587.1
569.2	591.9
569.4	596.0
569.6	603.7
569.8	608.6
570.0	614.9
570.2	620.5
570.4	625.9
570.6	634.7
570.8	642.3
571.0	647.2
571.2	654.1
571.4	659.0
571.6	665.9
571.8	674.0
572.0	678.0
572.2	684.2
572.4	690.6
572.6	696.3
572.8	706.3
573.0	719.4
573.2	727.4
573.4	732.5
573.6	731.2
573.8	734.3
574.0	742.3
574.2	757.0
574.4	769.8
574.6	778.8
574.8	784.2
575.0	790.1
575.2	792.6
575.4	798.9
575.6	806.0
575.8	816.6
576.0	823.0
576.2	825.1
576.4	825.5
576.6	838.0
576.8	849.5
577.0	863.2
577.2	871.6
577.4	873.8
577.6	876.8
577.8	885.0
578.0	892.9
578.2	899.6
578.4	903.1
578.6	899.9
578.8	906.7
579.0	911.9
579.2	920.7
579.4	938.8
579.6	952.4
579.8	955.2
580.0	966.6
580.2	968.8
580.4	973.7
580.6	983.9
580.8	990.7
581.0	991.1
581.2	998.6
581.4	1000
581.6	1008
581.8	1013
582.0	1017
582.2	1022
582.4	1032
582.6	1039
582.8	1050
583.0	1059
583.2	1064
583.4	1071
583.6	1078
583.8	1083
584.0	1091
584.2	1097
584.4	1100
584.6	1102
584.8	1105
585.0	1104
585.2	1109
585.4	1118
585.6	1129
585.8	1142
586.0	1149
586.2	1155
586.4	1160
586.6	1169
586.8	1173
587.0	1172
587.2	1167
587.4	1173
587.6	1182
587.8	1195
588.0	1209
588.2	1216
588.4	1221
588.6	1223
588.8	1218
589.0	1217
589.2	1219
589.4	1223
589.6	1233
589.8	1239
590.0	1247
590.2	1256
590.4	1262
590.6	1269
590.8	1275
591.0	1276
591.2	1278
591.4	1275
591.6	1276
591.8	1283
592.0	1292
592.2	1305
592.4	1309
592.6	1311
592.8	1315
593.0	1319
593.2	1329
593.4	1335
593.6	1337
593.8	1338
594.0	1343
594.2	1347
594.4	1359
594.6	1362
594.8	1360
595.0	1353
595.2	1356
595.4	1361
595.6	1372
595.8	1376
596.0	1373
596.2	1365
596.4	1368
596.6	1373
596.8	1384
597.0	1394
597.2	1403
597.4	1406
597.6	1408
597.8	1404
598.0	1403
598.2	1405
598.4	1408
598.6	1411
598.8	1415
599.0	1420
599.2	1430
599.4	1435
599.6	1438
599.8	1442
600.0	1441
600.2	1437
600.4	1444
600.6	1446
600.8	1447
601.0	1454
601.2	1452
601.4	1448
601.6	1452
601.8	1453
602.0	1456
602.2	1460
602.4	1462
602.6	1471
602.8	1474
603.0	1475
603.2	1478
603.4	1473
603.6	1480
603.8	1485
604.0	1480
604.2	1480
604.4	1481
604.6	1477
604.8	1490
605.0	1488
605.2	1489
605.4	1486
605.6	1480
605.8	1477
606.0	1484
606.2	1485
606.4	1501
606.6	1502
606.8	1505
607.0	1505
607.2	1512
607.4	1513
607.6	1512
607.8	1509
608.0	1508
608.2	1504
608.4	1507
608.6	1505
608.8	1501
609.0	1506
609.2	1514
609.4	1522
609.6	1531
609.8	1531
610.0	1530
610.2	1522
610.4	1519
610.6	1515
610.8	1514
611.0	1518
611.2	1524
611.4	1525
611.6	1528
611.8	1522
612.0	1513
612.2	1516
612.4	1519
612.6	1523
612.8	1524
613.0	1526
613.2	1520
613.4	1523
613.6	1521
613.8	1519
614.0	1520
614.2	1531
614.4	1532
614.6	1535
614.8	1531
615.0	1524
615.2	1520
615.4	1520
615.6	1525
615.8	1536
616.0	1549
616.2	1543
616.4	1534
616.6	1518
616.8	1511
617.0	1514
617.2	1515
617.4	1519
617.6	1515
617.8	1516
618.0	1515
618.2	1521
618.4	1518
618.6	1518
618.8	1512
619.0	1515
619.2	1513
619.4	1516
619.6	1515
619.8	1511
620.0	1509
620.2	1515
620.4	1513
620.6	1518
620.8	1514
621.0	1509
621.2	1498
621.4	1489
621.6	1482
621.8	1485
622.0	1488
622.2	1496
622.4	1494
622.6	1481
622.8	1486
623.0	1485
623.2	1488
623.4	1490
623.6	1486
623.8	1478
624.0	1484
624.2	1485
624.4	1486
624.6	1482
624.8	1477
625.0	1476
625.2	1473
625.4	1469
625.6	1461
625.8	1462
626.0	1465
626.2	1471
626.4	1471
626.6	1464
626.8	1454
627.0	1448
627.2	1446
627.4	1438
627.6	1437
627.8	1431
628.0	1434
628.2	1431
628.4	1432
628.6	1426
628.8	1427
629.0	1418
629.2	1416
629.4	1414
629.6	1415
629.8	1418
630.0	1415
630.2	1407
630.4	1400
630.6	1399
630.8	1403
631.0	1408
631.2	1409
631.4	1403
631.6	1393
631.8	1383
632.0	1368
632.2	1362
632.4	1366
632.6	1367
632.8	1366
633.0	1364
633.2	1357
633.4	1358
633.6	1354
633.8	1351
634.0	1353
634.2	1346
634.4	1342
634.6	1338
634.8	1337
635.0	1340
635.2	1344
635.4	1340
635.6	1330
635.8	1319
636.0	1319
636.2	1315
636.4	1311
636.6	1311
636.8	1309
637.0	1305
637.2	1300
637.4	1292
637.6	1289
637.8	1283
638.0	1280
638.2	1277
638.4	1270
638.6	1265
638.8	1267
639.0	1269
639.2	1265
639.4	1264
639.6	1257
639.8	1254
640.0	1251
640.2	1251
640.4	1248
640.6	1243
640.8	1231
641.0	1226
641.2	1218
641.4	1210
641.6	1217
641.8	1220
642.0	1218
642.2	1214
642.4	1198
642.6	1186
642.8	1184
643.0	1184
643.2	1185
643.4	1182
643.6	1177
643.8	1178
644.0	1173
644.2	1169
644.4	1160
644.6	1149
644.8	1141
645.0	1141
645.2	1140
645.4	1141
645.6	1141
645.8	1136
646.0	1129
646.2	1127
646.4	1124
646.6	1121
646.8	1113
647.0	1106
647.2	1095
647.4	1098
647.6	1095
647.8	1093
648.0	1089
648.2	1086
648.4	1076
648.6	1076
648.8	1073
649.0	1068
649.2	1060
649.4	1052
649.6	1043
649.8	1039
650.0	1041
650.2	1045
650.4	1044
650.6	1041
650.8	1031
651.0	1024
651.2	1021
651.4	1025
651.6	1025
651.8	1016
652.0	1003
652.2	992.8
652.4	986.7
652.6	991.3
652.8	993.8
653.0	985.6
653.2	977.7
653.4	971.7
653.6	964.9
653.8	964.3
654.0	963.1
654.2	958.2
654.4	954.9
654.6	951.8
654.8	943.9
655.0	937.7
655.2	932.6
655.4	931.1
655.6	932.0
655.8	925.6
656.0	915.4
656.2	910.2
656.4	908.1
656.6	906.2
656.8	906.6
657.0	902.3
657.2	895.9
657.4	894.0
657.6	893.9
657.8	889.5
658.0	884.6
658.2	875.8
658.4	870.2
658.6	869.3
658.8	868.6
659.0	868.0
659.2	861.2
659.4	851.0
659.6	847.4
659.8	841.0
660.0	841.0
660.2	841.6
660.4	839.6
660.6	832.9
660.8	828.8
661.0	819.8
661.2	810.6
661.4	804.2
661.6	802.8
661.8	798.4
662.0	795.1
662.2	796.4
662.4	797.6
662.6	792.5
662.8	789.1
663.0	779.2
663.2	768.3
663.4	769.8
663.6	774.3
663.8	769.3
664.0	768.1
664.2	763.0
664.4	757.7
664.6	761.7
664.8	756.5
665.0	754.5
665.2	750.7
665.4	746.4
665.6	740.1
665.8	733.7
666.0	721.6
666.2	719.1
666.4	713.1
666.6	710.3
666.8	710.0
667.0	703.3
667.2	700.9
667.4	698.5
667.6	695.3
667.8	692.5
668.0	691.5
668.2	683.2
668.4	675.2
668.6	671.5
668.8	671.3
669.0	674.9
669.2	679.2
669.4	677.1
669.6	667.1
669.8	659.6
670.0	654.6
670.2	651.8
670.4	652.2
670.6	652.9
670.8	646.6
671.0	640.3
671.2	636.3
671.4	630.6
671.6	627.2
671.8	625.6
672.0	624.0
672.2	619.7
672.4	619.3
672.6	617.7
672.8	612.2
673.0	612.0
673.2	611.0
673.4	604.6
673.6	602.5
673.8	598.3
674.0	591.1
674.2	587.7
674.4	582.2
674.6	583.0
674.8	577.8
675.0	574.3
675.2	571.8
675.4	569.3
675.6	570.8
675.8	575.5
676.0	567.6
676.2	562.1
676.4	555.6
676.6	551.3
676.8	548.0
677.0	545.7
677.2	543.2
677.4	541.5
677.6	538.9
677.8	533.9
678.0	526.3
678.2	524.3
678.4	522.2
678.6	521.3
678.8	522.6
679.0	516.5
679.2	511.7
679.4	510.2
679.6	506.5
679.8	503.6
680.0	503.9
680.2	496.4
680.4	493.2
680.6	488.1
680.8	486.0
681.0	484.0
681.2	483.3
681.4	478.5
681.6	476.0
681.8	474.7
682.0	472.9
682.2	473.8
682.4	476.0
682.6	475.1
682.8	471.8
683.0	468.0
683.2	463.0
683.4	458.5
683.6	455.0
683.8	452.6
684.0	448.7
684.2	446.4
684.4	447.6
684.6	446.3
684.8	441.5
685.0	438.5
685.2	436.4
685.4	435.4
685.6	433.3
685.8	431.7
686.0	425.9
686.2	424.7
686.4	425.1
686.6	422.6
686.8	419.4
687.0	415.5
687.2	409.9
687.4	407.0
687.6	406.5
687.8	404.5
688.0	402.4
688.2	398.1
688.4	397.1
688.6	395.1
688.8	400.0
689.0	401.2
689.2	400.5
689.4	396.0
689.6	387.5
689.8	378.5
690.0	376.7
690.2	374.5
690.4	374.1
690.6	373.9
690.8	372.0
691.0	372.1
691.2	370.8
691.4	365.0
691.6	360.4
691.8	356.7
692.0	355.5
692.2	357.4
692.4	359.8
692.6	357.0
692.8	356.7
693.0	356.6
693.2	352.4
693.4	351.6
693.6	353.6
693.8	349.3
694.0	345.5
694.2	341.7
694.4	337.9
694.6	336.7
694.8	333.7
695.0	331.3
695.2	328.1
695.4	327.4
695.6	330.4
695.8	331.8
696.0	329.1
696.2	325.4
696.4	321.4
696.6	319.7
696.8	319.2
697.0	318.1
697.2	316.5
697.4	315.7
697.6	314.7
697.8	312.6
698.0	310.2
698.2	307.0
698.4	303.0
698.6	303.5
698.8	301.3
699.0	300.5
699.2	300.3
699.4	301.6
699.6	301.2
699.8	300.2
700.0	298.0
700.2	295.2
700.4	290.5
700.6	288.8
700.8	285.3
701.0	282.6
701.2	283.0
701.4	285.0
701.6	284.4
701.8	284.3
702.0	279.7
702.2	275.7
702.4	276.6
702.6	276.6
702.8	276.8
703.0	274.4
703.2	270.4
703.4	267.5
703.6	267.8
703.8	267.8
704.0	266.7
704.2	265.6
704.4	263.3
704.6	263.1
704.8	263.8
705.0	266.0
705.2	261.9
705.4	260.9
705.6	256.0
705.8	253.4
706.0	253.2
706.2	252.3
706.4	246.4
706.6	246.7
706.8	247.1
707.0	246.7
707.2	248.2
707.4	246.0
707.6	241.3
707.8	239.5
708.0	237.5
708.2	235.6
708.4	236.3
708.6	234.8
708.8	236.6
709.0	235.4
709.2	233.1
709.4	229.1
709.6	225.6
709.8	223.4
710.0	223.6
710.2	226.1
710.4	226.5
710.6	226.1
710.8	224.8
711.0	222.8
711.2	219.9
711.4	220.8
711.6	218.6
711.8	217.7
712.0	213.9
712.2	211.0
712.4	207.9
712.6	205.9
712.8	206.8
713.0	209.2
713.2	210.5
713.4	210.2
713.6	206.3
713.8	202.9
714.0	203.4
714.2	204.4
714.4	205.2
714.6	204.1
714.8	202.5
715.0	196.8
715.2	193.8
715.4	191.5
715.6	191.7
715.8	192.2
716.0	195.0
716.2	191.7
716.4	187.2
716.6	185.0
716.8	183.2
717.0	182.2
717.2	181.8
717.4	181.6
717.6	181.3
717.8	181.5
718.0	178.9
718.2	179.8
718.4	176.4
718.6	173.3
718.8	173.1
719.0	171.7
719.2	171.8
719.4	173.4
719.6	173.3
719.8	171.8
720.0	169.7
720.2	169.5
720.4	169.1
720.6	167.8
720.8	165.5
721.0	161.9
721.2	158.5
721.4	158.7
721.6	157.1
721.8	156.8
722.0	153.4
722.2	151.9
722.4	153.2
722.6	155.5
722.8	155.7
723.0	152.9
723.2	149.0
723.4	149.0
723.6	148.4
723.8	148.5
724.0	147.3
724.2	144.9
724.4	146.8
724.6	146.9
724.8	146.4
725.0	145.5
725.2	143.9
725.4	142.9
725.6	143.4
725.8	142.1
726.0	142.0
726.2	140.2
726.4	138.7
726.6	136.4
726.8	134.7
727.0	135.2
727.2	135.0
727.4	133.5
727.6	131.8
727.8	129.7
728.0	128.7
728.2	130.1
728.4	131.7
728.6	131.1
728.8	129.8
729.0	126.6
729.2	122.2
729.4	121.3
729.6	119.8
729.8	119.5
730.0	121.6
730.2	122.2
730.4	121.7
730.6	121.3
730.8	119.4
731.0	118.1
731.2	118.7
731.4	119.6
731.6	119.9
731.8	117.2
732.0	116.9
732.2	113.5
732.4	110.0
732.6	108.2
732.8	109.0
733.0	108.9
733.2	111.8
733.4	111.6
733.6	109.9
733.8	107.6
734.0	106.7
734.2	105.2
734.4	104.2
734.6	103.6
734.8	102.6
735.0	102.7
735.2	101.5
735.4	100.9
735.6	101.5
735.8	101.7
736.0	101.2
736.2	100.0
736.4	97.25
736.6	96.90
736.8	97.62
737.0	98.45
737.2	98.51
737.4	97.56
737.6	94.74
737.8	94.23
738.0	93.18
738.2	92.21
738.4	91.07
738.6	91.18
738.8	89.24
739.0	90.91
739.2	91.09
739.4	90.01
739.6	87.49
739.8	87.02
740.0	85.88
740.2	86.28
740.4	86.14
740.6	84.46
740.8	81.26
741.0	82.16
741.2	82.94
741.4	83.22
741.6	82.95
741.8	81.28
742.0	80.21
742.2	80.38
742.4	80.54
742.6	79.87
742.8	78.03
743.0	76.62
743.2	77.05
743.4	76.27
743.6	76.45
743.8	76.38
744.0	77.46
744.2	77.72
744.4	79.15
744.6	78.46
744.8	77.60
745.0	75.65
745.2	74.36
745.4	71.95
745.6	70.92
745.8	71.83
746.0	70.75
746.2	69.90
746.4	69.59
746.6	69.54
746.8	70.07
747.0	72.13
747.2	70.49
747.4	69.90
747.6	68.10
747.8	66.66
748.0	66.96
748.2	66.53
748.4	65.98
748.6	65.30
748.8	65.71
749.0	65.19
749.2	65.23
749.4	63.97
749.6	62.33
749.8	59.91
750.0	60.62
750.2	61.25
750.4	63.42
750.6	64.39
750.8	64.03
751.0	63.14
751.2	61.10
751.4	59.35
751.6	59.49
751.8	59.14
752.0	59.94
752.2	61.69
752.4	60.68
752.6	59.53
752.8	58.29
753.0	57.65
753.2	57.78
753.4	58.24
753.6	57.14
753.8	56.16
754.0	54.06
754.2	53.06
754.4	52.88
754.6	52.66
754.8	53.65
755.0	53.68
755.2	54.08
755.4	55.60
755.6	55.65
755.8	54.15
756.0	54.91
756.2	53.21
756.4	52.11
756.6	52.32
756.8	50.39
757.0	48.62
757.2	48.52
757.4	47.05
757.6	47.38
757.8	48.15
758.0	49.20
758.2	50.65
758.4	50.39
758.6	49.23
758.8	48.32
759.0	47.65
759.2	47.96
759.4	46.57
759.6	45.36
759.8	44.96
760.0	44.04
760.2	44.84
760.4	44.88
760.6	43.45
760.8	44.02
761.0	44.35
761.2	45.30
761.4	45.62
761.6	45.09
761.8	43.88
762.0	43.14
762.2	41.20
762.4	40.89
762.6	40.98
762.8	41.36
763.0	41.50
763.2	41.81
763.4	40.88
763.6	40.88
763.8	40.79
764.0	41.07
764.2	40.76
764.4	39.64
764.6	38.62
764.8	39.44
765.0	39.69
765.2	40.75
765.4	40.65
765.6	39.59
765.8	38.69
766.0	38.42
766.2	38.27
766.4	37.78
766.6	37.00
766.8	36.20
767.0	36.42
767.2	36.72
767.4	36.78
767.6	36.13
767.8	35.93
768.0	35.00
768.2	35.35
768.4	36.00
768.6	35.78
768.8	35.67
769.0	35.01
769.2	33.65
769.4	33.03
769.6	34.02
769.8	34.39
770.0	33.59
770.2	32.85
770.4	31.40
770.6	30.76
770.8	31.47
771.0	31.76
771.2	31.34
771.4	32.06
771.6	31.40
771.8	31.86
772.0	31.96
772.2	32.24
772.4	31.70
772.6	31.81
772.8	30.64
773.0	30.55
773.2	29.67
773.4	29.35
773.6	28.67
773.8	30.15
774.0	31.02
774.2	32.23
774.4	31.79
774.6	30.36
774.8	29.05
775.0	27.86
775.2	27.61
775.4	28.08
775.6	28.67
775.8	28.58
776.0	28.04
776.2	25.96
776.4	26.04
776.6	26.29
776.8	27.10
777.0	26.92
777.2	25.63
777.4	24.06
777.6	24.43
777.8	24.95
778.0	25.93
778.2	26.27
778.4	26.62
778.6	26.20
778.8	25.91
779.0	24.88
779.2	24.48
779.4	24.62
779.6	24.84
779.8	25.04
780.0	25.59
780.2	25.27
780.4	25.87
780.6	26.12
780.8	25.16
781.0	24.59
781.2	24.66
781.4	24.30
781.6	24.49
781.8	24.15
782.0	23.40
782.2	23.68
782.4	23.76
782.6	23.27
782.8	23.27
783.0	23.47
783.2	23.20
783.4	23.73
783.6	22.87
783.8	22.41
784.0	22.01
784.2	21.58
784.4	21.50
784.6	22.46
784.8	22.68
785.0	24.10
785.2	23.91
785.4	23.40
785.6	23.21
785.8	23.81
786.0	23.24
786.2	23.48
786.4	22.59
786.6	21.92
786.8	21.26
787.0	21.16
787.2	20.72
787.4	21.37
787.6	21.49
787.8	21.17
788.0	20.71
788.2	20.15
788.4	20.71
788.6	21.20
788.8	21.06
789.0	20.63
789.2	20.17
789.4	19.69
789.6	19.44
789.8	19.11
790.0	19.55
790.2	19.42
790.4	20.29
790.6	20.80
790.8	20.18
791.0	20.30
791.2	20.50
791.4	19.39
791.6	19.67
791.8	19.68
792.0	19.06
792.2	19.32
792.4	19.79
792.6	20.00
792.8	20.91
793.0	21.07
793.2	20.19
793.4	19.36
793.6	18.52
793.8	17.72
794.0	18.26
794.2	18.33
794.4	19.35
794.6	19.59
794.8	19.28
795.0	18.78
795.2	18.16
795.4	17.02
795.6	18.25
795.8	18.46
796.0	18.76
796.2	19.40
796.4	18.59
796.6	17.82
796.8	17.10
797.0	16.61
797.2	17.25
797.4	18.02
797.6	18.71
797.8	19.44
798.0	18.26
798.2	17.76
798.4	17.50
798.6	16.72
798.8	17.13
799.0	16.99
799.2	16.90
799.4	17.10
799.6	17.20
799.8	17.02
800.0	16.37

