Sample:	'20211010A(EM)
File name:	R-CDs 6 600.FDS
Run date:	'16:41:19, 06/09/2023
Operator:	Administrator
Comment:	'

Instrument
Model:	F-4700 FL Spectrophotometer
Serial number:	2019-001
ROM Version:	5J24010 00

Instrument parameters
Measurement type:	Wavelength scan
Scan mode:	Emission
Data mode:	Fluorescence
EX WL:	520.0 nm
EM  Start WL:	540.0 nm
EM  End WL:	800.0 nm
Scan speed:	1200 nm/min
Delay:	0.0 s
EX Slit:	10.0 nm
EM Slit:	10.0 nm
PMT Voltage:	604 V
Response:	0.002 s
Corrected spectra:	Off
Shutter control:	On

Processing performed
Savitsky-Golay smoothed
Smoothing order:	3
Number of points:	7
Number of times:	1

Peak integration
Integration method:	Rectangular
Sensitivity:	1
Threshold:	1.000

Peaks
No.	Start(nm)	Apex(nm)	End(nm)	Height(Data)	Valley(nm)	Valley(Data)
1	540.0	608.0	608.8	1350	608.8	1335
2	608.8	610.4	611.2	1364	611.2	1343
3	611.2	611.8	612.8	1353	612.8	1347
4	612.8	613.6	750.6	1360	750.6	51.42
5	750.6	751.6	752.6	53.62	752.6	49.07
6	752.6	753.2	762.2	51.25	762.2	35.80
7	762.2	762.8	772.6	38.79	772.6	26.18
8	772.6	773.2	777.4	27.47	777.4	21.77
9	777.4	778.2	780.0	24.49	780.0	20.70
10	780.0	780.6	783.8	23.74	783.8	18.96
11	783.8	784.4	788.6	22.33	788.6	17.49
12	788.6	789.2	791.8	19.00	791.8	15.47
13	791.8	793.4	796.6	16.87	796.6	15.30
14	796.6	797.2	800.0	17.11	800.0	15.88

Data points
nm	Data
540.0	173.6
540.2	173.5
540.4	171.4
540.6	168.6
540.8	167.5
541.0	165.9
541.2	166.3
541.4	167.8
541.6	171.0
541.8	170.4
542.0	171.7
542.2	171.3
542.4	170.3
542.6	170.4
542.8	170.8
543.0	171.5
543.2	174.5
543.4	177.8
543.6	180.0
543.8	181.5
544.0	181.4
544.2	183.1
544.4	183.8
544.6	185.6
544.8	185.1
545.0	183.4
545.2	185.1
545.4	188.2
545.6	187.1
545.8	188.3
546.0	187.4
546.2	187.5
546.4	188.5
546.6	191.6
546.8	192.1
547.0	197.9
547.2	200.7
547.4	202.3
547.6	200.0
547.8	199.3
548.0	198.5
548.2	199.8
548.4	202.2
548.6	205.9
548.8	211.6
549.0	215.6
549.2	218.1
549.4	217.0
549.6	217.6
549.8	217.8
550.0	220.0
550.2	222.7
550.4	222.8
550.6	225.5
550.8	227.5
551.0	228.0
551.2	228.7
551.4	230.5
551.6	232.5
551.8	239.0
552.0	241.1
552.2	241.7
552.4	242.4
552.6	243.0
552.8	245.2
553.0	248.0
553.2	248.0
553.4	250.6
553.6	252.8
553.8	259.4
554.0	264.0
554.2	266.5
554.4	264.7
554.6	263.6
554.8	264.0
555.0	267.8
555.2	272.5
555.4	275.7
555.6	278.2
555.8	280.6
556.0	286.9
556.2	289.6
556.4	292.0
556.6	292.2
556.8	292.2
557.0	293.3
557.2	296.2
557.4	298.0
557.6	299.2
557.8	305.2
558.0	311.4
558.2	317.9
558.4	318.1
558.6	316.5
558.8	316.0
559.0	322.8
559.2	330.7
559.4	334.6
559.6	335.0
559.8	332.9
560.0	335.1
560.2	339.5
560.4	344.9
560.6	347.5
560.8	350.5
561.0	349.2
561.2	351.8
561.4	355.8
561.6	365.2
561.8	372.3
562.0	374.9
562.2	379.0
562.4	379.2
562.6	379.8
562.8	382.1
563.0	387.7
563.2	391.1
563.4	398.0
563.6	404.2
563.8	409.6
564.0	412.5
564.2	417.9
564.4	422.2
564.6	424.1
564.8	430.9
565.0	437.7
565.2	439.0
565.4	441.3
565.6	445.8
565.8	447.2
566.0	451.8
566.2	461.5
566.4	465.8
566.6	473.9
566.8	479.0
567.0	480.1
567.2	481.5
567.4	485.3
567.6	491.5
567.8	499.0
568.0	503.5
568.2	506.7
568.4	512.2
568.6	511.0
568.8	517.2
569.0	524.6
569.2	528.8
569.4	533.2
569.6	538.2
569.8	539.2
570.0	545.1
570.2	554.7
570.4	561.6
570.6	572.8
570.8	579.7
571.0	587.2
571.2	589.1
571.4	593.0
571.6	597.7
571.8	605.7
572.0	609.1
572.2	615.1
572.4	621.0
572.6	628.7
572.8	636.1
573.0	641.4
573.2	647.0
573.4	650.0
573.6	654.1
573.8	660.9
574.0	665.0
574.2	667.2
574.4	677.6
574.6	685.3
574.8	692.6
575.0	703.1
575.2	706.3
575.4	709.2
575.6	715.2
575.8	726.5
576.0	739.8
576.2	748.3
576.4	751.3
576.6	756.6
576.8	761.3
577.0	770.6
577.2	774.7
577.4	779.9
577.6	784.7
577.8	789.6
578.0	796.7
578.2	803.5
578.4	803.7
578.6	809.9
578.8	817.6
579.0	821.2
579.2	829.0
579.4	836.9
579.6	842.3
579.8	846.2
580.0	849.2
580.2	852.0
580.4	859.1
580.6	869.2
580.8	875.5
581.0	881.1
581.2	884.1
581.4	890.8
581.6	897.0
581.8	906.7
582.0	913.0
582.2	921.0
582.4	926.4
582.6	930.4
582.8	932.7
583.0	936.4
583.2	938.8
583.4	945.9
583.6	954.0
583.8	965.0
584.0	971.5
584.2	976.9
584.4	979.5
584.6	987.0
584.8	991.4
585.0	996.5
585.2	1003
585.4	1011
585.6	1017
585.8	1021
586.0	1024
586.2	1029
586.4	1042
586.6	1048
586.8	1049
587.0	1047
587.2	1052
587.4	1056
587.6	1063
587.8	1064
588.0	1069
588.2	1071
588.4	1076
588.6	1080
588.8	1082
589.0	1085
589.2	1095
589.4	1102
589.6	1103
589.8	1108
590.0	1109
590.2	1109
590.4	1114
590.6	1124
590.8	1126
591.0	1134
591.2	1142
591.4	1146
591.6	1148
591.8	1152
592.0	1151
592.2	1152
592.4	1159
592.6	1165
592.8	1173
593.0	1178
593.2	1178
593.4	1175
593.6	1173
593.8	1168
594.0	1178
594.2	1186
594.4	1194
594.6	1197
594.8	1203
595.0	1205
595.2	1215
595.4	1216
595.6	1219
595.8	1219
596.0	1223
596.2	1227
596.4	1234
596.6	1235
596.8	1241
597.0	1242
597.2	1244
597.4	1240
597.6	1243
597.8	1245
598.0	1249
598.2	1251
598.4	1261
598.6	1266
598.8	1273
599.0	1268
599.2	1261
599.4	1255
599.6	1257
599.8	1263
600.0	1275
600.2	1276
600.4	1276
600.6	1281
600.8	1283
601.0	1282
601.2	1280
601.4	1285
601.6	1288
601.8	1291
602.0	1293
602.2	1293
602.4	1288
602.6	1298
602.8	1297
603.0	1296
603.2	1299
603.4	1303
603.6	1308
603.8	1317
604.0	1311
604.2	1312
604.4	1315
604.6	1317
604.8	1320
605.0	1322
605.2	1322
605.4	1323
605.6	1324
605.8	1322
606.0	1320
606.2	1318
606.4	1324
606.6	1332
606.8	1330
607.0	1329
607.2	1331
607.4	1328
607.6	1332
607.8	1345
608.0	1350
608.2	1347
608.4	1345
608.6	1341
608.8	1335
609.0	1343
609.2	1347
609.4	1341
609.6	1344
609.8	1349
610.0	1353
610.2	1361
610.4	1364
610.6	1354
610.8	1345
611.0	1344
611.2	1343
611.4	1350
611.6	1352
611.8	1353
612.0	1352
612.2	1353
612.4	1353
612.6	1349
612.8	1347
613.0	1352
613.2	1354
613.4	1356
613.6	1360
613.8	1358
614.0	1358
614.2	1358
614.4	1356
614.6	1349
614.8	1351
615.0	1352
615.2	1348
615.4	1355
615.6	1354
615.8	1350
616.0	1354
616.2	1350
616.4	1350
616.6	1350
616.8	1350
617.0	1349
617.2	1351
617.4	1351
617.6	1351
617.8	1346
618.0	1345
618.2	1344
618.4	1346
618.6	1352
618.8	1347
619.0	1340
619.2	1333
619.4	1332
619.6	1333
619.8	1340
620.0	1339
620.2	1335
620.4	1332
620.6	1331
620.8	1332
621.0	1333
621.2	1330
621.4	1325
621.6	1325
621.8	1325
622.0	1318
622.2	1318
622.4	1318
622.6	1319
622.8	1321
623.0	1324
623.2	1313
623.4	1312
623.6	1312
623.8	1306
624.0	1305
624.2	1310
624.4	1308
624.6	1308
624.8	1309
625.0	1301
625.2	1304
625.4	1299
625.6	1293
625.8	1295
626.0	1291
626.2	1290
626.4	1296
626.6	1287
626.8	1286
627.0	1292
627.2	1289
627.4	1291
627.6	1284
627.8	1276
628.0	1264
628.2	1261
628.4	1260
628.6	1259
628.8	1260
629.0	1263
629.2	1262
629.4	1263
629.6	1261
629.8	1253
630.0	1249
630.2	1242
630.4	1240
630.6	1236
630.8	1234
631.0	1231
631.2	1223
631.4	1219
631.6	1220
631.8	1222
632.0	1226
632.2	1224
632.4	1218
632.6	1213
632.8	1214
633.0	1212
633.2	1211
633.4	1205
633.6	1204
633.8	1202
634.0	1199
634.2	1197
634.4	1191
634.6	1188
634.8	1187
635.0	1191
635.2	1184
635.4	1177
635.6	1174
635.8	1175
636.0	1173
636.2	1175
636.4	1178
636.6	1171
636.8	1169
637.0	1163
637.2	1161
637.4	1155
637.6	1152
637.8	1144
638.0	1139
638.2	1131
638.4	1131
638.6	1126
638.8	1124
639.0	1122
639.2	1122
639.4	1121
639.6	1116
639.8	1112
640.0	1110
640.2	1105
640.4	1107
640.6	1104
640.8	1097
641.0	1089
641.2	1083
641.4	1081
641.6	1079
641.8	1074
642.0	1067
642.2	1063
642.4	1058
642.6	1052
642.8	1048
643.0	1045
643.2	1044
643.4	1046
643.6	1036
643.8	1027
644.0	1029
644.2	1023
644.4	1022
644.6	1023
644.8	1018
645.0	1010
645.2	1009
645.4	1004
645.6	996.8
645.8	995.0
646.0	996.9
646.2	996.3
646.4	999.9
646.6	1002
646.8	992.5
647.0	982.0
647.2	975.1
647.4	971.4
647.6	972.3
647.8	973.3
648.0	963.2
648.2	954.2
648.4	950.5
648.6	944.5
648.8	943.2
649.0	941.1
649.2	938.3
649.4	938.5
649.6	940.1
649.8	933.6
650.0	926.9
650.2	921.3
650.4	917.1
650.6	913.9
650.8	911.8
651.0	910.6
651.2	909.2
651.4	906.7
651.6	901.5
651.8	897.1
652.0	891.0
652.2	889.7
652.4	885.3
652.6	879.8
652.8	874.5
653.0	865.7
653.2	861.9
653.4	856.9
653.6	854.6
653.8	851.5
654.0	849.5
654.2	846.1
654.4	844.2
654.6	836.6
654.8	835.5
655.0	826.0
655.2	820.4
655.4	819.6
655.6	815.8
655.8	815.0
656.0	816.6
656.2	811.0
656.4	806.4
656.6	801.8
656.8	793.3
657.0	789.3
657.2	786.9
657.4	785.9
657.6	785.3
657.8	784.0
658.0	777.7
658.2	777.8
658.4	775.7
658.6	768.9
658.8	762.0
659.0	758.1
659.2	751.2
659.4	754.2
659.6	757.2
659.8	752.4
660.0	752.5
660.2	747.4
660.4	738.1
660.6	730.5
660.8	728.2
661.0	723.1
661.2	723.1
661.4	719.1
661.6	718.3
661.8	712.6
662.0	712.1
662.2	710.7
662.4	700.8
662.6	696.4
662.8	694.9
663.0	689.6
663.2	688.8
663.4	690.4
663.6	679.6
663.8	677.3
664.0	678.8
664.2	674.0
664.4	674.0
664.6	672.7
664.8	665.2
665.0	658.3
665.2	656.7
665.4	651.9
665.6	649.5
665.8	645.6
666.0	643.0
666.2	637.2
666.4	633.1
666.6	631.2
666.8	630.2
667.0	631.3
667.2	631.7
667.4	626.1
667.6	616.8
667.8	608.8
668.0	607.2
668.2	607.4
668.4	607.1
668.6	606.6
668.8	605.8
669.0	604.9
669.2	600.7
669.4	593.9
669.6	586.9
669.8	584.4
670.0	581.6
670.2	581.3
670.4	573.2
670.6	570.8
670.8	567.6
671.0	565.8
671.2	560.6
671.4	556.3
671.6	550.0
671.8	548.9
672.0	546.0
672.2	547.1
672.4	545.9
672.6	545.4
672.8	546.7
673.0	543.2
673.2	537.6
673.4	537.7
673.6	530.3
673.8	524.0
674.0	520.1
674.2	512.2
674.4	510.1
674.6	511.5
674.8	509.3
675.0	510.8
675.2	509.0
675.4	505.2
675.6	505.0
675.8	499.0
676.0	494.1
676.2	492.9
676.4	490.1
676.6	488.0
676.8	484.5
677.0	478.7
677.2	476.3
677.4	473.1
677.6	473.4
677.8	472.1
678.0	469.7
678.2	468.0
678.4	467.7
678.6	461.3
678.8	457.7
679.0	454.5
679.2	455.6
679.4	455.5
679.6	453.2
679.8	448.8
680.0	444.4
680.2	442.0
680.4	440.5
680.6	442.1
680.8	440.7
681.0	434.6
681.2	431.3
681.4	430.8
681.6	427.9
681.8	432.0
682.0	431.2
682.2	424.2
682.4	420.5
682.6	416.5
682.8	410.4
683.0	405.3
683.2	400.5
683.4	397.8
683.6	399.3
683.8	400.8
684.0	399.3
684.2	396.9
684.4	393.6
684.6	389.9
684.8	387.5
685.0	383.9
685.2	380.9
685.4	379.6
685.6	380.5
685.8	378.4
686.0	374.8
686.2	371.9
686.4	371.7
686.6	368.7
686.8	368.0
687.0	366.2
687.2	363.2
687.4	361.6
687.6	361.3
687.8	356.8
688.0	352.3
688.2	350.3
688.4	350.3
688.6	350.2
688.8	349.2
689.0	347.6
689.2	346.5
689.4	346.5
689.6	345.5
689.8	343.2
690.0	339.9
690.2	333.4
690.4	326.8
690.6	324.4
690.8	322.5
691.0	326.7
691.2	332.6
691.4	330.5
691.6	324.5
691.8	318.6
692.0	313.8
692.2	312.1
692.4	314.0
692.6	313.5
692.8	311.0
693.0	310.2
693.2	308.3
693.4	306.3
693.6	307.3
693.8	305.7
694.0	304.2
694.2	303.3
694.4	300.1
694.6	297.0
694.8	296.5
695.0	298.7
695.2	299.1
695.4	297.8
695.6	292.3
695.8	288.9
696.0	286.0
696.2	286.8
696.4	286.0
696.6	285.5
696.8	280.3
697.0	279.7
697.2	280.1
697.4	281.4
697.6	282.1
697.8	279.0
698.0	275.9
698.2	274.3
698.4	275.0
698.6	276.1
698.8	273.4
699.0	271.2
699.2	269.3
699.4	266.4
699.6	265.1
699.8	264.0
700.0	263.7
700.2	265.8
700.4	265.6
700.6	263.6
700.8	261.1
701.0	255.9
701.2	253.0
701.4	248.5
701.6	248.1
701.8	246.3
702.0	244.1
702.2	242.0
702.4	241.4
702.6	238.2
702.8	242.0
703.0	243.7
703.2	240.5
703.4	238.8
703.6	237.5
703.8	233.7
704.0	233.6
704.2	233.9
704.4	229.0
704.6	229.5
704.8	232.4
705.0	231.1
705.2	230.7
705.4	227.0
705.6	221.8
705.8	219.6
706.0	221.0
706.2	218.6
706.4	221.7
706.6	222.0
706.8	223.3
707.0	220.8
707.2	218.9
707.4	213.2
707.6	213.6
707.8	213.5
708.0	214.2
708.2	211.9
708.4	207.9
708.6	203.8
708.8	204.7
709.0	203.9
709.2	205.7
709.4	204.4
709.6	202.5
709.8	200.4
710.0	201.5
710.2	200.6
710.4	199.5
710.6	195.0
710.8	194.6
711.0	193.1
711.2	193.5
711.4	194.4
711.6	193.0
711.8	188.8
712.0	188.1
712.2	184.6
712.4	182.7
712.6	184.1
712.8	181.7
713.0	179.5
713.2	180.5
713.4	179.2
713.6	179.8
713.8	179.6
714.0	176.2
714.2	176.6
714.4	176.2
714.6	176.2
714.8	175.6
715.0	173.0
715.2	171.5
715.4	170.8
715.6	169.3
715.8	168.5
716.0	167.6
716.2	164.9
716.4	162.9
716.6	162.5
716.8	162.7
717.0	162.9
717.2	163.8
717.4	160.5
717.6	157.5
717.8	157.3
718.0	156.5
718.2	157.5
718.4	157.4
718.6	154.4
718.8	151.7
719.0	149.2
719.2	148.6
719.4	147.7
719.6	148.2
719.8	148.1
720.0	147.7
720.2	145.9
720.4	147.3
720.6	145.2
720.8	144.3
721.0	142.6
721.2	141.2
721.4	139.5
721.6	141.4
721.8	142.1
722.0	140.9
722.2	139.3
722.4	138.0
722.6	134.4
722.8	132.7
723.0	133.6
723.2	132.8
723.4	132.2
723.6	133.4
723.8	130.8
724.0	131.1
724.2	132.4
724.4	131.5
724.6	129.5
724.8	127.5
725.0	123.7
725.2	123.3
725.4	124.4
725.6	123.6
725.8	124.3
726.0	123.0
726.2	121.1
726.4	120.5
726.6	119.9
726.8	117.4
727.0	117.6
727.2	115.8
727.4	115.2
727.6	115.9
727.8	116.8
728.0	115.4
728.2	115.0
728.4	113.7
728.6	110.8
728.8	111.4
729.0	111.1
729.2	109.4
729.4	108.5
729.6	107.8
729.8	106.1
730.0	108.1
730.2	106.1
730.4	104.2
730.6	103.1
730.8	101.5
731.0	102.6
731.2	103.7
731.4	101.9
731.6	100.8
731.8	99.77
732.0	98.00
732.2	98.22
732.4	98.06
732.6	96.11
732.8	95.64
733.0	95.26
733.2	95.24
733.4	94.20
733.6	94.93
733.8	91.99
734.0	91.62
734.2	91.50
734.4	92.36
734.6	91.56
734.8	91.83
735.0	89.70
735.2	89.91
735.4	89.80
735.6	87.97
735.8	87.60
736.0	86.42
736.2	85.19
736.4	85.52
736.6	86.60
736.8	85.38
737.0	84.77
737.2	84.66
737.4	83.61
737.6	82.29
737.8	83.00
738.0	83.10
738.2	79.11
738.4	78.64
738.6	78.33
738.8	78.13
739.0	79.29
739.2	80.26
739.4	77.72
739.6	76.58
739.8	76.54
740.0	75.25
740.2	75.09
740.4	75.21
740.6	73.93
740.8	73.07
741.0	73.82
741.2	72.59
741.4	71.89
741.6	72.58
741.8	71.98
742.0	71.94
742.2	72.88
742.4	71.95
742.6	69.76
742.8	68.58
743.0	67.67
743.2	68.11
743.4	68.47
743.6	68.81
743.8	67.38
744.0	65.96
744.2	65.78
744.4	66.57
744.6	65.86
744.8	64.23
745.0	63.59
745.2	63.87
745.4	63.17
745.6	64.44
745.8	63.54
746.0	61.94
746.2	63.59
746.4	64.06
746.6	63.04
746.8	63.07
747.0	60.91
747.2	58.33
747.4	58.17
747.6	57.84
747.8	58.50
748.0	59.63
748.2	60.25
748.4	59.10
748.6	57.65
748.8	56.12
749.0	54.95
749.2	55.60
749.4	56.61
749.6	56.52
749.8	55.69
750.0	54.20
750.2	52.30
750.4	51.92
750.6	51.42
750.8	52.27
751.0	52.90
751.2	53.52
751.4	53.11
751.6	53.62
751.8	52.77
752.0	51.96
752.2	50.70
752.4	49.67
752.6	49.07
752.8	50.27
753.0	51.22
753.2	51.25
753.4	51.22
753.6	50.25
753.8	49.74
754.0	48.14
754.2	47.58
754.4	47.00
754.6	46.98
754.8	46.56
755.0	46.83
755.2	46.51
755.4	46.38
755.6	46.67
755.8	47.12
756.0	47.32
756.2	46.44
756.4	45.17
756.6	43.96
756.8	44.57
757.0	45.52
757.2	46.09
757.4	44.44
757.6	43.25
757.8	41.52
758.0	41.94
758.2	42.28
758.4	41.51
758.6	40.71
758.8	41.41
759.0	41.25
759.2	41.94
759.4	42.13
759.6	43.11
759.8	41.67
760.0	40.97
760.2	39.27
760.4	38.04
760.6	37.39
760.8	38.56
761.0	37.91
761.2	38.85
761.4	37.76
761.6	37.17
761.8	35.97
762.0	35.80
762.2	35.80
762.4	36.88
762.6	38.25
762.8	38.79
763.0	37.78
763.2	37.22
763.4	35.66
763.6	34.48
763.8	35.78
764.0	35.99
764.2	35.99
764.4	37.06
764.6	36.49
764.8	34.97
765.0	33.93
765.2	33.36
765.4	32.91
765.6	33.83
765.8	34.10
766.0	33.73
766.2	32.77
766.4	32.80
766.6	32.75
766.8	32.60
767.0	32.64
767.2	33.17
767.4	32.81
767.6	32.55
767.8	32.60
768.0	31.99
768.2	31.08
768.4	30.76
768.6	30.40
768.8	30.50
769.0	31.03
769.2	31.81
769.4	31.70
769.6	30.92
769.8	30.31
770.0	29.25
770.2	28.44
770.4	28.10
770.6	27.89
770.8	27.74
771.0	27.91
771.2	28.03
771.4	27.66
771.6	27.11
771.8	27.03
772.0	27.13
772.2	26.72
772.4	26.78
772.6	26.18
772.8	26.40
773.0	26.92
773.2	27.47
773.4	26.85
773.6	27.24
773.8	26.72
774.0	26.08
774.2	25.71
774.4	25.44
774.6	24.52
774.8	24.38
775.0	24.07
775.2	23.90
775.4	24.76
775.6	25.09
775.8	24.67
776.0	23.46
776.2	22.94
776.4	23.30
776.6	23.84
776.8	23.95
777.0	24.05
777.2	22.48
777.4	21.77
777.6	21.92
777.8	22.64
778.0	23.92
778.2	24.49
778.4	23.77
778.6	23.09
778.8	22.81
779.0	22.80
779.2	22.93
779.4	22.80
779.6	21.76
779.8	20.80
780.0	20.70
780.2	21.67
780.4	23.06
780.6	23.74
780.8	23.46
781.0	22.27
781.2	21.66
781.4	21.73
781.6	20.90
781.8	20.67
782.0	20.87
782.2	20.20
782.4	20.59
782.6	20.23
782.8	19.15
783.0	19.64
783.2	19.90
783.4	19.16
783.6	19.06
783.8	18.96
784.0	20.00
784.2	21.62
784.4	22.33
784.6	20.99
784.8	19.65
785.0	19.14
785.2	18.89
785.4	18.80
785.6	19.20
785.8	18.98
786.0	18.79
786.2	19.26
786.4	18.99
786.6	18.67
786.8	19.16
787.0	19.09
787.2	19.21
787.4	19.14
787.6	18.89
787.8	18.94
788.0	17.98
788.2	17.71
788.4	17.63
788.6	17.49
788.8	18.19
789.0	18.91
789.2	19.00
789.4	18.64
789.6	17.73
789.8	16.88
790.0	16.93
790.2	17.37
790.4	18.26
790.6	17.98
790.8	17.94
791.0	17.34
791.2	16.85
791.4	16.43
791.6	16.18
791.8	15.47
792.0	15.94
792.2	16.55
792.4	16.86
792.6	16.80
792.8	16.60
793.0	16.13
793.2	16.85
793.4	16.87
793.6	16.69
793.8	16.49
794.0	16.20
794.2	15.93
794.4	16.36
794.6	16.18
794.8	16.41
795.0	16.23
795.2	16.38
795.4	16.35
795.6	16.21
795.8	16.47
796.0	16.83
796.2	15.86
796.4	15.43
796.6	15.30
796.8	15.70
797.0	16.22
797.2	17.11
797.4	16.80
797.6	16.20
797.8	15.28
798.0	15.14
798.2	15.11
798.4	15.80
798.6	15.67
798.8	15.59
799.0	15.38
799.2	14.94
799.4	14.98
799.6	14.73
799.8	14.91
800.0	15.88

