Sample:	'20211010A(EM)
File name:	R-CDs 1 100.FDS
Run date:	'16:21:32, 06/09/2023
Operator:	Administrator
Comment:	'

Instrument
Model:	F-4700 FL Spectrophotometer
Serial number:	2019-001
ROM Version:	5J24010 00

Instrument parameters
Measurement type:	Wavelength scan
Scan mode:	Emission
Data mode:	Fluorescence
EX WL:	520.0 nm
EM  Start WL:	540.0 nm
EM  End WL:	800.0 nm
Scan speed:	1200 nm/min
Delay:	0.0 s
EX Slit:	10.0 nm
EM Slit:	10.0 nm
PMT Voltage:	615 V
Response:	0.002 s
Corrected spectra:	Off
Shutter control:	On

Processing performed
Savitsky-Golay smoothed
Smoothing order:	3
Number of points:	7
Number of times:	1

Peak integration
Integration method:	Rectangular
Sensitivity:	1
Threshold:	1.000

Peaks
No.	Start(nm)	Apex(nm)	End(nm)	Height(Data)	Valley(nm)	Valley(Data)
1	540.0	603.2	604.0	2053	604.0	2035
2	604.0	606.6	608.0	2062	608.0	2039
3	608.0	609.0	616.4	2065	616.4	1993
4	616.4	617.0	736.6	2011	736.6	106.7
5	736.6	737.4	743.8	111.2	743.8	84.39
6	743.8	744.6	769.6	87.79	769.6	34.92
7	769.6	770.4	778.4	37.89	778.4	26.57
8	778.4	779.8	783.2	29.37	783.2	23.56
9	783.2	784.4	785.4	26.12	785.4	21.01
10	785.4	786.2	786.8	24.11	786.8	21.79
11	786.8	787.8	794.8	23.34	794.8	18.22
12	794.8	797.2	800.0	19.74	800.0	15.80

Data points
nm	Data
540.0	211.1
540.2	206.0
540.4	204.5
540.6	205.2
540.8	204.9
541.0	205.1
541.2	206.7
541.4	207.2
541.6	208.7
541.8	213.5
542.0	214.5
542.2	216.6
542.4	219.1
542.6	221.3
542.8	222.0
543.0	223.4
543.2	225.4
543.4	232.3
543.6	236.8
543.8	238.6
544.0	237.1
544.2	233.9
544.4	233.8
544.6	237.3
544.8	241.1
545.0	246.7
545.2	248.2
545.4	251.9
545.6	252.7
545.8	252.9
546.0	255.5
546.2	258.9
546.4	258.0
546.6	261.8
546.8	263.9
547.0	264.6
547.2	266.9
547.4	268.4
547.6	268.7
547.8	273.2
548.0	276.1
548.2	275.6
548.4	279.6
548.6	280.8
548.8	281.9
549.0	284.1
549.2	283.7
549.4	284.0
549.6	291.0
549.8	296.5
550.0	299.7
550.2	303.5
550.4	305.1
550.6	304.4
550.8	309.5
551.0	314.2
551.2	316.9
551.4	320.2
551.6	322.1
551.8	322.6
552.0	326.3
552.2	330.9
552.4	333.3
552.6	336.8
552.8	339.0
553.0	343.0
553.2	344.8
553.4	349.6
553.6	349.3
553.8	350.2
554.0	351.9
554.2	355.1
554.4	358.2
554.6	366.4
554.8	372.2
555.0	376.9
555.2	384.3
555.4	389.6
555.6	392.4
555.8	394.8
556.0	398.9
556.2	398.6
556.4	406.3
556.6	412.1
556.8	418.7
557.0	424.4
557.2	430.3
557.4	428.9
557.6	435.6
557.8	441.3
558.0	448.2
558.2	454.0
558.4	457.4
558.6	464.5
558.8	473.1
559.0	479.0
559.2	482.6
559.4	485.1
559.6	487.4
559.8	495.4
560.0	501.3
560.2	511.2
560.4	518.1
560.6	522.7
560.8	529.9
561.0	535.9
561.2	539.8
561.4	549.5
561.6	560.0
561.8	564.5
562.0	575.9
562.2	584.6
562.4	587.3
562.6	594.3
562.8	604.6
563.0	609.3
563.2	621.6
563.4	635.9
563.6	643.6
563.8	653.0
564.0	658.5
564.2	665.9
564.4	672.4
564.6	686.1
564.8	691.5
565.0	693.4
565.2	697.1
565.4	705.9
565.6	714.4
565.8	727.7
566.0	733.7
566.2	746.0
566.4	755.8
566.6	771.6
566.8	788.2
567.0	797.1
567.2	804.3
567.4	812.9
567.6	818.9
567.8	829.6
568.0	835.7
568.2	841.4
568.4	851.6
568.6	866.4
568.8	886.7
569.0	903.1
569.2	913.6
569.4	916.1
569.6	923.4
569.8	930.7
570.0	935.9
570.2	951.4
570.4	968.9
570.6	978.4
570.8	997.3
571.0	1014
571.2	1023
571.4	1034
571.6	1051
571.8	1053
572.0	1058
572.2	1074
572.4	1080
572.6	1086
572.8	1103
573.0	1114
573.2	1123
573.4	1141
573.6	1149
573.8	1156
574.0	1168
574.2	1178
574.4	1186
574.6	1202
574.8	1212
575.0	1225
575.2	1244
575.4	1260
575.6	1268
575.8	1280
576.0	1281
576.2	1287
576.4	1297
576.6	1311
576.8	1322
577.0	1338
577.2	1346
577.4	1361
577.6	1367
577.8	1374
578.0	1381
578.2	1389
578.4	1397
578.6	1409
578.8	1421
579.0	1427
579.2	1434
579.4	1443
579.6	1454
579.8	1464
580.0	1482
580.2	1491
580.4	1507
580.6	1514
580.8	1519
581.0	1523
581.2	1533
581.4	1549
581.6	1564
581.8	1561
582.0	1564
582.2	1566
582.4	1573
582.6	1584
582.8	1593
583.0	1601
583.2	1611
583.4	1617
583.6	1622
583.8	1635
584.0	1651
584.2	1670
584.4	1679
584.6	1682
584.8	1686
585.0	1702
585.2	1710
585.4	1712
585.6	1710
585.8	1705
586.0	1713
586.2	1726
586.4	1733
586.6	1735
586.8	1734
587.0	1737
587.2	1745
587.4	1757
587.6	1768
587.8	1779
588.0	1774
588.2	1771
588.4	1778
588.6	1789
588.8	1798
589.0	1806
589.2	1798
589.4	1795
589.6	1805
589.8	1809
590.0	1820
590.2	1832
590.4	1837
590.6	1843
590.8	1855
591.0	1859
591.2	1865
591.4	1867
591.6	1864
591.8	1865
592.0	1878
592.2	1885
592.4	1888
592.6	1887
592.8	1883
593.0	1891
593.2	1890
593.4	1894
593.6	1898
593.8	1902
594.0	1908
594.2	1917
594.4	1915
594.6	1922
594.8	1925
595.0	1925
595.2	1920
595.4	1924
595.6	1936
595.8	1944
596.0	1950
596.2	1951
596.4	1947
596.6	1949
596.8	1959
597.0	1968
597.2	1974
597.4	1975
597.6	1977
597.8	1976
598.0	1981
598.2	1984
598.4	1993
598.6	1991
598.8	1996
599.0	1995
599.2	1997
599.4	1995
599.6	2001
599.8	2008
600.0	2018
600.2	2017
600.4	2018
600.6	2017
600.8	2018
601.0	2016
601.2	2013
601.4	2018
601.6	2025
601.8	2031
602.0	2038
602.2	2032
602.4	2028
602.6	2033
602.8	2038
603.0	2044
603.2	2053
603.4	2049
603.6	2043
603.8	2038
604.0	2035
604.2	2041
604.4	2049
604.6	2048
604.8	2047
605.0	2049
605.2	2049
605.4	2050
605.6	2049
605.8	2043
606.0	2047
606.2	2052
606.4	2058
606.6	2062
606.8	2060
607.0	2051
607.2	2056
607.4	2044
607.6	2041
607.8	2044
608.0	2039
608.2	2045
608.4	2052
608.6	2056
608.8	2059
609.0	2065
609.2	2061
609.4	2055
609.6	2050
609.8	2055
610.0	2049
610.2	2052
610.4	2046
610.6	2037
610.8	2030
611.0	2032
611.2	2038
611.4	2043
611.6	2044
611.8	2039
612.0	2034
612.2	2029
612.4	2031
612.6	2032
612.8	2031
613.0	2020
613.2	2025
613.4	2020
613.6	2022
613.8	2024
614.0	2017
614.2	2019
614.4	2025
614.6	2029
614.8	2030
615.0	2023
615.2	2011
615.4	2011
615.6	2006
615.8	2010
616.0	2002
616.2	2001
616.4	1993
616.6	1994
616.8	2004
617.0	2011
617.2	2007
617.4	2004
617.6	1987
617.8	1982
618.0	1984
618.2	1992
618.4	1994
618.6	1990
618.8	1982
619.0	1981
619.2	1979
619.4	1984
619.6	1977
619.8	1973
620.0	1968
620.2	1965
620.4	1970
620.6	1973
620.8	1967
621.0	1959
621.2	1948
621.4	1943
621.6	1943
621.8	1946
622.0	1951
622.2	1945
622.4	1936
622.6	1925
622.8	1915
623.0	1916
623.2	1916
623.4	1915
623.6	1919
623.8	1914
624.0	1903
624.2	1905
624.4	1896
624.6	1890
624.8	1890
625.0	1890
625.2	1887
625.4	1893
625.6	1891
625.8	1889
626.0	1874
626.2	1864
626.4	1860
626.6	1849
626.8	1846
627.0	1849
627.2	1846
627.4	1841
627.6	1843
627.8	1838
628.0	1827
628.2	1821
628.4	1816
628.6	1807
628.8	1814
629.0	1822
629.2	1815
629.4	1815
629.6	1803
629.8	1795
630.0	1790
630.2	1781
630.4	1774
630.6	1768
630.8	1769
631.0	1776
631.2	1776
631.4	1770
631.6	1768
631.8	1761
632.0	1758
632.2	1745
632.4	1739
632.6	1731
632.8	1733
633.0	1729
633.2	1724
633.4	1710
633.6	1708
633.8	1700
634.0	1701
634.2	1700
634.4	1701
634.6	1693
634.8	1692
635.0	1685
635.2	1680
635.4	1682
635.6	1680
635.8	1663
636.0	1655
636.2	1651
636.4	1645
636.6	1643
636.8	1641
637.0	1617
637.2	1615
637.4	1613
637.6	1613
637.8	1611
638.0	1607
638.2	1588
638.4	1583
638.6	1577
638.8	1574
639.0	1572
639.2	1570
639.4	1564
639.6	1566
639.8	1564
640.0	1561
640.2	1554
640.4	1547
640.6	1536
640.8	1529
641.0	1519
641.2	1517
641.4	1513
641.6	1516
641.8	1510
642.0	1505
642.2	1487
642.4	1481
642.6	1475
642.8	1476
643.0	1473
643.2	1471
643.4	1459
643.6	1454
643.8	1450
644.0	1452
644.2	1448
644.4	1442
644.6	1432
644.8	1419
645.0	1410
645.2	1410
645.4	1406
645.6	1401
645.8	1391
646.0	1393
646.2	1384
646.4	1377
646.6	1369
646.8	1365
647.0	1355
647.2	1358
647.4	1356
647.6	1352
647.8	1349
648.0	1350
648.2	1341
648.4	1328
648.6	1321
648.8	1314
649.0	1307
649.2	1304
649.4	1302
649.6	1288
649.8	1280
650.0	1274
650.2	1272
650.4	1272
650.6	1274
650.8	1266
651.0	1253
651.2	1240
651.4	1234
651.6	1233
651.8	1232
652.0	1230
652.2	1222
652.4	1217
652.6	1213
652.8	1219
653.0	1215
653.2	1212
653.4	1201
653.6	1195
653.8	1183
654.0	1178
654.2	1168
654.4	1170
654.6	1165
654.8	1167
655.0	1160
655.2	1158
655.4	1150
655.6	1148
655.8	1139
656.0	1130
656.2	1122
656.4	1118
656.6	1113
656.8	1114
657.0	1107
657.2	1102
657.4	1090
657.6	1085
657.8	1075
658.0	1070
658.2	1065
658.4	1067
658.6	1060
658.8	1061
659.0	1048
659.2	1040
659.4	1036
659.6	1032
659.8	1025
660.0	1025
660.2	1020
660.4	1012
660.6	1004
660.8	997.2
661.0	991.8
661.2	999.8
661.4	999.1
661.6	991.3
661.8	987.5
662.0	980.9
662.2	972.4
662.4	972.5
662.6	964.8
662.8	957.0
663.0	954.6
663.2	951.7
663.4	942.1
663.6	941.5
663.8	934.1
664.0	929.4
664.2	926.8
664.4	917.2
664.6	902.3
664.8	896.1
665.0	886.7
665.2	884.6
665.4	889.0
665.6	890.2
665.8	888.3
666.0	886.4
666.2	879.9
666.4	870.0
666.6	865.5
666.8	858.2
667.0	855.6
667.2	855.6
667.4	852.8
667.6	852.3
667.8	851.7
668.0	842.9
668.2	835.9
668.4	831.8
668.6	820.7
668.8	818.4
669.0	817.8
669.2	819.4
669.4	816.1
669.6	818.7
669.8	810.0
670.0	804.3
670.2	797.8
670.4	792.0
670.6	781.1
670.8	772.8
671.0	763.3
671.2	761.5
671.4	758.5
671.6	760.2
671.8	753.4
672.0	745.3
672.2	738.0
672.4	733.1
672.6	735.7
672.8	740.2
673.0	739.0
673.2	737.1
673.4	727.5
673.6	721.1
673.8	718.8
674.0	720.0
674.2	716.5
674.4	712.2
674.6	702.0
674.8	694.5
675.0	686.2
675.2	686.8
675.4	686.1
675.6	685.2
675.8	683.5
676.0	677.1
676.2	673.2
676.4	668.8
676.6	663.5
676.8	657.5
677.0	655.9
677.2	651.4
677.4	647.2
677.6	645.5
677.8	639.0
678.0	637.6
678.2	636.9
678.4	636.0
678.6	629.3
678.8	624.8
679.0	620.9
679.2	617.6
679.4	611.9
679.6	611.8
679.8	604.8
680.0	599.5
680.2	596.8
680.4	594.3
680.6	592.0
680.8	592.8
681.0	591.4
681.2	588.1
681.4	583.2
681.6	574.5
681.8	566.9
682.0	560.6
682.2	563.6
682.4	563.5
682.6	564.2
682.8	558.5
683.0	555.5
683.2	551.0
683.4	548.6
683.6	543.3
683.8	537.9
684.0	534.1
684.2	530.1
684.4	529.8
684.6	526.0
684.8	523.0
685.0	520.9
685.2	519.7
685.4	514.8
685.6	516.1
685.8	513.9
686.0	509.8
686.2	503.8
686.4	499.6
686.6	493.6
686.8	493.5
687.0	490.4
687.2	488.7
687.4	484.8
687.6	482.3
687.8	476.6
688.0	473.4
688.2	471.0
688.4	474.5
688.6	476.6
688.8	476.9
689.0	468.5
689.2	465.4
689.4	462.6
689.6	461.0
689.8	464.0
690.0	462.8
690.2	458.6
690.4	453.6
690.6	444.6
690.8	439.0
691.0	441.4
691.2	442.8
691.4	447.2
691.6	441.3
691.8	436.1
692.0	433.6
692.2	432.5
692.4	426.6
692.6	423.5
692.8	419.9
693.0	417.7
693.2	415.4
693.4	414.1
693.6	407.6
693.8	405.4
694.0	405.8
694.2	400.5
694.4	397.7
694.6	394.7
694.8	389.5
695.0	389.4
695.2	392.8
695.4	391.6
695.6	390.8
695.8	387.6
696.0	382.3
696.2	378.7
696.4	380.4
696.6	381.5
696.8	380.4
697.0	380.5
697.2	381.9
697.4	376.5
697.6	374.5
697.8	369.7
698.0	362.6
698.2	359.6
698.4	359.6
698.6	356.4
698.8	358.2
699.0	359.4
699.2	357.0
699.4	355.1
699.6	353.0
699.8	352.0
700.0	353.0
700.2	350.4
700.4	343.7
700.6	336.4
700.8	335.1
701.0	335.3
701.2	337.3
701.4	338.5
701.6	339.3
701.8	337.5
702.0	337.9
702.2	331.9
702.4	327.7
702.6	325.3
702.8	324.5
703.0	321.3
703.2	318.0
703.4	316.0
703.6	316.0
703.8	314.4
704.0	314.9
704.2	315.5
704.4	310.4
704.6	308.0
704.8	306.3
705.0	305.3
705.2	308.8
705.4	313.3
705.6	312.6
705.8	306.0
706.0	302.0
706.2	297.6
706.4	293.3
706.6	290.7
706.8	289.6
707.0	284.8
707.2	284.2
707.4	282.2
707.6	280.7
707.8	283.1
708.0	281.5
708.2	280.5
708.4	277.0
708.6	272.7
708.8	271.2
709.0	274.4
709.2	273.9
709.4	270.9
709.6	269.6
709.8	266.3
710.0	264.4
710.2	265.3
710.4	264.4
710.6	262.0
710.8	262.0
711.0	261.4
711.2	258.2
711.4	254.1
711.6	253.8
711.8	253.1
712.0	248.5
712.2	250.0
712.4	244.0
712.6	241.0
712.8	243.0
713.0	240.1
713.2	238.5
713.4	241.8
713.6	238.6
713.8	238.7
714.0	239.9
714.2	236.7
714.4	231.7
714.6	231.7
714.8	229.6
715.0	229.2
715.2	230.1
715.4	225.0
715.6	218.6
715.8	219.5
716.0	218.7
716.2	219.0
716.4	221.8
716.6	218.8
716.8	218.4
717.0	217.4
717.2	216.6
717.4	214.5
717.6	210.4
717.8	207.2
718.0	205.8
718.2	207.3
718.4	208.5
718.6	209.9
718.8	203.4
719.0	203.2
719.2	197.6
719.4	197.0
719.6	193.6
719.8	194.7
720.0	193.3
720.2	194.5
720.4	190.4
720.6	191.6
720.8	191.9
721.0	190.4
721.2	189.9
721.4	185.4
721.6	183.5
721.8	181.7
722.0	180.0
722.2	179.7
722.4	179.3
722.6	178.6
722.8	178.2
723.0	173.6
723.2	169.3
723.4	168.7
723.6	166.6
723.8	168.5
724.0	168.6
724.2	170.4
724.4	169.1
724.6	170.4
724.8	167.0
725.0	162.8
725.2	160.1
725.4	159.7
725.6	158.3
725.8	161.0
726.0	160.2
726.2	155.9
726.4	155.1
726.6	155.3
726.8	154.1
727.0	153.5
727.2	153.4
727.4	152.4
727.6	153.3
727.8	155.1
728.0	152.9
728.2	151.1
728.4	149.1
728.6	147.5
728.8	145.7
729.0	144.6
729.2	144.2
729.4	144.3
729.6	144.7
729.8	143.1
730.0	141.8
730.2	140.3
730.4	139.6
730.6	135.2
730.8	133.6
731.0	131.6
731.2	131.3
731.4	131.7
731.6	130.6
731.8	128.4
732.0	128.8
732.2	129.2
732.4	129.5
732.6	127.5
732.8	126.7
733.0	125.5
733.2	124.8
733.4	125.8
733.6	124.9
733.8	122.7
734.0	122.9
734.2	121.6
734.4	121.0
734.6	122.3
734.8	119.4
735.0	116.2
735.2	114.2
735.4	112.1
735.6	112.8
735.8	114.2
736.0	112.9
736.2	110.8
736.4	108.4
736.6	106.7
736.8	108.7
737.0	108.9
737.2	109.9
737.4	111.2
737.6	109.5
737.8	108.6
738.0	107.2
738.2	105.1
738.4	105.2
738.6	103.8
738.8	102.9
739.0	101.9
739.2	102.1
739.4	102.6
739.6	103.1
739.8	99.59
740.0	98.03
740.2	95.21
740.4	94.72
740.6	95.80
740.8	97.28
741.0	98.37
741.2	98.08
741.4	95.81
741.6	93.25
741.8	92.09
742.0	91.33
742.2	92.25
742.4	92.10
742.6	90.84
742.8	90.17
743.0	88.95
743.2	87.89
743.4	87.04
743.6	85.63
743.8	84.39
744.0	84.83
744.2	85.85
744.4	86.54
744.6	87.79
744.8	85.64
745.0	85.17
745.2	84.34
745.4	83.57
745.6	83.34
745.8	83.42
746.0	81.49
746.2	81.54
746.4	79.63
746.6	78.76
746.8	79.00
747.0	78.30
747.2	78.10
747.4	79.28
747.6	76.88
747.8	76.73
748.0	77.14
748.2	76.18
748.4	75.68
748.6	74.66
748.8	72.35
749.0	72.25
749.2	72.32
749.4	71.84
749.6	71.24
749.8	70.61
750.0	69.55
750.2	68.68
750.4	67.88
750.6	67.42
750.8	67.15
751.0	68.54
751.2	67.45
751.4	66.50
751.6	67.02
751.8	66.93
752.0	67.12
752.2	66.56
752.4	64.43
752.6	62.32
752.8	62.50
753.0	62.23
753.2	62.85
753.4	62.82
753.6	62.29
753.8	61.33
754.0	60.49
754.2	61.33
754.4	60.58
754.6	60.13
754.8	59.97
755.0	59.47
755.2	58.41
755.4	57.88
755.6	57.47
755.8	58.04
756.0	58.55
756.2	58.55
756.4	58.21
756.6	57.30
756.8	57.00
757.0	56.63
757.2	55.88
757.4	55.56
757.6	55.07
757.8	55.21
758.0	53.51
758.2	52.74
758.4	52.17
758.6	53.39
758.8	53.09
759.0	52.84
759.2	52.10
759.4	51.91
759.6	51.90
759.8	51.30
760.0	50.94
760.2	49.94
760.4	49.59
760.6	49.74
760.8	50.55
761.0	50.76
761.2	51.20
761.4	49.64
761.6	47.52
761.8	45.98
762.0	45.12
762.2	46.26
762.4	46.87
762.6	47.01
762.8	46.75
763.0	46.37
763.2	45.09
763.4	44.77
763.6	43.81
763.8	43.30
764.0	43.30
764.2	42.99
764.4	43.80
764.6	44.35
764.8	43.36
765.0	43.41
765.2	42.80
765.4	42.99
765.6	43.89
765.8	42.99
766.0	41.48
766.2	41.18
766.4	39.57
766.6	39.87
766.8	40.61
767.0	40.22
767.2	40.99
767.4	40.86
767.6	39.64
767.8	39.21
768.0	38.97
768.2	38.34
768.4	38.58
768.6	37.90
768.8	38.10
769.0	37.24
769.2	36.55
769.4	35.43
769.6	34.92
769.8	35.51
770.0	37.14
770.2	37.39
770.4	37.89
770.6	37.72
770.8	36.85
771.0	36.03
771.2	35.50
771.4	35.32
771.6	34.50
771.8	34.63
772.0	34.18
772.2	33.83
772.4	32.83
772.6	32.22
772.8	32.60
773.0	33.51
773.2	33.57
773.4	33.79
773.6	32.20
773.8	31.22
774.0	31.17
774.2	31.41
774.4	31.15
774.6	30.98
774.8	29.93
775.0	30.36
775.2	30.35
775.4	30.99
775.6	30.71
775.8	30.48
776.0	29.70
776.2	29.12
776.4	29.30
776.6	29.18
776.8	28.18
777.0	28.85
777.2	28.99
777.4	28.81
777.6	28.68
777.8	28.55
778.0	27.83
778.2	27.32
778.4	26.57
778.6	27.19
778.8	26.58
779.0	27.24
779.2	28.28
779.4	28.55
779.6	29.12
779.8	29.37
780.0	28.60
780.2	27.37
780.4	27.54
780.6	27.22
780.8	26.20
781.0	25.41
781.2	25.57
781.4	25.52
781.6	26.76
781.8	26.63
782.0	25.53
782.2	24.93
782.4	24.86
782.6	24.35
782.8	24.14
783.0	23.68
783.2	23.56
783.4	23.72
783.6	24.51
783.8	25.15
784.0	25.32
784.2	26.06
784.4	26.12
784.6	25.71
784.8	24.33
785.0	23.08
785.2	21.57
785.4	21.01
785.6	21.08
785.8	22.72
786.0	23.43
786.2	24.11
786.4	24.05
786.6	22.95
786.8	21.79
787.0	21.93
787.2	21.99
787.4	22.86
787.6	23.33
787.8	23.34
788.0	22.74
788.2	22.66
788.4	22.53
788.6	22.42
788.8	22.65
789.0	22.12
789.2	21.46
789.4	21.14
789.6	21.03
789.8	21.54
790.0	22.20
790.2	22.05
790.4	21.55
790.6	21.16
790.8	20.26
791.0	20.49
791.2	20.31
791.4	20.11
791.6	20.08
791.8	20.44
792.0	20.15
792.2	20.82
792.4	20.92
792.6	19.87
792.8	19.14
793.0	18.62
793.2	19.30
793.4	20.32
793.6	20.46
793.8	20.12
794.0	18.94
794.2	18.39
794.4	18.62
794.6	18.38
794.8	18.22
795.0	18.89
795.2	18.76
795.4	19.29
795.6	19.42
795.8	18.67
796.0	18.66
796.2	18.70
796.4	18.76
796.6	19.58
796.8	19.64
797.0	19.63
797.2	19.74
797.4	19.68
797.6	19.26
797.8	19.37
798.0	19.07
798.2	19.31
798.4	19.10
798.6	18.23
798.8	17.63
799.0	16.95
799.2	16.72
799.4	16.86
799.6	16.82
799.8	16.51
800.0	15.80

