Sample:	'20211010A(EM)
File name:	R-CDs 8.FDS
Run date:	'16:45:59, 06/09/2023
Operator:	Administrator
Comment:	'

Instrument
Model:	F-4700 FL Spectrophotometer
Serial number:	2019-001
ROM Version:	5J24010 00

Instrument parameters
Measurement type:	Wavelength scan
Scan mode:	Emission
Data mode:	Fluorescence
EX WL:	520.0 nm
EM  Start WL:	540.0 nm
EM  End WL:	800.0 nm
Scan speed:	1200 nm/min
Delay:	0.0 s
EX Slit:	10.0 nm
EM Slit:	10.0 nm
PMT Voltage:	604 V
Response:	0.002 s
Corrected spectra:	Off
Shutter control:	On

Processing performed
Savitsky-Golay smoothed
Smoothing order:	3
Number of points:	7
Number of times:	1

Peak integration
Integration method:	Rectangular
Sensitivity:	1
Threshold:	1.000

Peaks
No.	Start(nm)	Apex(nm)	End(nm)	Height(Data)	Valley(nm)	Valley(Data)
1	540.0	605.8	607.6	9114	607.6	9042
2	607.6	608.4	749.0	9082	749.0	195.8
3	749.0	749.8	785.8	207.2	785.8	54.32
4	785.8	786.6	790.2	57.82	790.2	49.75
5	790.2	791.0	794.0	52.10	794.0	45.16
6	794.0	794.8	796.2	48.21	796.2	42.60
7	796.2	797.2	800.0	46.22	800.0	42.63

Data points
nm	Data
540.0	750.3
540.2	779.1
540.4	791.0
540.6	794.0
540.8	800.4
541.0	809.6
541.2	819.8
541.4	834.6
541.6	848.1
541.8	857.7
542.0	870.4
542.2	876.9
542.4	881.2
542.6	890.3
542.8	902.1
543.0	919.5
543.2	935.8
543.4	949.2
543.6	962.1
543.8	978.2
544.0	992.6
544.2	1007
544.4	1015
544.6	1027
544.8	1043
545.0	1057
545.2	1063
545.4	1076
545.6	1083
545.8	1098
546.0	1116
546.2	1134
546.4	1150
546.6	1174
546.8	1186
547.0	1205
547.2	1215
547.4	1230
547.6	1248
547.8	1262
548.0	1274
548.2	1285
548.4	1297
548.6	1312
548.8	1331
549.0	1348
549.2	1370
549.4	1392
549.6	1419
549.8	1441
550.0	1458
550.2	1468
550.4	1481
550.6	1495
550.8	1512
551.0	1532
551.2	1558
551.4	1575
551.6	1593
551.8	1612
552.0	1628
552.2	1654
552.4	1681
552.6	1693
552.8	1712
553.0	1735
553.2	1755
553.4	1780
553.6	1803
553.8	1823
554.0	1854
554.2	1878
554.4	1902
554.6	1921
554.8	1938
555.0	1952
555.2	1973
555.4	1995
555.6	2019
555.8	2055
556.0	2087
556.2	2112
556.4	2139
556.6	2160
556.8	2174
557.0	2203
557.2	2229
557.4	2257
557.6	2293
557.8	2317
558.0	2328
558.2	2358
558.4	2380
558.6	2416
558.8	2451
559.0	2492
559.2	2511
559.4	2544
559.6	2559
559.8	2594
560.0	2617
560.2	2655
560.4	2674
560.6	2705
560.8	2730
561.0	2766
561.2	2800
561.4	2843
561.6	2867
561.8	2897
562.0	2924
562.2	2955
562.4	2988
562.6	3027
562.8	3054
563.0	3091
563.2	3124
563.4	3153
563.6	3185
563.8	3221
564.0	3260
564.2	3314
564.4	3347
564.6	3372
564.8	3390
565.0	3421
565.2	3459
565.4	3503
565.6	3539
565.8	3575
566.0	3606
566.2	3658
566.4	3696
566.6	3727
566.8	3761
567.0	3802
567.2	3847
567.4	3896
567.6	3929
567.8	3968
568.0	4012
568.2	4052
568.4	4076
568.6	4105
568.8	4138
569.0	4191
569.2	4236
569.4	4280
569.6	4313
569.8	4345
570.0	4383
570.2	4433
570.4	4478
570.6	4513
570.8	4552
571.0	4584
571.2	4607
571.4	4662
571.6	4710
571.8	4749
572.0	4791
572.2	4826
572.4	4856
572.6	4922
572.8	4961
573.0	5005
573.2	5034
573.4	5066
573.6	5108
573.8	5154
574.0	5187
574.2	5225
574.4	5259
574.6	5312
574.8	5368
575.0	5431
575.2	5473
575.4	5503
575.6	5531
575.8	5562
576.0	5601
576.2	5658
576.4	5705
576.6	5743
576.8	5778
577.0	5813
577.2	5834
577.4	5873
577.6	5908
577.8	5956
578.0	6012
578.2	6056
578.4	6083
578.6	6130
578.8	6154
579.0	6209
579.2	6261
579.4	6296
579.6	6329
579.8	6378
580.0	6414
580.2	6463
580.4	6498
580.6	6532
580.8	6564
581.0	6616
581.2	6664
581.4	6705
581.6	6730
581.8	6755
582.0	6783
582.2	6818
582.4	6855
582.6	6889
582.8	6904
583.0	6934
583.2	6973
583.4	7007
583.6	7056
583.8	7101
584.0	7135
584.2	7176
584.4	7195
584.6	7218
584.8	7264
585.0	7297
585.2	7346
585.4	7395
585.6	7416
585.8	7446
586.0	7485
586.2	7511
586.4	7546
586.6	7576
586.8	7582
587.0	7613
587.2	7648
587.4	7695
587.6	7740
587.8	7771
588.0	7784
588.2	7814
588.4	7833
588.6	7859
588.8	7870
589.0	7893
589.2	7930
589.4	7966
589.6	8005
589.8	8042
590.0	8057
590.2	8076
590.4	8087
590.6	8091
590.8	8126
591.0	8185
591.2	8228
591.4	8258
591.6	8259
591.8	8262
592.0	8278
592.2	8312
592.4	8329
592.6	8348
592.8	8373
593.0	8400
593.2	8416
593.4	8451
593.6	8479
593.8	8523
594.0	8550
594.2	8562
594.4	8555
594.6	8563
594.8	8574
595.0	8611
595.2	8635
595.4	8653
595.6	8659
595.8	8662
596.0	8663
596.2	8679
596.4	8697
596.6	8726
596.8	8753
597.0	8767
597.2	8772
597.4	8782
597.6	8792
597.8	8822
598.0	8834
598.2	8831
598.4	8839
598.6	8844
598.8	8850
599.0	8873
599.2	8882
599.4	8902
599.6	8930
599.8	8948
600.0	8936
600.2	8929
600.4	8917
600.6	8943
600.8	8964
601.0	8977
601.2	8981
601.4	8991
601.6	8997
601.8	9036
602.0	9044
602.2	9030
602.4	9030
602.6	9022
602.8	9038
603.0	9062
603.2	9067
603.4	9076
603.6	9085
603.8	9078
604.0	9096
604.2	9078
604.4	9083
604.6	9089
604.8	9087
605.0	9097
605.2	9107
605.4	9097
605.6	9112
605.8	9114
606.0	9107
606.2	9112
606.4	9111
606.6	9109
606.8	9114
607.0	9096
607.2	9074
607.4	9050
607.6	9042
607.8	9051
608.0	9076
608.2	9080
608.4	9082
608.6	9068
608.8	9058
609.0	9061
609.2	9067
609.4	9062
609.6	9037
609.8	9018
610.0	8998
610.2	9012
610.4	9023
610.6	9027
610.8	9012
611.0	9006
611.2	8977
611.4	8979
611.6	8981
611.8	8982
612.0	8977
612.2	8975
612.4	8947
612.6	8929
612.8	8903
613.0	8896
613.2	8888
613.4	8900
613.6	8896
613.8	8893
614.0	8879
614.2	8888
614.4	8881
614.6	8870
614.8	8844
615.0	8810
615.2	8795
615.4	8794
615.6	8780
615.8	8773
616.0	8757
616.2	8725
616.4	8704
616.6	8689
616.8	8670
617.0	8663
617.2	8655
617.4	8654
617.6	8643
617.8	8624
618.0	8595
618.2	8559
618.4	8547
618.6	8515
618.8	8507
619.0	8516
619.2	8499
619.4	8482
619.6	8475
619.8	8426
620.0	8410
620.2	8394
620.4	8370
620.6	8355
620.8	8343
621.0	8340
621.2	8342
621.4	8317
621.6	8289
621.8	8254
622.0	8216
622.2	8188
622.4	8173
622.6	8143
622.8	8118
623.0	8114
623.2	8094
623.4	8088
623.6	8079
623.8	8054
624.0	8034
624.2	8012
624.4	7986
624.6	7971
624.8	7944
625.0	7925
625.2	7895
625.4	7864
625.6	7842
625.8	7823
626.0	7804
626.2	7793
626.4	7773
626.6	7748
626.8	7717
627.0	7695
627.2	7670
627.4	7648
627.6	7628
627.8	7601
628.0	7581
628.2	7565
628.4	7547
628.6	7528
628.8	7504
629.0	7478
629.2	7454
629.4	7429
629.6	7393
629.8	7364
630.0	7334
630.2	7310
630.4	7268
630.6	7244
630.8	7216
631.0	7205
631.2	7179
631.4	7168
631.6	7127
631.8	7100
632.0	7077
632.2	7056
632.4	7019
632.6	6999
632.8	6961
633.0	6950
633.2	6942
633.4	6918
633.6	6884
633.8	6851
634.0	6818
634.2	6798
634.4	6781
634.6	6761
634.8	6735
635.0	6695
635.2	6668
635.4	6638
635.6	6616
635.8	6615
636.0	6603
636.2	6575
636.4	6545
636.6	6517
636.8	6479
637.0	6450
637.2	6423
637.4	6399
637.6	6361
637.8	6343
638.0	6315
638.2	6285
638.4	6277
638.6	6260
638.8	6232
639.0	6202
639.2	6167
639.4	6140
639.6	6116
639.8	6104
640.0	6077
640.2	6049
640.4	6023
640.6	6006
640.8	5980
641.0	5960
641.2	5909
641.4	5872
641.6	5838
641.8	5812
642.0	5794
642.2	5783
642.4	5756
642.6	5739
642.8	5709
643.0	5684
643.2	5657
643.4	5634
643.6	5600
643.8	5573
644.0	5551
644.2	5535
644.4	5515
644.6	5491
644.8	5472
645.0	5445
645.2	5425
645.4	5390
645.6	5346
645.8	5311
646.0	5288
646.2	5275
646.4	5263
646.6	5240
646.8	5209
647.0	5187
647.2	5167
647.4	5163
647.6	5134
647.8	5099
648.0	5065
648.2	5042
648.4	5026
648.6	5024
648.8	5003
649.0	4962
649.2	4923
649.4	4893
649.6	4869
649.8	4856
650.0	4838
650.2	4807
650.4	4788
650.6	4761
650.8	4740
651.0	4711
651.2	4689
651.4	4669
651.6	4658
651.8	4639
652.0	4612
652.2	4579
652.4	4556
652.6	4529
652.8	4515
653.0	4496
653.2	4466
653.4	4441
653.6	4418
653.8	4392
654.0	4371
654.2	4340
654.4	4321
654.6	4301
654.8	4280
655.0	4250
655.2	4229
655.4	4203
655.6	4196
655.8	4181
656.0	4147
656.2	4112
656.4	4089
656.6	4068
656.8	4059
657.0	4050
657.2	4027
657.4	4001
657.6	3971
657.8	3934
658.0	3897
658.2	3886
658.4	3884
658.6	3882
658.8	3880
659.0	3856
659.2	3823
659.4	3796
659.6	3773
659.8	3771
660.0	3754
660.2	3731
660.4	3703
660.6	3675
660.8	3645
661.0	3627
661.2	3605
661.4	3581
661.6	3565
661.8	3564
662.0	3537
662.2	3515
662.4	3495
662.6	3464
662.8	3445
663.0	3443
663.2	3420
663.4	3410
663.6	3397
663.8	3376
664.0	3355
664.2	3335
664.4	3300
664.6	3283
664.8	3267
665.0	3251
665.2	3247
665.4	3223
665.6	3199
665.8	3186
666.0	3172
666.2	3150
666.4	3144
666.6	3118
666.8	3101
667.0	3078
667.2	3060
667.4	3041
667.6	3025
667.8	3001
668.0	2975
668.2	2938
668.4	2919
668.6	2921
668.8	2907
669.0	2881
669.2	2866
669.4	2848
669.6	2842
669.8	2843
670.0	2822
670.2	2791
670.4	2770
670.6	2752
670.8	2732
671.0	2726
671.2	2716
671.4	2709
671.6	2700
671.8	2682
672.0	2672
672.2	2657
672.4	2635
672.6	2619
672.8	2601
673.0	2576
673.2	2567
673.4	2553
673.6	2538
673.8	2527
674.0	2517
674.2	2500
674.4	2478
674.6	2464
674.8	2444
675.0	2427
675.2	2417
675.4	2400
675.6	2382
675.8	2366
676.0	2355
676.2	2345
676.4	2332
676.6	2317
676.8	2299
677.0	2280
677.2	2276
677.4	2264
677.6	2256
677.8	2241
678.0	2224
678.2	2203
678.4	2193
678.6	2172
678.8	2172
679.0	2167
679.2	2159
679.4	2141
679.6	2119
679.8	2098
680.0	2094
680.2	2090
680.4	2076
680.6	2053
680.8	2030
681.0	2022
681.2	2018
681.4	2015
681.6	2012
681.8	1994
682.0	1975
682.2	1951
682.4	1927
682.6	1913
682.8	1909
683.0	1897
683.2	1888
683.4	1875
683.6	1864
683.8	1856
684.0	1849
684.2	1838
684.4	1827
684.6	1814
684.8	1803
685.0	1791
685.2	1788
685.4	1774
685.6	1760
685.8	1747
686.0	1740
686.2	1728
686.4	1726
686.6	1717
686.8	1704
687.0	1690
687.2	1673
687.4	1654
687.6	1644
687.8	1634
688.0	1621
688.2	1615
688.4	1604
688.6	1593
688.8	1586
689.0	1577
689.2	1570
689.4	1570
689.6	1561
689.8	1547
690.0	1535
690.2	1527
690.4	1513
690.6	1507
690.8	1496
691.0	1486
691.2	1478
691.4	1469
691.6	1460
691.8	1458
692.0	1442
692.2	1439
692.4	1431
692.6	1421
692.8	1412
693.0	1401
693.2	1381
693.4	1375
693.6	1371
693.8	1368
694.0	1354
694.2	1345
694.4	1336
694.6	1326
694.8	1330
695.0	1326
695.2	1314
695.4	1302
695.6	1292
695.8	1283
696.0	1284
696.2	1280
696.4	1278
696.6	1263
696.8	1255
697.0	1249
697.2	1242
697.4	1238
697.6	1234
697.8	1223
698.0	1212
698.2	1196
698.4	1187
698.6	1178
698.8	1173
699.0	1168
699.2	1161
699.4	1152
699.6	1146
699.8	1139
700.0	1135
700.2	1131
700.4	1134
700.6	1135
700.8	1131
701.0	1126
701.2	1117
701.4	1104
701.6	1099
701.8	1089
702.0	1072
702.2	1069
702.4	1065
702.6	1060
702.8	1061
703.0	1059
703.2	1046
703.4	1041
703.6	1029
703.8	1023
704.0	1012
704.2	1008
704.4	1001
704.6	996.3
704.8	984.8
705.0	980.9
705.2	979.7
705.4	977.9
705.6	972.9
705.8	971.2
706.0	961.8
706.2	957.2
706.4	953.6
706.6	948.7
706.8	936.8
707.0	930.1
707.2	923.7
707.4	915.4
707.6	910.6
707.8	912.4
708.0	902.8
708.2	894.3
708.4	882.9
708.6	873.7
708.8	874.6
709.0	877.9
709.2	877.1
709.4	875.3
709.6	868.3
709.8	855.1
710.0	846.8
710.2	838.9
710.4	834.0
710.6	829.8
710.8	828.7
711.0	820.1
711.2	817.2
711.4	811.1
711.6	806.8
711.8	800.3
712.0	793.8
712.2	788.0
712.4	783.9
712.6	782.9
712.8	782.2
713.0	779.7
713.2	768.6
713.4	760.1
713.6	753.9
713.8	747.2
714.0	738.4
714.2	737.2
714.4	730.8
714.6	726.4
714.8	727.2
715.0	722.9
715.2	715.4
715.4	710.6
715.6	707.5
715.8	703.1
716.0	702.6
716.2	702.5
716.4	696.9
716.6	686.5
716.8	680.8
717.0	674.7
717.2	671.3
717.4	671.3
717.6	670.6
717.8	670.4
718.0	669.1
718.2	664.8
718.4	654.7
718.6	641.2
718.8	628.2
719.0	622.7
719.2	618.8
719.4	616.1
719.6	613.1
719.8	608.8
720.0	601.2
720.2	594.2
720.4	588.0
720.6	584.0
720.8	584.3
721.0	585.2
721.2	583.8
721.4	579.6
721.6	572.9
721.8	566.7
722.0	560.1
722.2	556.0
722.4	554.9
722.6	549.7
722.8	542.9
723.0	540.4
723.2	535.6
723.4	537.4
723.6	535.2
723.8	530.4
724.0	522.7
724.2	519.0
724.4	516.6
724.6	516.7
724.8	510.7
725.0	507.0
725.2	500.6
725.4	496.1
725.6	492.7
725.8	485.0
726.0	479.5
726.2	475.1
726.4	469.9
726.6	466.5
726.8	464.3
727.0	460.7
727.2	463.8
727.4	462.9
727.6	461.0
727.8	461.2
728.0	454.3
728.2	448.9
728.4	445.5
728.6	438.9
728.8	435.3
729.0	435.2
729.2	428.9
729.4	429.6
729.6	428.6
729.8	425.0
730.0	420.7
730.2	416.7
730.4	411.1
730.6	411.1
730.8	408.0
731.0	408.5
731.2	406.6
731.4	404.3
731.6	397.8
731.8	390.3
732.0	385.4
732.2	383.5
732.4	378.4
732.6	379.1
732.8	378.3
733.0	375.6
733.2	373.3
733.4	367.7
733.6	360.1
733.8	357.8
734.0	356.5
734.2	355.5
734.4	352.7
734.6	351.6
734.8	350.2
735.0	350.5
735.2	345.0
735.4	336.8
735.6	333.2
735.8	330.5
736.0	331.8
736.2	332.5
736.4	327.7
736.6	321.1
736.8	318.4
737.0	320.1
737.2	321.3
737.4	321.5
737.6	316.6
737.8	310.1
738.0	303.7
738.2	303.0
738.4	300.4
738.6	301.0
738.8	299.0
739.0	296.3
739.2	292.8
739.4	289.8
739.6	286.5
739.8	284.2
740.0	283.2
740.2	282.9
740.4	280.1
740.6	278.7
740.8	277.0
741.0	274.8
741.2	271.4
741.4	270.9
741.6	269.3
741.8	266.9
742.0	265.6
742.2	262.4
742.4	258.7
742.6	255.1
742.8	255.4
743.0	255.4
743.2	257.4
743.4	257.3
743.6	255.8
743.8	251.8
744.0	248.6
744.2	245.8
744.4	243.5
744.6	241.7
744.8	242.3
745.0	242.0
745.2	238.1
745.4	232.9
745.6	229.3
745.8	228.2
746.0	230.4
746.2	229.8
746.4	229.2
746.6	224.5
746.8	221.9
747.0	218.3
747.2	218.6
747.4	217.8
747.6	218.6
747.8	212.9
748.0	210.9
748.2	208.5
748.4	205.7
748.6	204.6
748.8	200.9
749.0	195.8
749.2	197.7
749.4	203.6
749.6	206.3
749.8	207.2
750.0	202.1
750.2	194.7
750.4	191.2
750.6	191.0
750.8	193.4
751.0	194.3
751.2	194.6
751.4	191.4
751.6	188.9
751.8	184.1
752.0	183.8
752.2	180.1
752.4	178.9
752.6	176.6
752.8	176.1
753.0	174.3
753.2	175.0
753.4	172.6
753.6	172.8
753.8	173.1
754.0	172.6
754.2	171.1
754.4	169.2
754.6	168.0
754.8	169.1
755.0	168.4
755.2	166.0
755.4	165.6
755.6	166.1
755.8	164.9
756.0	163.9
756.2	161.0
756.4	158.8
756.6	158.8
756.8	158.6
757.0	155.0
757.2	150.3
757.4	147.1
757.6	146.2
757.8	147.5
758.0	149.9
758.2	150.3
758.4	147.4
758.6	145.0
758.8	140.5
759.0	137.6
759.2	137.1
759.4	136.8
759.6	136.8
759.8	139.2
760.0	138.6
760.2	137.1
760.4	135.2
760.6	134.1
760.8	132.6
761.0	132.6
761.2	133.1
761.4	131.4
761.6	130.9
761.8	131.5
762.0	129.3
762.2	127.9
762.4	126.4
762.6	125.5
762.8	124.0
763.0	124.7
763.2	123.4
763.4	123.0
763.6	120.2
763.8	120.3
764.0	119.0
764.2	119.3
764.4	117.3
764.6	115.6
764.8	112.9
765.0	111.3
765.2	110.5
765.4	111.9
765.6	112.3
765.8	113.3
766.0	113.3
766.2	110.9
766.4	107.9
766.6	107.3
766.8	104.7
767.0	104.2
767.2	103.1
767.4	103.8
767.6	105.0
767.8	105.9
768.0	102.8
768.2	101.6
768.4	100.1
768.6	100.0
768.8	99.64
769.0	97.92
769.2	95.73
769.4	95.41
769.6	96.20
769.8	96.45
770.0	97.24
770.2	95.84
770.4	96.16
770.6	95.89
770.8	94.35
771.0	92.04
771.2	91.81
771.4	88.80
771.6	88.11
771.8	89.18
772.0	88.49
772.2	87.42
772.4	87.76
772.6	86.77
772.8	86.65
773.0	88.38
773.2	88.78
773.4	88.38
773.6	85.73
773.8	82.99
774.0	81.38
774.2	80.36
774.4	81.11
774.6	81.98
774.8	80.96
775.0	80.96
775.2	80.33
775.4	78.29
775.6	76.71
775.8	76.73
776.0	76.10
776.2	77.47
776.4	76.93
776.6	75.07
776.8	73.39
777.0	74.24
777.2	74.34
777.4	73.97
777.6	74.56
777.8	72.37
778.0	72.17
778.2	71.67
778.4	71.63
778.6	70.53
778.8	71.77
779.0	70.89
779.2	71.15
779.4	70.56
779.6	70.33
779.8	70.16
780.0	70.19
780.2	70.20
780.4	70.06
780.6	70.39
780.8	69.09
781.0	67.26
781.2	64.92
781.4	62.17
781.6	61.35
781.8	63.11
782.0	62.62
782.2	61.34
782.4	60.73
782.6	60.77
782.8	61.86
783.0	62.65
783.2	61.08
783.4	59.94
783.6	59.97
783.8	59.98
784.0	60.06
784.2	58.90
784.4	58.46
784.6	58.66
784.8	59.24
785.0	58.39
785.2	57.05
785.4	56.72
785.6	55.24
785.8	54.32
786.0	55.20
786.2	56.27
786.4	56.50
786.6	57.82
786.8	55.79
787.0	55.13
787.2	54.05
787.4	54.14
787.6	53.89
787.8	53.91
788.0	53.31
788.2	53.63
788.4	52.92
788.6	54.29
788.8	53.81
789.0	52.92
789.2	52.59
789.4	50.90
789.6	50.60
789.8	51.39
790.0	50.66
790.2	49.75
790.4	50.41
790.6	50.26
790.8	51.64
791.0	52.10
791.2	51.46
791.4	51.27
791.6	51.54
791.8	50.84
792.0	50.14
792.2	48.03
792.4	46.95
792.6	46.92
792.8	47.23
793.0	47.79
793.2	48.60
793.4	48.11
793.6	47.55
793.8	45.77
794.0	45.16
794.2	45.29
794.4	46.44
794.6	47.31
794.8	48.21
795.0	47.34
795.2	47.76
795.4	46.99
795.6	46.21
795.8	44.20
796.0	44.07
796.2	42.60
796.4	44.03
796.6	44.20
796.8	45.89
797.0	45.83
797.2	46.22
797.4	43.79
797.6	42.79
797.8	42.14
798.0	44.45
798.2	45.41
798.4	44.84
798.6	42.81
798.8	41.23
799.0	41.68
799.2	42.24
799.4	42.64
799.6	41.92
799.8	41.66
800.0	42.63

