Sample:	'20211010A(EM)
File name:	R-CDs 10.FDS
Run date:	'16:52:27, 06/09/2023
Operator:	Administrator
Comment:	'

Instrument
Model:	F-4700 FL Spectrophotometer
Serial number:	2019-001
ROM Version:	5J24010 00

Instrument parameters
Measurement type:	Wavelength scan
Scan mode:	Emission
Data mode:	Fluorescence
EX WL:	520.0 nm
EM  Start WL:	540.0 nm
EM  End WL:	800.0 nm
Scan speed:	1200 nm/min
Delay:	0.0 s
EX Slit:	10.0 nm
EM Slit:	10.0 nm
PMT Voltage:	604 V
Response:	0.002 s
Corrected spectra:	Off
Shutter control:	On

Processing performed
Savitsky-Golay smoothed
Smoothing order:	3
Number of points:	7
Number of times:	1

Peak integration
Integration method:	Rectangular
Sensitivity:	1
Threshold:	1.000

Peaks
No.	Start(nm)	Apex(nm)	End(nm)	Height(Data)	Valley(nm)	Valley(Data)
1	540.0	600.2	600.8	9560	600.8	9522
2	600.8	604.4	605.2	9645	605.2	9600
3	605.2	606.4	608.4	9671	608.4	9577
4	608.4	609.0	775.6	9610	775.6	79.72
5	775.6	776.6	783.8	82.29	783.8	63.37
6	783.8	784.4	787.4	65.44	787.4	56.86
7	787.4	788.8	791.6	59.20	791.6	50.67
8	791.6	792.6	793.6	53.09	793.6	48.56
9	793.6	794.6	799.0	52.06	799.0	44.64

Data points
nm	Data
540.0	820.7
540.2	817.5
540.4	826.7
540.6	842.3
540.8	852.1
541.0	864.7
541.2	880.4
541.4	888.9
541.6	899.8
541.8	918.8
542.0	923.5
542.2	938.1
542.4	950.1
542.6	967.1
542.8	980.0
543.0	996.3
543.2	999.1
543.4	1007
543.6	1017
543.8	1038
544.0	1054
544.2	1077
544.4	1090
544.6	1101
544.8	1116
545.0	1131
545.2	1149
545.4	1170
545.6	1184
545.8	1193
546.0	1202
546.2	1212
546.4	1230
546.6	1248
546.8	1268
547.0	1282
547.2	1292
547.4	1310
547.6	1328
547.8	1353
548.0	1373
548.2	1387
548.4	1398
548.6	1417
548.8	1437
549.0	1461
549.2	1477
549.4	1497
549.6	1511
549.8	1528
550.0	1551
550.2	1570
550.4	1578
550.6	1598
550.8	1617
551.0	1639
551.2	1666
551.4	1697
551.6	1713
551.8	1730
552.0	1744
552.2	1758
552.4	1778
552.6	1807
552.8	1833
553.0	1858
553.2	1880
553.4	1902
553.6	1931
553.8	1957
554.0	1982
554.2	2010
554.4	2037
554.6	2051
554.8	2080
555.0	2101
555.2	2129
555.4	2157
555.6	2186
555.8	2207
556.0	2227
556.2	2243
556.4	2269
556.6	2298
556.8	2333
557.0	2364
557.2	2391
557.4	2420
557.6	2446
557.8	2478
558.0	2503
558.2	2532
558.4	2560
558.6	2588
558.8	2620
559.0	2647
559.2	2675
559.4	2710
559.6	2738
559.8	2769
560.0	2801
560.2	2834
560.4	2866
560.6	2900
560.8	2930
561.0	2962
561.2	2988
561.4	3028
561.6	3070
561.8	3109
562.0	3142
562.2	3171
562.4	3194
562.6	3228
562.8	3267
563.0	3305
563.2	3343
563.4	3388
563.6	3422
563.8	3459
564.0	3498
564.2	3531
564.4	3569
564.6	3617
564.8	3655
565.0	3701
565.2	3745
565.4	3767
565.6	3808
565.8	3843
566.0	3876
566.2	3919
566.4	3950
566.6	3976
566.8	4025
567.0	4073
567.2	4124
567.4	4165
567.6	4194
567.8	4237
568.0	4279
568.2	4318
568.4	4364
568.6	4401
568.8	4430
569.0	4466
569.2	4506
569.4	4532
569.6	4581
569.8	4638
570.0	4687
570.2	4720
570.4	4770
570.6	4812
570.8	4863
571.0	4917
571.2	4960
571.4	4987
571.6	5027
571.8	5065
572.0	5120
572.2	5184
572.4	5233
572.6	5269
572.8	5303
573.0	5333
573.2	5395
573.4	5455
573.6	5498
573.8	5536
574.0	5563
574.2	5606
574.4	5662
574.6	5708
574.8	5753
575.0	5793
575.2	5824
575.4	5858
575.6	5906
575.8	5945
576.0	5997
576.2	6049
576.4	6110
576.6	6142
576.8	6185
577.0	6211
577.2	6245
577.4	6302
577.6	6347
577.8	6392
578.0	6428
578.2	6463
578.4	6500
578.6	6562
578.8	6602
579.0	6663
579.2	6711
579.4	6752
579.6	6781
579.8	6823
580.0	6862
580.2	6889
580.4	6927
580.6	6973
580.8	7009
581.0	7069
581.2	7108
581.4	7144
581.6	7169
581.8	7221
582.0	7268
582.2	7320
582.4	7339
582.6	7377
582.8	7409
583.0	7444
583.2	7487
583.4	7521
583.6	7545
583.8	7578
584.0	7634
584.2	7657
584.4	7687
584.6	7708
584.8	7742
585.0	7777
585.2	7821
585.4	7859
585.6	7913
585.8	7933
586.0	7958
586.2	7981
586.4	7996
586.6	8036
586.8	8089
587.0	8120
587.2	8160
587.4	8198
587.6	8219
587.8	8250
588.0	8287
588.2	8321
588.4	8351
588.6	8387
588.8	8400
589.0	8427
589.2	8462
589.4	8480
589.6	8504
589.8	8551
590.0	8573
590.2	8615
590.4	8644
590.6	8665
590.8	8703
591.0	8744
591.2	8765
591.4	8787
591.6	8797
591.8	8799
592.0	8837
592.2	8883
592.4	8911
592.6	8929
592.8	8937
593.0	8944
593.2	8977
593.4	9007
593.6	9034
593.8	9048
594.0	9060
594.2	9086
594.4	9099
594.6	9106
594.8	9119
595.0	9140
595.2	9161
595.4	9178
595.6	9182
595.8	9179
596.0	9191
596.2	9241
596.4	9283
596.6	9320
596.8	9341
597.0	9332
597.2	9337
597.4	9357
597.6	9376
597.8	9393
598.0	9401
598.2	9390
598.4	9400
598.6	9415
598.8	9427
599.0	9437
599.2	9458
599.4	9473
599.6	9497
599.8	9526
600.0	9552
600.2	9560
600.4	9554
600.6	9530
600.8	9522
601.0	9526
601.2	9549
601.4	9554
601.6	9556
601.8	9562
602.0	9584
602.2	9587
602.4	9594
602.6	9584
602.8	9586
603.0	9595
603.2	9631
603.4	9640
603.6	9630
603.8	9623
604.0	9604
604.2	9604
604.4	9645
604.6	9635
604.8	9614
605.0	9607
605.2	9600
605.4	9612
605.6	9648
605.8	9649
606.0	9648
606.2	9659
606.4	9671
606.6	9666
606.8	9666
607.0	9642
607.2	9613
607.4	9611
607.6	9603
607.8	9601
608.0	9594
608.2	9582
608.4	9577
608.6	9595
608.8	9600
609.0	9610
609.2	9599
609.4	9593
609.6	9574
609.8	9567
610.0	9549
610.2	9541
610.4	9548
610.6	9559
610.8	9550
611.0	9562
611.2	9556
611.4	9537
611.6	9534
611.8	9518
612.0	9495
612.2	9508
612.4	9485
612.6	9467
612.8	9455
613.0	9425
613.2	9410
613.4	9412
613.6	9399
613.8	9416
614.0	9419
614.2	9391
614.4	9367
614.6	9351
614.8	9334
615.0	9320
615.2	9310
615.4	9288
615.6	9273
615.8	9260
616.0	9258
616.2	9254
616.4	9235
616.6	9208
616.8	9187
617.0	9183
617.2	9171
617.4	9179
617.6	9171
617.8	9154
618.0	9128
618.2	9114
618.4	9068
618.6	9065
618.8	9070
619.0	9077
619.2	9067
619.4	9038
619.6	9004
619.8	8977
620.0	8959
620.2	8951
620.4	8935
620.6	8905
620.8	8871
621.0	8830
621.2	8820
621.4	8818
621.6	8784
621.8	8758
622.0	8718
622.2	8687
622.4	8687
622.6	8674
622.8	8651
623.0	8639
623.2	8625
623.4	8616
623.6	8586
623.8	8543
624.0	8511
624.2	8469
624.4	8457
624.6	8453
624.8	8441
625.0	8422
625.2	8395
625.4	8368
625.6	8344
625.8	8321
626.0	8298
626.2	8267
626.4	8250
626.6	8230
626.8	8200
627.0	8173
627.2	8124
627.4	8086
627.6	8075
627.8	8056
628.0	8042
628.2	8021
628.4	7997
628.6	7978
628.8	7973
629.0	7958
629.2	7924
629.4	7869
629.6	7827
629.8	7782
630.0	7754
630.2	7729
630.4	7716
630.6	7687
630.8	7662
631.0	7633
631.2	7606
631.4	7589
631.6	7566
631.8	7547
632.0	7529
632.2	7498
632.4	7470
632.6	7458
632.8	7408
633.0	7388
633.2	7369
633.4	7354
633.6	7337
633.8	7313
634.0	7268
634.2	7230
634.4	7204
634.6	7177
634.8	7156
635.0	7131
635.2	7104
635.4	7060
635.6	7026
635.8	6988
636.0	6975
636.2	6947
636.4	6926
636.6	6894
636.8	6868
637.0	6844
637.2	6820
637.4	6793
637.6	6770
637.8	6741
638.0	6720
638.2	6691
638.4	6665
638.6	6641
638.8	6615
639.0	6582
639.2	6550
639.4	6520
639.6	6509
639.8	6482
640.0	6463
640.2	6430
640.4	6387
640.6	6353
640.8	6335
641.0	6294
641.2	6261
641.4	6235
641.6	6206
641.8	6189
642.0	6178
642.2	6139
642.4	6101
642.6	6082
642.8	6054
643.0	6041
643.2	6032
643.4	5990
643.6	5950
643.8	5914
644.0	5873
644.2	5855
644.4	5856
644.6	5840
644.8	5831
645.0	5803
645.2	5763
645.4	5742
645.6	5717
645.8	5685
646.0	5664
646.2	5635
646.4	5597
646.6	5571
646.8	5548
647.0	5519
647.2	5499
647.4	5479
647.6	5450
647.8	5414
648.0	5392
648.2	5367
648.4	5338
648.6	5318
648.8	5283
649.0	5235
649.2	5202
649.4	5186
649.6	5173
649.8	5165
650.0	5141
650.2	5108
650.4	5070
650.6	5040
650.8	5017
651.0	5004
651.2	4989
651.4	4972
651.6	4950
651.8	4912
652.0	4885
652.2	4858
652.4	4837
652.6	4810
652.8	4785
653.0	4755
653.2	4740
653.4	4700
653.6	4671
653.8	4635
654.0	4609
654.2	4597
654.4	4589
654.6	4565
654.8	4544
655.0	4524
655.2	4499
655.4	4476
655.6	4448
655.8	4423
656.0	4397
656.2	4383
656.4	4372
656.6	4355
656.8	4328
657.0	4301
657.2	4264
657.4	4242
657.6	4221
657.8	4190
658.0	4163
658.2	4146
658.4	4118
658.6	4106
658.8	4095
659.0	4078
659.2	4055
659.4	4040
659.6	4010
659.8	3990
660.0	3970
660.2	3946
660.4	3912
660.6	3887
660.8	3865
661.0	3848
661.2	3830
661.4	3808
661.6	3791
661.8	3777
662.0	3753
662.2	3732
662.4	3708
662.6	3683
662.8	3659
663.0	3647
663.2	3628
663.4	3609
663.6	3599
663.8	3576
664.0	3544
664.2	3529
664.4	3513
664.6	3495
664.8	3485
665.0	3459
665.2	3435
665.4	3418
665.6	3395
665.8	3385
666.0	3374
666.2	3351
666.4	3328
666.6	3304
666.8	3283
667.0	3271
667.2	3261
667.4	3229
667.6	3211
667.8	3193
668.0	3185
668.2	3176
668.4	3159
668.6	3128
668.8	3104
669.0	3079
669.2	3064
669.4	3047
669.6	3025
669.8	3006
670.0	2993
670.2	2986
670.4	2974
670.6	2954
670.8	2933
671.0	2914
671.2	2897
671.4	2884
671.6	2862
671.8	2838
672.0	2819
672.2	2800
672.4	2779
672.6	2758
672.8	2746
673.0	2735
673.2	2725
673.4	2719
673.6	2702
673.8	2673
674.0	2663
674.2	2652
674.4	2629
674.6	2617
674.8	2599
675.0	2577
675.2	2562
675.4	2557
675.6	2536
675.8	2518
676.0	2497
676.2	2480
676.4	2467
676.6	2466
676.8	2462
677.0	2451
677.2	2433
677.4	2414
677.6	2391
677.8	2373
678.0	2351
678.2	2335
678.4	2315
678.6	2308
678.8	2290
679.0	2283
679.2	2270
679.4	2266
679.6	2250
679.8	2243
680.0	2223
680.2	2203
680.4	2180
680.6	2166
680.8	2152
681.0	2150
681.2	2142
681.4	2133
681.6	2123
681.8	2108
682.0	2093
682.2	2075
682.4	2061
682.6	2048
682.8	2037
683.0	2027
683.2	2017
683.4	2003
683.6	1995
683.8	1984
684.0	1966
684.2	1947
684.4	1931
684.6	1925
684.8	1916
685.0	1913
685.2	1897
685.4	1881
685.6	1859
685.8	1845
686.0	1835
686.2	1834
686.4	1828
686.6	1827
686.8	1809
687.0	1784
687.2	1771
687.4	1757
687.6	1743
687.8	1738
688.0	1731
688.2	1717
688.4	1710
688.6	1695
688.8	1681
689.0	1672
689.2	1670
689.4	1655
689.6	1647
689.8	1641
690.0	1633
690.2	1617
690.4	1609
690.6	1591
690.8	1579
691.0	1571
691.2	1566
691.4	1559
691.6	1551
691.8	1545
692.0	1530
692.2	1519
692.4	1508
692.6	1497
692.8	1491
693.0	1485
693.2	1473
693.4	1463
693.6	1452
693.8	1445
694.0	1440
694.2	1432
694.4	1420
694.6	1405
694.8	1396
695.0	1399
695.2	1390
695.4	1386
695.6	1379
695.8	1368
696.0	1363
696.2	1356
696.4	1341
696.6	1336
696.8	1325
697.0	1318
697.2	1314
697.4	1303
697.6	1295
697.8	1291
698.0	1287
698.2	1284
698.4	1279
698.6	1267
698.8	1250
699.0	1235
699.2	1233
699.4	1231
699.6	1229
699.8	1225
700.0	1219
700.2	1210
700.4	1205
700.6	1195
700.8	1188
701.0	1184
701.2	1180
701.4	1171
701.6	1161
701.8	1154
702.0	1145
702.2	1137
702.4	1129
702.6	1117
702.8	1107
703.0	1109
703.2	1104
703.4	1099
703.6	1091
703.8	1084
704.0	1070
704.2	1070
704.4	1070
704.6	1065
704.8	1056
705.0	1051
705.2	1042
705.4	1039
705.6	1036
705.8	1031
706.0	1020
706.2	1005
706.4	1003
706.6	1003
706.8	993.6
707.0	988.8
707.2	977.8
707.4	963.6
707.6	966.9
707.8	971.5
708.0	965.9
708.2	958.4
708.4	949.5
708.6	937.3
708.8	934.2
709.0	929.5
709.2	926.0
709.4	921.6
709.6	915.3
709.8	909.8
710.0	907.0
710.2	900.6
710.4	892.9
710.6	886.4
710.8	875.4
711.0	870.6
711.2	868.5
711.4	859.5
711.6	852.0
711.8	846.2
712.0	842.2
712.2	842.2
712.4	840.6
712.6	835.3
712.8	829.8
713.0	821.7
713.2	814.9
713.4	804.4
713.6	797.4
713.8	793.8
714.0	791.2
714.2	787.6
714.4	783.2
714.6	774.5
714.8	768.8
715.0	767.9
715.2	759.3
715.4	753.9
715.6	747.4
715.8	743.7
716.0	736.9
716.2	733.3
716.4	726.3
716.6	722.4
716.8	715.5
717.0	712.6
717.2	709.9
717.4	706.3
717.6	708.1
717.8	704.0
718.0	692.8
718.2	683.7
718.4	676.7
718.6	671.5
718.8	669.1
719.0	666.1
719.2	662.0
719.4	654.6
719.6	645.9
719.8	642.2
720.0	639.4
720.2	640.4
720.4	643.8
720.6	639.7
720.8	632.0
721.0	624.8
721.2	614.3
721.4	608.2
721.6	601.9
721.8	598.6
722.0	597.2
722.2	594.6
722.4	589.6
722.6	585.0
722.8	576.6
723.0	571.6
723.2	571.2
723.4	567.5
723.6	562.6
723.8	556.7
724.0	554.4
724.2	550.4
724.4	550.6
724.6	546.6
724.8	541.2
725.0	535.7
725.2	530.8
725.4	526.8
725.6	524.5
725.8	519.3
726.0	518.8
726.2	516.4
726.4	510.8
726.6	507.2
726.8	501.9
727.0	496.6
727.2	498.6
727.4	494.5
727.6	491.4
727.8	486.0
728.0	478.0
728.2	470.0
728.4	465.3
728.6	460.1
728.8	459.1
729.0	456.8
729.2	453.5
729.4	452.3
729.6	452.0
729.8	453.2
730.0	451.1
730.2	446.5
730.4	439.4
730.6	436.0
730.8	434.5
731.0	430.1
731.2	422.4
731.4	418.6
731.6	414.3
731.8	410.1
732.0	408.4
732.2	405.3
732.4	403.3
732.6	402.1
732.8	404.5
733.0	399.8
733.2	394.7
733.4	390.3
733.6	385.5
733.8	378.7
734.0	378.9
734.2	379.7
734.4	378.5
734.6	379.0
734.8	375.0
735.0	369.5
735.2	365.3
735.4	362.4
735.6	357.9
735.8	354.7
736.0	348.4
736.2	347.4
736.4	348.8
736.6	345.0
736.8	342.6
737.0	337.5
737.2	329.2
737.4	330.7
737.6	330.8
737.8	327.0
738.0	328.1
738.2	328.9
738.4	327.8
738.6	327.1
738.8	320.8
739.0	314.0
739.2	312.2
739.4	311.8
739.6	309.5
739.8	305.9
740.0	301.9
740.2	298.2
740.4	296.4
740.6	293.9
740.8	291.4
741.0	290.3
741.2	291.6
741.4	291.6
741.6	288.1
741.8	284.1
742.0	282.6
742.2	280.7
742.4	280.8
742.6	281.7
742.8	279.0
743.0	276.6
743.2	273.8
743.4	271.5
743.6	266.2
743.8	261.8
744.0	258.7
744.2	257.1
744.4	258.7
744.6	262.5
744.8	262.0
745.0	257.7
745.2	253.3
745.4	245.6
745.6	243.5
745.8	242.8
746.0	243.0
746.2	241.9
746.4	243.1
746.6	238.3
746.8	236.2
747.0	233.7
747.2	230.0
747.4	227.3
747.6	228.1
747.8	227.0
748.0	225.1
748.2	226.1
748.4	223.9
748.6	224.8
748.8	223.1
749.0	223.0
749.2	218.8
749.4	216.8
749.6	213.6
749.8	212.6
750.0	207.9
750.2	204.0
750.4	200.7
750.6	201.3
750.8	202.5
751.0	203.8
751.2	204.2
751.4	201.7
751.6	200.2
751.8	197.1
752.0	195.2
752.2	193.9
752.4	193.6
752.6	190.9
752.8	189.4
753.0	185.3
753.2	185.0
753.4	184.1
753.6	182.3
753.8	180.7
754.0	180.8
754.2	180.1
754.4	178.3
754.6	176.8
754.8	173.5
755.0	175.2
755.2	175.1
755.4	174.5
755.6	172.5
755.8	172.2
756.0	171.4
756.2	172.3
756.4	169.7
756.6	167.2
756.8	165.1
757.0	162.2
757.2	161.7
757.4	161.3
757.6	159.2
757.8	156.3
758.0	155.2
758.2	152.5
758.4	154.5
758.6	157.5
758.8	156.2
759.0	152.4
759.2	148.8
759.4	145.0
759.6	146.5
759.8	148.4
760.0	147.4
760.2	146.7
760.4	144.4
760.6	142.8
760.8	143.2
761.0	140.1
761.2	137.6
761.4	135.7
761.6	135.1
761.8	135.0
762.0	135.7
762.2	133.4
762.4	133.5
762.6	130.4
762.8	129.8
763.0	127.9
763.2	127.1
763.4	127.2
763.6	127.8
763.8	127.4
764.0	128.4
764.2	128.0
764.4	126.5
764.6	124.8
764.8	120.6
765.0	118.5
765.2	116.8
765.4	116.0
765.6	116.0
765.8	116.9
766.0	117.1
766.2	118.0
766.4	116.7
766.6	116.0
766.8	115.5
767.0	113.8
767.2	111.5
767.4	109.8
767.6	108.1
767.8	108.5
768.0	109.3
768.2	108.6
768.4	107.6
768.6	108.5
768.8	108.1
769.0	107.8
769.2	105.6
769.4	103.6
769.6	102.4
769.8	101.3
770.0	101.5
770.2	101.9
770.4	101.0
770.6	99.66
770.8	98.65
771.0	96.44
771.2	96.70
771.4	97.88
771.6	98.91
771.8	97.56
772.0	96.17
772.2	95.22
772.4	94.00
772.6	93.65
772.8	92.16
773.0	90.31
773.2	88.70
773.4	88.40
773.6	88.78
773.8	88.80
774.0	87.10
774.2	87.99
774.4	87.20
774.6	87.06
774.8	85.80
775.0	83.85
775.2	81.64
775.4	81.23
775.6	79.72
775.8	80.58
776.0	80.48
776.2	81.21
776.4	82.00
776.6	82.29
776.8	81.09
777.0	81.11
777.2	80.68
777.4	81.10
777.6	79.42
777.8	77.34
778.0	76.61
778.2	77.16
778.4	77.76
778.6	79.11
778.8	77.25
779.0	74.87
779.2	75.72
779.4	75.39
779.6	75.70
779.8	74.67
780.0	73.34
780.2	71.44
780.4	70.61
780.6	69.63
780.8	69.47
781.0	68.40
781.2	68.81
781.4	69.11
781.6	68.13
781.8	67.31
782.0	67.56
782.2	67.37
782.4	67.25
782.6	67.18
782.8	66.17
783.0	64.37
783.2	64.55
783.4	63.74
783.6	64.18
783.8	63.37
784.0	64.95
784.2	64.69
784.4	65.44
784.6	64.53
784.8	63.99
785.0	62.45
785.2	63.06
785.4	62.32
785.6	63.27
785.8	62.74
786.0	62.00
786.2	60.82
786.4	59.43
786.6	57.71
786.8	58.09
787.0	58.58
787.2	58.91
787.4	56.86
787.6	57.35
787.8	57.21
788.0	58.06
788.2	58.65
788.4	59.12
788.6	58.63
788.8	59.20
789.0	58.63
789.2	57.83
789.4	56.21
789.6	55.65
789.8	55.68
790.0	54.77
790.2	55.58
790.4	55.16
790.6	55.31
790.8	54.93
791.0	52.63
791.2	50.80
791.4	51.54
791.6	50.67
791.8	51.92
792.0	52.68
792.2	52.65
792.4	52.24
792.6	53.09
792.8	52.39
793.0	51.01
793.2	50.06
793.4	49.62
793.6	48.56
793.8	49.30
794.0	50.54
794.2	51.37
794.4	51.40
794.6	52.06
794.8	51.06
795.0	50.77
795.2	49.80
795.4	49.54
795.6	48.78
795.8	49.34
796.0	49.87
796.2	49.37
796.4	48.78
796.6	48.78
796.8	47.97
797.0	46.98
797.2	47.20
797.4	46.32
797.6	47.16
797.8	46.78
798.0	46.17
798.2	44.90
798.4	45.04
798.6	45.55
798.8	44.87
799.0	44.64
799.2	45.89
799.4	45.52
799.6	46.39
799.8	45.72
800.0	42.11

