Sample:	'20211010A(EM)
File name:	R-CDs 7.FDS
Run date:	'16:42:34, 06/09/2023
Operator:	Administrator
Comment:	'

Instrument
Model:	F-4700 FL Spectrophotometer
Serial number:	2019-001
ROM Version:	5J24010 00

Instrument parameters
Measurement type:	Wavelength scan
Scan mode:	Emission
Data mode:	Fluorescence
EX WL:	520.0 nm
EM  Start WL:	540.0 nm
EM  End WL:	800.0 nm
Scan speed:	1200 nm/min
Delay:	0.0 s
EX Slit:	10.0 nm
EM Slit:	10.0 nm
PMT Voltage:	604 V
Response:	0.002 s
Corrected spectra:	Off
Shutter control:	On

Processing performed
Savitsky-Golay smoothed
Smoothing order:	3
Number of points:	7
Number of times:	1

Peak integration
Integration method:	Rectangular
Sensitivity:	1
Threshold:	1.000

Peaks
No.	Start(nm)	Apex(nm)	End(nm)	Height(Data)	Valley(nm)	Valley(Data)
1	540.0	601.2	601.8	6962	601.8	6932
2	601.8	604.0	605.0	7045	605.0	6987
3	605.0	607.2	791.2	7035	791.2	39.10
4	791.2	792.0	795.4	40.92	795.4	35.27
5	795.4	796.6	800.0	37.90	800.0	35.55

Data points
nm	Data
540.0	637.2
540.2	640.0
540.4	645.1
540.6	651.3
540.8	656.6
541.0	660.2
541.2	666.9
541.4	675.6
541.6	682.6
541.8	691.6
542.0	698.7
542.2	704.1
542.4	712.4
542.6	722.0
542.8	730.5
543.0	740.5
543.2	755.0
543.4	764.5
543.6	772.7
543.8	778.4
544.0	785.3
544.2	798.8
544.4	814.3
544.6	823.7
544.8	839.1
545.0	852.6
545.2	862.5
545.4	873.7
545.6	885.5
545.8	893.5
546.0	907.3
546.2	919.0
546.4	924.3
546.6	932.7
546.8	948.2
547.0	959.4
547.2	975.2
547.4	983.8
547.6	991.9
547.8	1003
548.0	1015
548.2	1028
548.4	1042
548.6	1056
548.8	1069
549.0	1085
549.2	1095
549.4	1110
549.6	1121
549.8	1139
550.0	1157
550.2	1173
550.4	1185
550.6	1199
550.8	1212
551.0	1228
551.2	1246
551.4	1260
551.6	1275
551.8	1284
552.0	1296
552.2	1310
552.4	1323
552.6	1335
552.8	1348
553.0	1361
553.2	1384
553.4	1411
553.6	1440
553.8	1461
554.0	1479
554.2	1494
554.4	1509
554.6	1531
554.8	1551
555.0	1563
555.2	1580
555.4	1595
555.6	1606
555.8	1623
556.0	1638
556.2	1658
556.4	1679
556.6	1701
556.8	1729
557.0	1752
557.2	1774
557.4	1793
557.6	1804
557.8	1820
558.0	1842
558.2	1863
558.4	1889
558.6	1915
558.8	1942
559.0	1973
559.2	1994
559.4	2002
559.6	2020
559.8	2038
560.0	2061
560.2	2086
560.4	2106
560.6	2129
560.8	2157
561.0	2185
561.2	2211
561.4	2238
561.6	2262
561.8	2296
562.0	2320
562.2	2344
562.4	2359
562.6	2377
562.8	2399
563.0	2423
563.2	2450
563.4	2479
563.6	2507
563.8	2536
564.0	2569
564.2	2602
564.4	2633
564.6	2652
564.8	2674
565.0	2698
565.2	2719
565.4	2752
565.6	2781
565.8	2802
566.0	2828
566.2	2858
566.4	2885
566.6	2926
566.8	2960
567.0	2994
567.2	3028
567.4	3058
567.6	3082
567.8	3104
568.0	3124
568.2	3148
568.4	3185
568.6	3226
568.8	3263
569.0	3290
569.2	3322
569.4	3342
569.6	3375
569.8	3402
570.0	3422
570.2	3453
570.4	3492
570.6	3526
570.8	3563
571.0	3586
571.2	3611
571.4	3651
571.6	3690
571.8	3721
572.0	3747
572.2	3779
572.4	3808
572.6	3838
572.8	3882
573.0	3903
573.2	3931
573.4	3967
573.6	3987
573.8	4016
574.0	4055
574.2	4074
574.4	4103
574.6	4149
574.8	4192
575.0	4227
575.2	4257
575.4	4277
575.6	4309
575.8	4360
576.0	4391
576.2	4419
576.4	4447
576.6	4476
576.8	4509
577.0	4543
577.2	4573
577.4	4611
577.6	4642
577.8	4674
578.0	4694
578.2	4715
578.4	4751
578.6	4785
578.8	4807
579.0	4843
579.2	4874
579.4	4917
579.6	4943
579.8	4968
580.0	4988
580.2	5010
580.4	5043
580.6	5083
580.8	5111
581.0	5147
581.2	5175
581.4	5202
581.6	5231
581.8	5262
582.0	5298
582.2	5334
582.4	5354
582.6	5390
582.8	5415
583.0	5445
583.2	5468
583.4	5497
583.6	5513
583.8	5536
584.0	5563
584.2	5588
584.4	5601
584.6	5631
584.8	5649
585.0	5672
585.2	5696
585.4	5728
585.6	5756
585.8	5803
586.0	5836
586.2	5868
586.4	5874
586.6	5887
586.8	5908
587.0	5939
587.2	5959
587.4	5987
587.6	6005
587.8	6023
588.0	6056
588.2	6077
588.4	6092
588.6	6108
588.8	6131
589.0	6141
589.2	6164
589.4	6179
589.6	6200
589.8	6234
590.0	6259
590.2	6272
590.4	6285
590.6	6294
590.8	6311
591.0	6334
591.2	6360
591.4	6382
591.6	6407
591.8	6426
592.0	6426
592.2	6414
592.4	6431
592.6	6454
592.8	6497
593.0	6537
593.2	6555
593.4	6556
593.6	6564
593.8	6574
594.0	6588
594.2	6598
594.4	6632
594.6	6646
594.8	6665
595.0	6680
595.2	6667
595.4	6659
595.6	6686
595.8	6701
596.0	6726
596.2	6748
596.4	6743
596.6	6755
596.8	6775
597.0	6784
597.2	6811
597.4	6837
597.6	6852
597.8	6858
598.0	6856
598.2	6838
598.4	6840
598.6	6854
598.8	6858
599.0	6878
599.2	6896
599.4	6904
599.6	6912
599.8	6920
600.0	6911
600.2	6921
600.4	6933
600.6	6936
600.8	6951
601.0	6958
601.2	6962
601.4	6955
601.6	6950
601.8	6932
602.0	6943
602.2	6955
602.4	6974
602.6	6986
602.8	6988
603.0	6984
603.2	6988
603.4	7000
603.6	7018
603.8	7033
604.0	7045
604.2	7040
604.4	7028
604.6	7010
604.8	6992
605.0	6987
605.2	6991
605.4	6998
605.6	7009
605.8	7015
606.0	7019
606.2	7020
606.4	7007
606.6	7018
606.8	7009
607.0	7022
607.2	7035
607.4	7031
607.6	7023
607.8	7030
608.0	7001
608.2	6999
608.4	6989
608.6	7006
608.8	7010
609.0	7014
609.2	6994
609.4	6978
609.6	6980
609.8	7009
610.0	7006
610.2	6999
610.4	6989
610.6	6977
610.8	6986
611.0	6989
611.2	6967
611.4	6949
611.6	6935
611.8	6919
612.0	6915
612.2	6899
612.4	6891
612.6	6901
612.8	6904
613.0	6902
613.2	6902
613.4	6867
613.6	6863
613.8	6854
614.0	6853
614.2	6851
614.4	6845
614.6	6818
614.8	6813
615.0	6799
615.2	6791
615.4	6774
615.6	6767
615.8	6772
616.0	6767
616.2	6751
616.4	6735
616.6	6702
616.8	6695
617.0	6693
617.2	6671
617.4	6659
617.6	6666
617.8	6644
618.0	6638
618.2	6612
618.4	6592
618.6	6589
618.8	6589
619.0	6564
619.2	6557
619.4	6525
619.6	6500
619.8	6501
620.0	6493
620.2	6469
620.4	6463
620.6	6446
620.8	6429
621.0	6421
621.2	6418
621.4	6397
621.6	6384
621.8	6388
622.0	6367
622.2	6344
622.4	6330
622.6	6311
622.8	6303
623.0	6286
623.2	6249
623.4	6224
623.6	6209
623.8	6197
624.0	6195
624.2	6189
624.4	6168
624.6	6135
624.8	6124
625.0	6105
625.2	6101
625.4	6111
625.6	6094
625.8	6074
626.0	6059
626.2	6019
626.4	5989
626.6	5966
626.8	5952
627.0	5948
627.2	5936
627.4	5912
627.6	5881
627.8	5853
628.0	5840
628.2	5819
628.4	5800
628.6	5787
628.8	5771
629.0	5741
629.2	5720
629.4	5697
629.6	5685
629.8	5687
630.0	5687
630.2	5656
630.4	5626
630.6	5583
630.8	5555
631.0	5550
631.2	5547
631.4	5543
631.6	5532
631.8	5503
632.0	5486
632.2	5461
632.4	5438
632.6	5418
632.8	5411
633.0	5405
633.2	5394
633.4	5369
633.6	5346
633.8	5310
634.0	5280
634.2	5262
634.4	5228
634.6	5215
634.8	5205
635.0	5192
635.2	5162
635.4	5152
635.6	5127
635.8	5113
636.0	5093
636.2	5072
636.4	5048
636.6	5036
636.8	5018
637.0	4983
637.2	4952
637.4	4926
637.6	4899
637.8	4878
638.0	4871
638.2	4856
638.4	4844
638.6	4839
638.8	4816
639.0	4785
639.2	4766
639.4	4744
639.6	4721
639.8	4705
640.0	4687
640.2	4658
640.4	4630
640.6	4606
640.8	4599
641.0	4596
641.2	4590
641.4	4577
641.6	4552
641.8	4535
642.0	4525
642.2	4489
642.4	4452
642.6	4421
642.8	4398
643.0	4391
643.2	4391
643.4	4375
643.6	4358
643.8	4329
644.0	4293
644.2	4268
644.4	4249
644.6	4224
644.8	4204
645.0	4189
645.2	4158
645.4	4141
645.6	4121
645.8	4104
646.0	4087
646.2	4090
646.4	4079
646.6	4060
646.8	4030
647.0	4003
647.2	3970
647.4	3950
647.6	3945
647.8	3930
648.0	3912
648.2	3890
648.4	3863
648.6	3835
648.8	3824
649.0	3806
649.2	3794
649.4	3788
649.6	3764
649.8	3745
650.0	3731
650.2	3718
650.4	3686
650.6	3667
650.8	3640
651.0	3623
651.2	3613
651.4	3611
651.6	3586
651.8	3573
652.0	3552
652.2	3525
652.4	3504
652.6	3487
652.8	3466
653.0	3450
653.2	3425
653.4	3409
653.6	3398
653.8	3383
654.0	3366
654.2	3351
654.4	3331
654.6	3307
654.8	3283
655.0	3263
655.2	3252
655.4	3246
655.6	3236
655.8	3219
656.0	3203
656.2	3186
656.4	3168
656.6	3143
656.8	3122
657.0	3118
657.2	3101
657.4	3086
657.6	3065
657.8	3040
658.0	3023
658.2	3015
658.4	2987
658.6	2969
658.8	2958
659.0	2951
659.2	2943
659.4	2932
659.6	2905
659.8	2874
660.0	2862
660.2	2854
660.4	2841
660.6	2835
660.8	2819
661.0	2795
661.2	2783
661.4	2766
661.6	2743
661.8	2722
662.0	2708
662.2	2689
662.4	2675
662.6	2664
662.8	2648
663.0	2639
663.2	2636
663.4	2631
663.6	2624
663.8	2613
664.0	2591
664.2	2569
664.4	2541
664.6	2523
664.8	2510
665.0	2504
665.2	2495
665.4	2480
665.6	2460
665.8	2440
666.0	2425
666.2	2411
666.4	2403
666.6	2385
666.8	2371
667.0	2356
667.2	2341
667.4	2328
667.6	2322
667.8	2308
668.0	2297
668.2	2281
668.4	2259
668.6	2248
668.8	2238
669.0	2233
669.2	2230
669.4	2222
669.6	2211
669.8	2199
670.0	2179
670.2	2162
670.4	2148
670.6	2134
670.8	2120
671.0	2099
671.2	2081
671.4	2073
671.6	2067
671.8	2058
672.0	2047
672.2	2030
672.4	2020
672.6	2019
672.8	2014
673.0	2004
673.2	1996
673.4	1976
673.6	1958
673.8	1930
674.0	1915
674.2	1904
674.4	1899
674.6	1887
674.8	1880
675.0	1861
675.2	1861
675.4	1854
675.6	1847
675.8	1837
676.0	1821
676.2	1805
676.4	1796
676.6	1784
676.8	1779
677.0	1774
677.2	1759
677.4	1744
677.6	1730
677.8	1722
678.0	1714
678.2	1700
678.4	1686
678.6	1672
678.8	1662
679.0	1659
679.2	1645
679.4	1631
679.6	1620
679.8	1607
680.0	1607
680.2	1600
680.4	1587
680.6	1579
680.8	1566
681.0	1554
681.2	1547
681.4	1528
681.6	1515
681.8	1507
682.0	1497
682.2	1495
682.4	1492
682.6	1484
682.8	1474
683.0	1462
683.2	1449
683.4	1438
683.6	1427
683.8	1414
684.0	1410
684.2	1405
684.4	1406
684.6	1401
684.8	1394
685.0	1378
685.2	1369
685.4	1357
685.6	1347
685.8	1343
686.0	1340
686.2	1328
686.4	1316
686.6	1301
686.8	1289
687.0	1277
687.2	1272
687.4	1266
687.6	1263
687.8	1257
688.0	1260
688.2	1255
688.4	1248
688.6	1236
688.8	1224
689.0	1212
689.2	1208
689.4	1204
689.6	1198
689.8	1195
690.0	1189
690.2	1181
690.4	1168
690.6	1158
690.8	1147
691.0	1142
691.2	1136
691.4	1131
691.6	1124
691.8	1118
692.0	1105
692.2	1099
692.4	1093
692.6	1085
692.8	1079
693.0	1076
693.2	1069
693.4	1066
693.6	1056
693.8	1046
694.0	1030
694.2	1028
694.4	1024
694.6	1022
694.8	1017
695.0	1014
695.2	1003
695.4	998.9
695.6	986.8
695.8	976.5
696.0	971.7
696.2	969.2
696.4	971.1
696.6	971.5
696.8	960.2
697.0	949.5
697.2	945.7
697.4	935.2
697.6	932.0
697.8	925.0
698.0	915.9
698.2	917.0
698.4	916.1
698.6	906.1
698.8	899.3
699.0	889.6
699.2	884.3
699.4	883.9
699.6	878.7
699.8	873.4
700.0	863.3
700.2	862.7
700.4	865.1
700.6	866.9
700.8	865.7
701.0	862.4
701.2	846.0
701.4	836.1
701.6	828.3
701.8	826.6
702.0	828.8
702.2	831.0
702.4	821.3
702.6	815.9
702.8	807.8
703.0	803.0
703.2	806.7
703.4	806.2
703.6	795.5
703.8	788.6
704.0	778.5
704.2	771.6
704.4	772.5
704.6	769.8
704.8	761.8
705.0	760.4
705.2	759.3
705.4	756.9
705.6	750.1
705.8	740.1
706.0	727.6
706.2	725.8
706.4	724.5
706.6	722.8
706.8	718.5
707.0	711.0
707.2	704.0
707.4	700.4
707.6	696.2
707.8	692.3
708.0	687.7
708.2	681.0
708.4	678.8
708.6	678.1
708.8	678.5
709.0	673.1
709.2	666.7
709.4	662.3
709.6	657.4
709.8	652.4
710.0	651.4
710.2	643.0
710.4	642.1
710.6	643.5
710.8	639.5
711.0	635.2
711.2	631.6
711.4	622.0
711.6	621.4
711.8	618.7
712.0	608.7
712.2	598.8
712.4	587.8
712.6	583.7
712.8	588.5
713.0	591.2
713.2	592.9
713.4	589.4
713.6	584.6
713.8	580.5
714.0	578.6
714.2	569.7
714.4	565.3
714.6	558.9
714.8	554.7
715.0	549.6
715.2	549.9
715.4	546.6
715.6	547.7
715.8	546.0
716.0	541.1
716.2	537.0
716.4	536.4
716.6	533.3
716.8	531.4
717.0	527.6
717.2	521.4
717.4	514.8
717.6	510.6
717.8	503.3
718.0	495.9
718.2	491.9
718.4	486.1
718.6	481.0
718.8	478.5
719.0	476.2
719.2	476.6
719.4	475.6
719.6	475.1
719.8	471.6
720.0	467.3
720.2	463.0
720.4	459.0
720.6	453.1
720.8	453.8
721.0	449.7
721.2	445.7
721.4	442.9
721.6	437.4
721.8	434.2
722.0	430.5
722.2	424.6
722.4	422.2
722.6	423.7
722.8	423.8
723.0	422.1
723.2	418.0
723.4	410.4
723.6	407.0
723.8	406.4
724.0	404.2
724.2	402.3
724.4	404.8
724.6	398.4
724.8	391.4
725.0	385.7
725.2	378.1
725.4	375.6
725.6	378.4
725.8	376.6
726.0	372.6
726.2	369.6
726.4	366.3
726.6	366.0
726.8	364.9
727.0	363.8
727.2	358.8
727.4	353.2
727.6	351.4
727.8	352.5
728.0	350.5
728.2	349.0
728.4	343.7
728.6	340.2
728.8	336.4
729.0	336.5
729.2	333.6
729.4	331.2
729.6	326.8
729.8	326.8
730.0	322.1
730.2	318.4
730.4	313.7
730.6	309.3
730.8	306.4
731.0	309.3
731.2	312.1
731.4	307.6
731.6	302.9
731.8	299.7
732.0	297.0
732.2	298.0
732.4	299.0
732.6	295.2
732.8	291.5
733.0	286.8
733.2	283.5
733.4	281.5
733.6	277.2
733.8	276.7
734.0	273.7
734.2	269.7
734.4	270.8
734.6	270.3
734.8	266.8
735.0	266.6
735.2	262.9
735.4	261.8
735.6	259.8
735.8	258.5
736.0	257.9
736.2	257.5
736.4	256.5
736.6	255.8
736.8	250.4
737.0	247.3
737.2	243.7
737.4	241.4
737.6	239.8
737.8	240.7
738.0	238.8
738.2	238.2
738.4	237.9
738.6	237.6
738.8	235.8
739.0	231.0
739.2	224.1
739.4	218.9
739.6	218.6
739.8	221.1
740.0	223.1
740.2	220.8
740.4	218.1
740.6	213.5
740.8	212.2
741.0	213.0
741.2	211.2
741.4	210.0
741.6	208.4
741.8	202.6
742.0	200.1
742.2	199.7
742.4	201.1
742.6	205.1
742.8	205.3
743.0	200.0
743.2	195.7
743.4	193.3
743.6	193.7
743.8	195.3
744.0	194.8
744.2	193.0
744.4	189.3
744.6	185.6
744.8	183.1
745.0	180.6
745.2	179.0
745.4	178.8
745.6	179.9
745.8	180.9
746.0	178.6
746.2	176.9
746.4	174.2
746.6	173.0
746.8	172.2
747.0	171.3
747.2	168.0
747.4	165.9
747.6	164.6
747.8	164.9
748.0	164.2
748.2	163.5
748.4	163.0
748.6	161.2
748.8	162.6
749.0	161.3
749.2	160.3
749.4	157.6
749.6	153.9
749.8	150.8
750.0	151.1
750.2	149.5
750.4	151.6
750.6	152.8
750.8	152.3
751.0	150.6
751.2	148.5
751.4	145.5
751.6	144.0
751.8	143.4
752.0	142.1
752.2	141.7
752.4	142.4
752.6	140.4
752.8	138.0
753.0	138.0
753.2	136.0
753.4	134.3
753.6	133.3
753.8	131.6
754.0	131.4
754.2	132.8
754.4	133.8
754.6	131.6
754.8	129.7
755.0	128.8
755.2	127.2
755.4	126.1
755.6	126.6
755.8	123.7
756.0	122.3
756.2	124.0
756.4	123.4
756.6	123.1
756.8	122.8
757.0	119.6
757.2	117.3
757.4	117.4
757.6	116.0
757.8	115.9
758.0	116.2
758.2	115.4
758.4	114.1
758.6	112.8
758.8	112.3
759.0	113.1
759.2	112.8
759.4	111.1
759.6	109.7
759.8	108.4
760.0	105.6
760.2	104.1
760.4	105.1
760.6	105.1
760.8	106.1
761.0	107.1
761.2	104.7
761.4	103.2
761.6	102.2
761.8	99.80
762.0	98.69
762.2	99.03
762.4	99.63
762.6	100.1
762.8	100.1
763.0	99.37
763.2	98.70
763.4	97.60
763.6	96.08
763.8	95.38
764.0	94.00
764.2	93.50
764.4	91.78
764.6	90.39
764.8	89.45
765.0	88.64
765.2	87.03
765.4	88.08
765.6	87.30
765.8	87.61
766.0	87.38
766.2	85.82
766.4	84.97
766.6	83.86
766.8	82.93
767.0	83.53
767.2	83.03
767.4	84.25
767.6	84.78
767.8	83.47
768.0	82.69
768.2	82.00
768.4	81.19
768.6	81.14
768.8	81.38
769.0	79.58
769.2	79.25
769.4	77.89
769.6	76.74
769.8	74.75
770.0	73.87
770.2	72.00
770.4	73.63
770.6	73.60
770.8	74.46
771.0	74.48
771.2	72.65
771.4	71.05
771.6	70.99
771.8	69.82
772.0	70.13
772.2	68.86
772.4	67.54
772.6	68.50
772.8	68.93
773.0	68.33
773.2	68.20
773.4	66.00
773.6	64.76
773.8	64.93
774.0	64.77
774.2	63.70
774.4	63.54
774.6	63.42
774.8	62.56
775.0	62.02
775.2	61.27
775.4	62.07
775.6	62.20
775.8	61.62
776.0	60.43
776.2	59.13
776.4	57.06
776.6	58.20
776.8	58.26
777.0	58.86
777.2	59.69
777.4	60.77
777.6	59.06
777.8	57.55
778.0	55.45
778.2	55.23
778.4	54.52
778.6	55.62
778.8	54.83
779.0	54.70
779.2	54.95
779.4	54.89
779.6	55.40
779.8	54.87
780.0	53.12
780.2	52.25
780.4	51.49
780.6	50.61
780.8	52.11
781.0	51.72
781.2	50.89
781.4	50.08
781.6	50.33
781.8	50.48
782.0	51.79
782.2	52.88
782.4	51.95
782.6	49.88
782.8	48.86
783.0	47.51
783.2	46.79
783.4	48.32
783.6	48.60
783.8	48.05
784.0	48.57
784.2	48.72
784.4	47.57
784.6	48.09
784.8	47.19
785.0	45.43
785.2	46.86
785.4	47.55
785.6	47.14
785.8	46.66
786.0	45.82
786.2	44.79
786.4	44.99
786.6	45.02
786.8	43.99
787.0	43.27
787.2	43.13
787.4	42.80
787.6	43.00
787.8	43.71
788.0	43.11
788.2	43.39
788.4	42.81
788.6	42.52
788.8	43.09
789.0	42.86
789.2	42.70
789.4	42.39
789.6	41.60
789.8	40.62
790.0	39.60
790.2	39.60
790.4	40.55
790.6	40.86
790.8	40.81
791.0	39.65
791.2	39.10
791.4	39.46
791.6	40.07
791.8	39.88
792.0	40.92
792.2	40.82
792.4	40.38
792.6	39.99
792.8	39.63
793.0	38.51
793.2	38.88
793.4	38.27
793.6	36.89
793.8	37.16
794.0	37.01
794.2	36.84
794.4	36.89
794.6	36.95
794.8	36.70
795.0	36.06
795.2	35.48
795.4	35.27
795.6	35.54
795.8	35.83
796.0	37.28
796.2	37.24
796.4	37.67
796.6	37.90
796.8	37.39
797.0	36.32
797.2	37.31
797.4	37.15
797.6	36.63
797.8	36.83
798.0	36.50
798.2	36.75
798.4	36.65
798.6	35.54
798.8	34.04
799.0	33.03
799.2	32.76
799.4	33.24
799.6	32.93
799.8	33.45
800.0	35.55

