Sample:	'20211010A(EM)
File name:	R-CDs 3.FDS
Run date:	'16:26:02, 06/09/2023
Operator:	Administrator
Comment:	'

Instrument
Model:	F-4700 FL Spectrophotometer
Serial number:	2019-001
ROM Version:	5J24010 00

Instrument parameters
Measurement type:	Wavelength scan
Scan mode:	Emission
Data mode:	Fluorescence
EX WL:	520.0 nm
EM  Start WL:	540.0 nm
EM  End WL:	800.0 nm
Scan speed:	1200 nm/min
Delay:	0.0 s
EX Slit:	10.0 nm
EM Slit:	10.0 nm
PMT Voltage:	615 V
Response:	0.002 s
Corrected spectra:	Off
Shutter control:	On

Processing performed
Savitsky-Golay smoothed
Smoothing order:	3
Number of points:	7
Number of times:	1

Peak integration
Integration method:	Rectangular
Sensitivity:	1
Threshold:	1.000

Peaks
No.	Start(nm)	Apex(nm)	End(nm)	Height(Data)	Valley(nm)	Valley(Data)
1	540.0	605.2	606.0	7856	606.0	7841
2	606.0	606.8	608.6	7870	608.6	7822
3	608.6	609.0	610.8	7847	610.8	7748
4	610.8	612.2	750.0	7763	750.0	163.3
5	750.0	750.6	776.0	167.7	776.0	64.70
6	776.0	776.8	784.8	67.49	784.8	48.52
7	784.8	785.8	786.6	49.75	786.6	48.05
8	786.6	788.0	791.0	50.06	791.0	42.67
9	791.0	791.6	795.8	45.31	795.8	35.78
10	795.8	797.6	800.0	40.27	800.0	37.75

Data points
nm	Data
540.0	677.9
540.2	692.3
540.4	701.4
540.6	707.2
540.8	711.9
541.0	717.2
541.2	724.4
541.4	733.9
541.6	746.2
541.8	755.7
542.0	765.8
542.2	780.7
542.4	792.2
542.6	808.2
542.8	821.5
543.0	826.4
543.2	832.5
543.4	844.7
543.6	853.9
543.8	868.4
544.0	880.0
544.2	883.1
544.4	893.3
544.6	908.2
544.8	919.0
545.0	934.0
545.2	948.9
545.4	959.8
545.6	971.7
545.8	983.9
546.0	990.1
546.2	1002
546.4	1013
546.6	1032
546.8	1056
547.0	1074
547.2	1088
547.4	1095
547.6	1100
547.8	1117
548.0	1132
548.2	1136
548.4	1147
548.6	1163
548.8	1179
549.0	1203
549.2	1218
549.4	1233
549.6	1250
549.8	1266
550.0	1277
550.2	1294
550.4	1307
550.6	1325
550.8	1345
551.0	1359
551.2	1376
551.4	1390
551.6	1408
551.8	1423
552.0	1443
552.2	1462
552.4	1480
552.6	1494
552.8	1517
553.0	1528
553.2	1548
553.4	1567
553.6	1583
553.8	1597
554.0	1617
554.2	1636
554.4	1665
554.6	1683
554.8	1705
555.0	1723
555.2	1740
555.4	1760
555.6	1784
555.8	1805
556.0	1832
556.2	1854
556.4	1864
556.6	1882
556.8	1908
557.0	1938
557.2	1972
557.4	1990
557.6	2000
557.8	2015
558.0	2038
558.2	2066
558.4	2097
558.6	2122
558.8	2145
559.0	2165
559.2	2191
559.4	2216
559.6	2246
559.8	2272
560.0	2297
560.2	2322
560.4	2347
560.6	2372
560.8	2395
561.0	2423
561.2	2445
561.4	2474
561.6	2508
561.8	2533
562.0	2559
562.2	2591
562.4	2617
562.6	2647
562.8	2682
563.0	2703
563.2	2737
563.4	2765
563.6	2795
563.8	2825
564.0	2853
564.2	2875
564.4	2911
564.6	2944
564.8	2978
565.0	3004
565.2	3030
565.4	3059
565.6	3095
565.8	3130
566.0	3170
566.2	3205
566.4	3236
566.6	3272
566.8	3296
567.0	3329
567.2	3367
567.4	3399
567.6	3426
567.8	3459
568.0	3476
568.2	3516
568.4	3551
568.6	3582
568.8	3611
569.0	3649
569.2	3683
569.4	3726
569.6	3757
569.8	3788
570.0	3822
570.2	3867
570.4	3909
570.6	3956
570.8	3986
571.0	4016
571.2	4052
571.4	4089
571.6	4124
571.8	4169
572.0	4200
572.2	4228
572.4	4259
572.6	4292
572.8	4311
573.0	4350
573.2	4382
573.4	4415
573.6	4455
573.8	4505
574.0	4546
574.2	4600
574.4	4629
574.6	4661
574.8	4685
575.0	4724
575.2	4766
575.4	4819
575.6	4849
575.8	4883
576.0	4908
576.2	4947
576.4	4967
576.6	4998
576.8	5031
577.0	5081
577.2	5118
577.4	5173
577.6	5186
577.8	5198
578.0	5218
578.2	5252
578.4	5279
578.6	5327
578.8	5363
579.0	5400
579.2	5444
579.4	5479
579.6	5516
579.8	5543
580.0	5575
580.2	5598
580.4	5629
580.6	5666
580.8	5723
581.0	5760
581.2	5802
581.4	5834
581.6	5853
581.8	5888
582.0	5923
582.2	5950
582.4	5988
582.6	6019
582.8	6037
583.0	6065
583.2	6088
583.4	6127
583.6	6155
583.8	6177
584.0	6203
584.2	6236
584.4	6274
584.6	6315
584.8	6336
585.0	6360
585.2	6390
585.4	6419
585.6	6450
585.8	6468
586.0	6487
586.2	6511
586.4	6549
586.6	6578
586.8	6605
587.0	6635
587.2	6664
587.4	6700
587.6	6729
587.8	6751
588.0	6773
588.2	6798
588.4	6814
588.6	6842
588.8	6851
589.0	6883
589.2	6903
589.4	6916
589.6	6921
589.8	6956
590.0	6975
590.2	6999
590.4	7035
590.6	7060
590.8	7077
591.0	7106
591.2	7117
591.4	7122
591.6	7159
591.8	7174
592.0	7191
592.2	7206
592.4	7238
592.6	7260
592.8	7283
593.0	7286
593.2	7313
593.4	7338
593.6	7349
593.8	7360
594.0	7351
594.2	7342
594.4	7361
594.6	7390
594.8	7411
595.0	7456
595.2	7477
595.4	7487
595.6	7494
595.8	7505
596.0	7537
596.2	7568
596.4	7584
596.6	7576
596.8	7559
597.0	7561
597.2	7578
597.4	7592
597.6	7614
597.8	7624
598.0	7609
598.2	7620
598.4	7624
598.6	7632
598.8	7665
599.0	7691
599.2	7693
599.4	7714
599.6	7716
599.8	7724
600.0	7733
600.2	7742
600.4	7758
600.6	7787
600.8	7794
601.0	7792
601.2	7792
601.4	7785
601.6	7787
601.8	7794
602.0	7797
602.2	7793
602.4	7806
602.6	7805
602.8	7819
603.0	7824
603.2	7838
603.4	7834
603.6	7833
603.8	7832
604.0	7837
604.2	7828
604.4	7828
604.6	7836
604.8	7844
605.0	7856
605.2	7856
605.4	7846
605.6	7844
605.8	7851
606.0	7841
606.2	7843
606.4	7848
606.6	7852
606.8	7870
607.0	7867
607.2	7859
607.4	7834
607.6	7823
607.8	7825
608.0	7824
608.2	7826
608.4	7833
608.6	7822
608.8	7831
609.0	7847
609.2	7833
609.4	7817
609.6	7794
609.8	7781
610.0	7778
610.2	7788
610.4	7779
610.6	7766
610.8	7748
611.0	7753
611.2	7751
611.4	7755
611.6	7752
611.8	7750
612.0	7755
612.2	7763
612.4	7752
612.6	7740
612.8	7709
613.0	7674
613.2	7668
613.4	7670
613.6	7689
613.8	7702
614.0	7683
614.2	7652
614.4	7644
614.6	7624
614.8	7606
615.0	7595
615.2	7575
615.4	7568
615.6	7568
615.8	7551
616.0	7523
616.2	7503
616.4	7490
616.6	7484
616.8	7488
617.0	7484
617.2	7475
617.4	7443
617.6	7432
617.8	7410
618.0	7405
618.2	7398
618.4	7380
618.6	7349
618.8	7330
619.0	7325
619.2	7326
619.4	7338
619.6	7338
619.8	7307
620.0	7270
620.2	7240
620.4	7205
620.6	7197
620.8	7203
621.0	7183
621.2	7177
621.4	7155
621.6	7129
621.8	7126
622.0	7115
622.2	7113
622.4	7098
622.6	7062
622.8	7035
623.0	7016
623.2	6994
623.4	7003
623.6	6987
623.8	6967
624.0	6956
624.2	6923
624.4	6873
624.6	6855
624.8	6829
625.0	6834
625.2	6837
625.4	6800
625.6	6765
625.8	6748
626.0	6713
626.2	6708
626.4	6699
626.6	6664
626.8	6662
627.0	6648
627.2	6624
627.4	6584
627.6	6545
627.8	6510
628.0	6498
628.2	6503
628.4	6507
628.6	6475
628.8	6448
629.0	6416
629.2	6383
629.4	6366
629.6	6359
629.8	6337
630.0	6332
630.2	6309
630.4	6282
630.6	6260
630.8	6226
631.0	6211
631.2	6195
631.4	6168
631.6	6139
631.8	6130
632.0	6094
632.2	6100
632.4	6090
632.6	6065
632.8	6037
633.0	6007
633.2	5959
633.4	5925
633.6	5893
633.8	5873
634.0	5875
634.2	5865
634.4	5844
634.6	5819
634.8	5780
635.0	5746
635.2	5720
635.4	5704
635.6	5687
635.8	5674
636.0	5664
636.2	5646
636.4	5619
636.6	5610
636.8	5586
637.0	5558
637.2	5539
637.4	5503
637.6	5469
637.8	5455
638.0	5430
638.2	5406
638.4	5390
638.6	5372
638.8	5358
639.0	5350
639.2	5324
639.4	5291
639.6	5265
639.8	5247
640.0	5225
640.2	5204
640.4	5187
640.6	5170
640.8	5158
641.0	5137
641.2	5110
641.4	5081
641.6	5054
641.8	5031
642.0	5009
642.2	4968
642.4	4946
642.6	4931
642.8	4902
643.0	4883
643.2	4867
643.4	4844
643.6	4821
643.8	4801
644.0	4774
644.2	4757
644.4	4731
644.6	4702
644.8	4683
645.0	4674
645.2	4657
645.4	4642
645.6	4611
645.8	4585
646.0	4572
646.2	4558
646.4	4537
646.6	4511
646.8	4490
647.0	4478
647.2	4449
647.4	4417
647.6	4394
647.8	4368
648.0	4357
648.2	4355
648.4	4322
648.6	4277
648.8	4254
649.0	4217
649.2	4209
649.4	4202
649.6	4191
649.8	4159
650.0	4148
650.2	4126
650.4	4116
650.6	4097
650.8	4087
651.0	4063
651.2	4044
651.4	4024
651.6	3988
651.8	3960
652.0	3940
652.2	3932
652.4	3922
652.6	3908
652.8	3876
653.0	3861
653.2	3833
653.4	3807
653.6	3790
653.8	3777
654.0	3757
654.2	3747
654.4	3725
654.6	3696
654.8	3673
655.0	3655
655.2	3629
655.4	3606
655.6	3592
655.8	3567
656.0	3542
656.2	3531
656.4	3515
656.6	3503
656.8	3500
657.0	3488
657.2	3468
657.4	3438
657.6	3407
657.8	3389
658.0	3380
658.2	3365
658.4	3354
658.6	3324
658.8	3301
659.0	3286
659.2	3267
659.4	3244
659.6	3226
659.8	3211
660.0	3198
660.2	3189
660.4	3167
660.6	3149
660.8	3130
661.0	3121
661.2	3106
661.4	3088
661.6	3066
661.8	3047
662.0	3029
662.2	3011
662.4	2989
662.6	2975
662.8	2962
663.0	2953
663.2	2932
663.4	2908
663.6	2885
663.8	2877
664.0	2864
664.2	2859
664.4	2845
664.6	2825
664.8	2803
665.0	2783
665.2	2775
665.4	2761
665.6	2747
665.8	2725
666.0	2704
666.2	2681
666.4	2678
666.6	2668
666.8	2657
667.0	2642
667.2	2624
667.4	2609
667.6	2602
667.8	2587
668.0	2568
668.2	2550
668.4	2535
668.6	2524
668.8	2508
669.0	2487
669.2	2474
669.4	2463
669.6	2459
669.8	2453
670.0	2430
670.2	2409
670.4	2387
670.6	2362
670.8	2353
671.0	2352
671.2	2339
671.4	2330
671.6	2314
671.8	2285
672.0	2277
672.2	2266
672.4	2257
672.6	2248
672.8	2233
673.0	2209
673.2	2191
673.4	2173
673.6	2167
673.8	2154
674.0	2149
674.2	2134
674.4	2119
674.6	2098
674.8	2090
675.0	2089
675.2	2086
675.4	2062
675.6	2048
675.8	2024
676.0	2012
676.2	2011
676.4	1999
676.6	1980
676.8	1975
677.0	1965
677.2	1953
677.4	1939
677.6	1932
677.8	1927
678.0	1917
678.2	1903
678.4	1879
678.6	1859
678.8	1850
679.0	1847
679.2	1840
679.4	1838
679.6	1826
679.8	1821
680.0	1804
680.2	1785
680.4	1763
680.6	1743
680.8	1729
681.0	1729
681.2	1722
681.4	1719
681.6	1708
681.8	1693
682.0	1673
682.2	1661
682.4	1648
682.6	1648
682.8	1636
683.0	1627
683.2	1605
683.4	1598
683.6	1589
683.8	1592
684.0	1583
684.2	1575
684.4	1559
684.6	1550
684.8	1541
685.0	1532
685.2	1525
685.4	1515
685.6	1500
685.8	1488
686.0	1475
686.2	1461
686.4	1456
686.6	1447
686.8	1448
687.0	1450
687.2	1448
687.4	1435
687.6	1420
687.8	1402
688.0	1395
688.2	1390
688.4	1387
688.6	1373
688.8	1367
689.0	1364
689.2	1359
689.4	1346
689.6	1329
689.8	1317
690.0	1312
690.2	1300
690.4	1296
690.6	1290
690.8	1282
691.0	1275
691.2	1269
691.4	1259
691.6	1252
691.8	1248
692.0	1239
692.2	1230
692.4	1222
692.6	1222
692.8	1217
693.0	1205
693.2	1191
693.4	1181
693.6	1169
693.8	1164
694.0	1160
694.2	1155
694.4	1148
694.6	1140
694.8	1133
695.0	1125
695.2	1118
695.4	1114
695.6	1111
695.8	1100
696.0	1093
696.2	1085
696.4	1079
696.6	1076
696.8	1078
697.0	1068
697.2	1058
697.4	1047
697.6	1041
697.8	1037
698.0	1041
698.2	1032
698.4	1021
698.6	1012
698.8	1008
699.0	1005
699.2	1002
699.4	988.3
699.6	977.3
699.8	968.4
700.0	972.6
700.2	973.1
700.4	970.7
700.6	964.3
700.8	959.3
701.0	949.1
701.2	945.8
701.4	938.1
701.6	932.5
701.8	928.0
702.0	920.6
702.2	916.9
702.4	907.1
702.6	902.5
702.8	898.2
703.0	893.2
703.2	889.6
703.4	887.8
703.6	873.3
703.8	865.6
704.0	861.4
704.2	856.0
704.4	857.7
704.6	853.8
704.8	843.7
705.0	836.2
705.2	837.9
705.4	838.9
705.6	837.1
705.8	829.5
706.0	819.5
706.2	807.0
706.4	803.9
706.6	805.3
706.8	799.2
707.0	796.4
707.2	793.8
707.4	787.0
707.6	782.8
707.8	781.9
708.0	768.0
708.2	765.4
708.4	765.2
708.6	760.4
708.8	758.6
709.0	755.0
709.2	746.1
709.4	741.7
709.6	737.1
709.8	729.3
710.0	727.2
710.2	724.7
710.4	724.2
710.6	716.3
710.8	708.1
711.0	699.7
711.2	694.1
711.4	693.0
711.6	689.9
711.8	686.1
712.0	687.4
712.2	685.9
712.4	679.4
712.6	674.6
712.8	661.2
713.0	654.8
713.2	649.7
713.4	645.6
713.6	642.6
713.8	640.1
714.0	635.8
714.2	633.7
714.4	628.6
714.6	625.1
714.8	616.8
715.0	613.1
715.2	610.7
715.4	607.6
715.6	602.4
715.8	600.8
716.0	596.9
716.2	598.7
716.4	596.5
716.6	599.5
716.8	594.1
717.0	586.9
717.2	580.3
717.4	572.3
717.6	564.3
717.8	560.0
718.0	549.3
718.2	542.5
718.4	537.9
718.6	533.6
718.8	535.5
719.0	534.3
719.2	530.5
719.4	532.2
719.6	531.4
719.8	526.9
720.0	524.0
720.2	519.5
720.4	512.4
720.6	508.2
720.8	506.3
721.0	500.4
721.2	498.6
721.4	497.6
721.6	494.4
721.8	488.4
722.0	484.9
722.2	475.8
722.4	470.6
722.6	469.0
722.8	469.3
723.0	467.5
723.2	464.5
723.4	462.3
723.6	458.4
723.8	458.1
724.0	455.7
724.2	453.3
724.4	444.5
724.6	442.3
724.8	435.1
725.0	430.6
725.2	427.5
725.4	426.0
725.6	419.5
725.8	419.2
726.0	414.0
726.2	413.5
726.4	412.8
726.6	410.3
726.8	402.8
727.0	398.9
727.2	395.4
727.4	395.7
727.6	392.7
727.8	390.9
728.0	387.6
728.2	385.0
728.4	384.0
728.6	380.2
728.8	376.2
729.0	376.2
729.2	375.8
729.4	372.2
729.6	366.3
729.8	358.8
730.0	352.5
730.2	351.7
730.4	352.8
730.6	348.4
730.8	349.1
731.0	346.6
731.2	343.3
731.4	341.3
731.6	338.7
731.8	334.1
732.0	335.0
732.2	328.9
732.4	328.5
732.6	326.9
732.8	323.9
733.0	321.0
733.2	318.1
733.4	312.6
733.6	309.8
733.8	308.0
734.0	305.9
734.2	302.2
734.4	304.1
734.6	301.7
734.8	297.4
735.0	295.2
735.2	293.1
735.4	287.7
735.6	290.6
735.8	287.1
736.0	284.9
736.2	283.0
736.4	281.8
736.6	276.7
736.8	277.3
737.0	276.4
737.2	272.2
737.4	271.3
737.6	271.8
737.8	269.3
738.0	266.2
738.2	263.1
738.4	255.9
738.6	253.3
738.8	253.9
739.0	253.5
739.2	253.0
739.4	252.1
739.6	249.5
739.8	246.7
740.0	246.2
740.2	245.7
740.4	246.3
740.6	245.6
740.8	241.5
741.0	237.3
741.2	236.1
741.4	234.8
741.6	236.1
741.8	236.2
742.0	229.9
742.2	224.4
742.4	220.4
742.6	214.9
742.8	217.7
743.0	221.7
743.2	222.7
743.4	219.5
743.6	217.1
743.8	209.9
744.0	209.6
744.2	209.9
744.4	208.4
744.6	202.0
744.8	201.9
745.0	198.5
745.2	197.9
745.4	198.4
745.6	200.9
745.8	199.0
746.0	199.0
746.2	195.2
746.4	189.0
746.6	185.8
746.8	186.4
747.0	185.7
747.2	184.3
747.4	183.4
747.6	180.1
747.8	175.9
748.0	174.6
748.2	176.9
748.4	176.5
748.6	178.8
748.8	176.6
749.0	173.0
749.2	170.3
749.4	169.2
749.6	165.7
749.8	165.8
750.0	163.3
750.2	166.2
750.4	166.5
750.6	167.7
750.8	167.1
751.0	167.1
751.2	164.4
751.4	163.0
751.6	159.4
751.8	157.4
752.0	155.2
752.2	154.6
752.4	154.6
752.6	152.0
752.8	151.4
753.0	151.4
753.2	151.3
753.4	150.7
753.6	149.9
753.8	149.7
754.0	149.4
754.2	149.6
754.4	146.1
754.6	143.6
754.8	142.3
755.0	142.2
755.2	139.4
755.4	137.9
755.6	135.3
755.8	137.5
756.0	139.7
756.2	140.3
756.4	137.1
756.6	134.2
756.8	131.9
757.0	129.4
757.2	129.8
757.4	130.1
757.6	127.6
757.8	127.9
758.0	126.5
758.2	123.4
758.4	126.1
758.6	126.7
758.8	124.3
759.0	125.3
759.2	125.4
759.4	123.1
759.6	122.3
759.8	119.8
760.0	116.1
760.2	117.3
760.4	118.7
760.6	117.9
760.8	115.4
761.0	112.1
761.2	110.3
761.4	111.1
761.6	110.2
761.8	109.8
762.0	109.2
762.2	108.2
762.4	107.7
762.6	108.1
762.8	108.3
763.0	108.8
763.2	106.5
763.4	104.5
763.6	101.5
763.8	99.86
764.0	99.68
764.2	99.48
764.4	98.84
764.6	99.82
764.8	99.46
765.0	97.26
765.2	96.11
765.4	95.18
765.6	96.25
765.8	96.81
766.0	97.12
766.2	94.97
766.4	93.75
766.6	92.84
766.8	92.69
767.0	91.88
767.2	92.81
767.4	91.18
767.6	92.31
767.8	93.50
768.0	93.00
768.2	91.02
768.4	88.70
768.6	84.45
768.8	83.88
769.0	82.70
769.2	82.46
769.4	83.30
769.6	82.84
769.8	82.26
770.0	81.64
770.2	80.89
770.4	79.19
770.6	79.75
770.8	79.60
771.0	79.64
771.2	78.56
771.4	79.15
771.6	77.62
771.8	76.66
772.0	74.40
772.2	72.31
772.4	70.25
772.6	71.38
772.8	73.05
773.0	72.56
773.2	72.22
773.4	72.89
773.6	71.46
773.8	70.92
774.0	71.56
774.2	70.91
774.4	70.55
774.6	71.15
774.8	68.46
775.0	67.25
775.2	66.93
775.4	66.32
775.6	65.65
775.8	65.60
776.0	64.70
776.2	65.52
776.4	66.33
776.6	66.97
776.8	67.49
777.0	66.32
777.2	66.39
777.4	65.88
777.6	63.76
777.8	62.48
778.0	61.09
778.2	59.36
778.4	60.62
778.6	61.89
778.8	61.79
779.0	61.89
779.2	61.14
779.4	59.84
779.6	58.59
779.8	57.48
780.0	56.89
780.2	56.38
780.4	56.50
780.6	57.99
780.8	58.04
781.0	56.43
781.2	55.59
781.4	54.20
781.6	55.26
781.8	56.30
782.0	56.44
782.2	55.46
782.4	55.18
782.6	54.22
782.8	54.11
783.0	52.97
783.2	52.78
783.4	53.03
783.6	53.56
783.8	54.56
784.0	53.41
784.2	52.27
784.4	50.49
784.6	49.38
784.8	48.52
785.0	49.06
785.2	48.90
785.4	48.99
785.6	49.10
785.8	49.75
786.0	49.30
786.2	49.55
786.4	48.88
786.6	48.05
786.8	48.11
787.0	48.98
787.2	49.02
787.4	49.21
787.6	48.46
787.8	49.02
788.0	50.06
788.2	50.01
788.4	49.98
788.6	48.22
788.8	45.70
789.0	45.33
789.2	46.16
789.4	45.09
789.6	45.97
789.8	45.61
790.0	45.92
790.2	45.94
790.4	45.27
790.6	43.46
790.8	42.99
791.0	42.67
791.2	43.78
791.4	44.93
791.6	45.31
791.8	44.76
792.0	44.30
792.2	44.09
792.4	42.38
792.6	42.49
792.8	42.66
793.0	41.97
793.2	42.45
793.4	41.84
793.6	41.53
793.8	41.91
794.0	41.36
794.2	41.43
794.4	41.24
794.6	40.01
794.8	41.86
795.0	42.28
795.2	41.34
795.4	40.22
795.6	37.52
795.8	35.78
796.0	36.86
796.2	37.58
796.4	38.61
796.6	38.70
796.8	38.60
797.0	38.80
797.2	39.28
797.4	39.53
797.6	40.27
797.8	40.14
798.0	39.64
798.2	38.70
798.4	37.35
798.6	37.25
798.8	36.86
799.0	37.54
799.2	36.95
799.4	36.95
799.6	37.22
799.8	37.54
800.0	37.75

