Sample:	'20211010A(EM)
File name:	R-CDs 5 500.FDS
Run date:	'16:34:38, 06/09/2023
Operator:	Administrator
Comment:	'

Instrument
Model:	F-4700 FL Spectrophotometer
Serial number:	2019-001
ROM Version:	5J24010 00

Instrument parameters
Measurement type:	Wavelength scan
Scan mode:	Emission
Data mode:	Fluorescence
EX WL:	520.0 nm
EM  Start WL:	540.0 nm
EM  End WL:	800.0 nm
Scan speed:	1200 nm/min
Delay:	0.0 s
EX Slit:	10.0 nm
EM Slit:	10.0 nm
PMT Voltage:	604 V
Response:	0.002 s
Corrected spectra:	Off
Shutter control:	On

Processing performed
Savitsky-Golay smoothed
Smoothing order:	3
Number of points:	7
Number of times:	1

Peak integration
Integration method:	Rectangular
Sensitivity:	1
Threshold:	1.000

Peaks
No.	Start(nm)	Apex(nm)	End(nm)	Height(Data)	Valley(nm)	Valley(Data)
1	540.0	606.8	608.2	2027	608.2	1996
2	608.2	610.2	610.8	2037	610.8	2018
3	610.8	612.2	617.6	2045	617.6	1991
4	617.6	618.0	619.6	2004	619.6	1979
5	619.6	620.2	755.0	2008	755.0	63.85
6	755.0	755.8	763.8	67.18	763.8	47.66
7	763.8	764.6	775.4	50.26	775.4	33.61
8	775.4	776.0	778.8	35.18	778.8	29.37
9	778.8	779.6	780.0	31.15	780.0	29.41
10	780.0	781.0	785.0	31.22	785.0	25.98
11	785.0	785.6	793.8	28.18	793.8	21.45
12	793.8	794.8	800.0	23.53	800.0	19.34

Data points
nm	Data
540.0	179.1
540.2	178.2
540.4	179.0
540.6	181.3
540.8	186.7
541.0	191.6
541.2	192.3
541.4	192.9
541.6	192.1
541.8	189.3
542.0	190.3
542.2	192.0
542.4	194.7
542.6	199.1
542.8	201.7
543.0	203.8
543.2	206.6
543.4	207.6
543.6	209.2
543.8	208.8
544.0	208.0
544.2	207.4
544.4	211.6
544.6	215.7
544.8	221.9
545.0	223.1
545.2	224.9
545.4	225.5
545.6	228.3
545.8	229.7
546.0	228.6
546.2	226.2
546.4	229.8
546.6	234.1
546.8	240.4
547.0	243.5
547.2	243.2
547.4	242.3
547.6	246.7
547.8	250.8
548.0	254.6
548.2	256.9
548.4	260.3
548.6	263.3
548.8	265.5
549.0	265.3
549.2	263.7
549.4	263.2
549.6	266.7
549.8	273.2
550.0	275.9
550.2	278.2
550.4	277.0
550.6	277.0
550.8	278.6
551.0	281.9
551.2	288.2
551.4	293.7
551.6	295.5
551.8	300.3
552.0	305.1
552.2	308.5
552.4	312.9
552.6	313.3
552.8	315.2
553.0	317.1
553.2	321.7
553.4	324.9
553.6	325.7
553.8	328.9
554.0	335.0
554.2	340.6
554.4	341.7
554.6	344.5
554.8	344.1
555.0	348.4
555.2	354.6
555.4	360.0
555.6	361.5
555.8	364.4
556.0	367.9
556.2	372.1
556.4	378.9
556.6	383.5
556.8	389.2
557.0	392.9
557.2	398.0
557.4	400.9
557.6	404.9
557.8	408.9
558.0	416.6
558.2	423.0
558.4	428.3
558.6	432.7
558.8	435.7
559.0	438.7
559.2	444.9
559.4	450.6
559.6	457.2
559.8	460.0
560.0	468.4
560.2	475.8
560.4	482.8
560.6	491.3
560.8	496.7
561.0	499.1
561.2	503.0
561.4	506.1
561.6	510.5
561.8	520.7
562.0	526.2
562.2	532.4
562.4	538.6
562.6	541.8
562.8	548.5
563.0	558.6
563.2	564.7
563.4	573.3
563.6	583.2
563.8	589.6
564.0	596.6
564.2	603.8
564.4	609.5
564.6	617.6
564.8	624.6
565.0	635.1
565.2	640.2
565.4	646.3
565.6	651.4
565.8	659.0
566.0	664.9
566.2	680.1
566.4	686.4
566.6	693.8
566.8	700.5
567.0	708.9
567.2	720.3
567.4	735.4
567.6	738.7
567.8	745.6
568.0	750.8
568.2	758.3
568.4	775.4
568.6	785.1
568.8	796.0
569.0	809.5
569.2	817.1
569.4	825.8
569.6	837.3
569.8	839.1
570.0	855.3
570.2	860.8
570.4	865.4
570.6	874.5
570.8	883.4
571.0	892.8
571.2	910.0
571.4	923.0
571.6	932.0
571.8	941.8
572.0	949.0
572.2	957.9
572.4	970.1
572.6	984.0
572.8	994.8
573.0	1002
573.2	1005
573.4	1008
573.6	1022
573.8	1031
574.0	1042
574.2	1055
574.4	1064
574.6	1070
574.8	1087
575.0	1095
575.2	1104
575.4	1121
575.6	1129
575.8	1137
576.0	1153
576.2	1159
576.4	1168
576.6	1176
576.8	1180
577.0	1192
577.2	1204
577.4	1216
577.6	1225
577.8	1237
578.0	1249
578.2	1260
578.4	1270
578.6	1286
578.8	1295
579.0	1299
579.2	1301
579.4	1300
579.6	1309
579.8	1317
580.0	1331
580.2	1344
580.4	1357
580.6	1366
580.8	1379
581.0	1381
581.2	1391
581.4	1406
581.6	1416
581.8	1424
582.0	1431
582.2	1429
582.4	1427
582.6	1435
582.8	1437
583.0	1445
583.2	1453
583.4	1466
583.6	1477
583.8	1503
584.0	1512
584.2	1516
584.4	1517
584.6	1525
584.8	1525
585.0	1543
585.2	1553
585.4	1560
585.6	1571
585.8	1578
586.0	1580
586.2	1590
586.4	1596
586.6	1600
586.8	1604
587.0	1607
587.2	1613
587.4	1620
587.6	1622
587.8	1629
588.0	1639
588.2	1655
588.4	1666
588.6	1672
588.8	1667
589.0	1668
589.2	1677
589.4	1688
589.6	1703
589.8	1711
590.0	1711
590.2	1720
590.4	1724
590.6	1726
590.8	1733
591.0	1734
591.2	1732
591.4	1743
591.6	1746
591.8	1750
592.0	1753
592.2	1760
592.4	1770
592.6	1780
592.8	1784
593.0	1780
593.2	1785
593.4	1796
593.6	1807
593.8	1823
594.0	1831
594.2	1830
594.4	1828
594.6	1828
594.8	1825
595.0	1831
595.2	1840
595.4	1850
595.6	1852
595.8	1859
596.0	1870
596.2	1869
596.4	1879
596.6	1885
596.8	1881
597.0	1878
597.2	1884
597.4	1882
597.6	1889
597.8	1888
598.0	1894
598.2	1900
598.4	1907
598.6	1919
598.8	1922
599.0	1915
599.2	1926
599.4	1929
599.6	1932
599.8	1937
600.0	1935
600.2	1934
600.4	1945
600.6	1952
600.8	1956
601.0	1956
601.2	1956
601.4	1956
601.6	1956
601.8	1960
602.0	1963
602.2	1966
602.4	1979
602.6	1977
602.8	1978
603.0	1983
603.2	1985
603.4	1979
603.6	1984
603.8	1986
604.0	1986
604.2	1991
604.4	1993
604.6	1992
604.8	2002
605.0	2013
605.2	2014
605.4	2016
605.6	2017
605.8	2012
606.0	2018
606.2	2017
606.4	2022
606.6	2027
606.8	2027
607.0	2024
607.2	2024
607.4	2024
607.6	2019
607.8	2011
608.0	2002
608.2	1996
608.4	1997
608.6	2009
608.8	2015
609.0	2015
609.2	2019
609.4	2020
609.6	2024
609.8	2028
610.0	2033
610.2	2037
610.4	2029
610.6	2023
610.8	2018
611.0	2022
611.2	2028
611.4	2036
611.6	2033
611.8	2033
612.0	2033
612.2	2045
612.4	2034
612.6	2032
612.8	2028
613.0	2028
613.2	2033
613.4	2038
613.6	2027
613.8	2026
614.0	2024
614.2	2024
614.4	2028
614.6	2022
614.8	2019
615.0	2018
615.2	2017
615.4	2018
615.6	2023
615.8	2025
616.0	2019
616.2	2016
616.4	2006
616.6	2008
616.8	2016
617.0	2016
617.2	2006
617.4	2000
617.6	1991
617.8	1996
618.0	2004
618.2	2003
618.4	2002
618.6	2001
618.8	2001
619.0	2002
619.2	1988
619.4	1982
619.6	1979
619.8	1984
620.0	1998
620.2	2008
620.4	2000
620.6	1994
620.8	1994
621.0	1983
621.2	1978
621.4	1979
621.6	1973
621.8	1969
622.0	1972
622.2	1969
622.4	1965
622.6	1961
622.8	1958
623.0	1963
623.2	1960
623.4	1956
623.6	1935
623.8	1925
624.0	1931
624.2	1939
624.4	1941
624.6	1941
624.8	1922
625.0	1916
625.2	1924
625.4	1924
625.6	1921
625.8	1921
626.0	1911
626.2	1910
626.4	1914
626.6	1902
626.8	1889
627.0	1884
627.2	1882
627.4	1878
627.6	1874
627.8	1864
628.0	1861
628.2	1863
628.4	1863
628.6	1856
628.8	1856
629.0	1854
629.2	1855
629.4	1846
629.6	1831
629.8	1825
630.0	1829
630.2	1832
630.4	1838
630.6	1827
630.8	1812
631.0	1807
631.2	1801
631.4	1801
631.6	1802
631.8	1795
632.0	1791
632.2	1785
632.4	1772
632.6	1773
632.8	1778
633.0	1777
633.2	1782
633.4	1768
633.6	1753
633.8	1748
634.0	1748
634.2	1748
634.4	1749
634.6	1743
634.8	1735
635.0	1724
635.2	1720
635.4	1718
635.6	1709
635.8	1705
636.0	1700
636.2	1690
636.4	1692
636.6	1693
636.8	1682
637.0	1670
637.2	1657
637.4	1654
637.6	1665
637.8	1671
638.0	1664
638.2	1649
638.4	1642
638.6	1645
638.8	1646
639.0	1640
639.2	1634
639.4	1625
639.6	1613
639.8	1610
640.0	1604
640.2	1599
640.4	1602
640.6	1602
640.8	1588
641.0	1583
641.2	1577
641.4	1573
641.6	1569
641.8	1564
642.0	1553
642.2	1551
642.4	1546
642.6	1545
642.8	1539
643.0	1530
643.2	1517
643.4	1512
643.6	1501
643.8	1504
644.0	1509
644.2	1505
644.4	1495
644.6	1484
644.8	1473
645.0	1465
645.2	1466
645.4	1463
645.6	1456
645.8	1452
646.0	1447
646.2	1436
646.4	1427
646.6	1421
646.8	1418
647.0	1415
647.2	1407
647.4	1406
647.6	1399
647.8	1392
648.0	1390
648.2	1387
648.4	1374
648.6	1377
648.8	1381
649.0	1378
649.2	1366
649.4	1356
649.6	1340
649.8	1330
650.0	1334
650.2	1335
650.4	1330
650.6	1327
650.8	1316
651.0	1305
651.2	1300
651.4	1296
651.6	1292
651.8	1287
652.0	1279
652.2	1276
652.4	1270
652.6	1266
652.8	1260
653.0	1251
653.2	1242
653.4	1236
653.6	1233
653.8	1230
654.0	1227
654.2	1228
654.4	1217
654.6	1211
654.8	1209
655.0	1199
655.2	1192
655.4	1187
655.6	1177
655.8	1174
656.0	1174
656.2	1172
656.4	1165
656.6	1158
656.8	1151
657.0	1146
657.2	1144
657.4	1143
657.6	1139
657.8	1136
658.0	1127
658.2	1118
658.4	1108
658.6	1107
658.8	1106
659.0	1104
659.2	1098
659.4	1088
659.6	1077
659.8	1077
660.0	1071
660.2	1068
660.4	1057
660.6	1044
660.8	1039
661.0	1045
661.2	1038
661.4	1038
661.6	1029
661.8	1019
662.0	1011
662.2	1011
662.4	1001
662.6	995.7
662.8	993.4
663.0	990.5
663.2	983.0
663.4	975.8
663.6	969.2
663.8	965.0
664.0	964.3
664.2	967.5
664.4	961.0
664.6	953.8
664.8	944.7
665.0	940.3
665.2	931.4
665.4	931.7
665.6	929.7
665.8	931.6
666.0	929.0
666.2	931.6
666.4	924.7
666.6	921.6
666.8	913.6
667.0	904.8
667.2	896.6
667.4	895.7
667.6	890.5
667.8	890.1
668.0	885.5
668.2	876.7
668.4	865.7
668.6	860.9
668.8	854.1
669.0	851.3
669.2	850.2
669.4	848.4
669.6	843.1
669.8	838.8
670.0	833.6
670.2	825.5
670.4	820.1
670.6	817.1
670.8	816.1
671.0	814.3
671.2	813.0
671.4	809.6
671.6	802.2
671.8	795.8
672.0	785.5
672.2	785.0
672.4	784.7
672.6	783.3
672.8	778.6
673.0	772.0
673.2	760.3
673.4	759.8
673.6	757.0
673.8	748.5
674.0	742.7
674.2	735.8
674.4	731.1
674.6	733.7
674.8	735.6
675.0	730.5
675.2	725.6
675.4	722.2
675.6	717.1
675.8	712.7
676.0	708.7
676.2	701.5
676.4	698.2
676.6	698.1
676.8	700.9
677.0	701.3
677.2	695.5
677.4	686.0
677.6	677.2
677.8	668.2
678.0	668.8
678.2	671.1
678.4	664.8
678.6	659.0
678.8	653.0
679.0	650.1
679.2	653.5
679.4	652.5
679.6	645.5
679.8	640.2
680.0	632.1
680.2	631.1
680.4	629.0
680.6	626.6
680.8	623.1
681.0	621.5
681.2	616.8
681.4	616.7
681.6	608.8
681.8	603.7
682.0	599.3
682.2	594.1
682.4	589.9
682.6	587.3
682.8	583.2
683.0	583.8
683.2	581.7
683.4	582.8
683.6	580.5
683.8	580.7
684.0	579.6
684.2	572.3
684.4	561.9
684.6	559.6
684.8	551.4
685.0	552.7
685.2	554.5
685.4	547.8
685.6	544.5
685.8	542.0
686.0	537.3
686.2	534.2
686.4	530.8
686.6	527.2
686.8	523.4
687.0	521.7
687.2	525.2
687.4	519.9
687.6	514.1
687.8	507.1
688.0	501.2
688.2	494.6
688.4	494.7
688.6	493.9
688.8	495.9
689.0	494.6
689.2	495.5
689.4	491.1
689.6	487.1
689.8	481.2
690.0	476.6
690.2	472.2
690.4	467.7
690.6	469.9
690.8	472.3
691.0	469.8
691.2	465.4
691.4	464.3
691.6	460.0
691.8	459.2
692.0	460.0
692.2	456.8
692.4	451.1
692.6	449.0
692.8	443.7
693.0	439.9
693.2	438.7
693.4	436.7
693.6	435.3
693.8	431.8
694.0	427.0
694.2	425.5
694.4	421.9
694.6	419.3
694.8	419.2
695.0	415.9
695.2	414.1
695.4	415.6
695.6	413.1
695.8	410.1
696.0	408.6
696.2	403.8
696.4	402.5
696.6	401.5
696.8	399.3
697.0	397.6
697.2	394.9
697.4	392.5
697.6	392.5
697.8	390.5
698.0	390.2
698.2	390.7
698.4	385.2
698.6	381.1
698.8	374.9
699.0	374.0
699.2	378.8
699.4	381.2
699.6	379.1
699.8	374.3
700.0	368.5
700.2	367.0
700.4	366.3
700.6	366.0
700.8	364.7
701.0	358.3
701.2	357.7
701.4	356.5
701.6	353.6
701.8	352.7
702.0	350.0
702.2	347.6
702.4	350.0
702.6	350.3
702.8	346.6
703.0	340.5
703.2	336.5
703.4	334.6
703.6	335.1
703.8	335.5
704.0	333.3
704.2	329.7
704.4	329.5
704.6	329.9
704.8	329.5
705.0	330.0
705.2	326.8
705.4	321.0
705.6	318.6
705.8	317.0
706.0	315.8
706.2	316.5
706.4	316.3
706.6	315.1
706.8	313.4
707.0	310.2
707.2	308.8
707.4	307.4
707.6	309.2
707.8	309.2
708.0	304.5
708.2	300.4
708.4	295.7
708.6	292.6
708.8	291.3
709.0	292.8
709.2	292.2
709.4	292.4
709.6	291.5
709.8	285.9
710.0	280.5
710.2	280.5
710.4	279.6
710.6	278.1
710.8	278.0
711.0	274.7
711.2	275.1
711.4	274.0
711.6	275.0
711.8	271.8
712.0	268.1
712.2	267.6
712.4	268.2
712.6	263.7
712.8	265.0
713.0	260.4
713.2	258.2
713.4	258.0
713.6	259.2
713.8	256.1
714.0	255.1
714.2	251.3
714.4	251.3
714.6	249.5
714.8	249.6
715.0	246.7
715.2	246.0
715.4	243.4
715.6	242.7
715.8	240.8
716.0	241.1
716.2	241.0
716.4	240.0
716.6	238.4
716.8	235.2
717.0	233.4
717.2	230.8
717.4	232.0
717.6	229.9
717.8	227.7
718.0	223.7
718.2	223.4
718.4	220.7
718.6	223.7
718.8	223.5
719.0	222.7
719.2	219.7
719.4	218.6
719.6	213.8
719.8	211.3
720.0	209.7
720.2	210.8
720.4	207.9
720.6	209.7
720.8	208.7
721.0	206.3
721.2	206.2
721.4	202.1
721.6	194.3
721.8	194.6
722.0	192.6
722.2	191.9
722.4	192.8
722.6	189.2
722.8	186.9
723.0	185.4
723.2	183.1
723.4	185.3
723.6	184.2
723.8	182.3
724.0	181.2
724.2	175.7
724.4	174.7
724.6	176.3
724.8	176.4
725.0	176.1
725.2	175.7
725.4	172.9
725.6	172.3
725.8	170.7
726.0	169.4
726.2	169.6
726.4	170.3
726.6	168.9
726.8	166.7
727.0	164.6
727.2	162.7
727.4	163.9
727.6	164.0
727.8	162.4
728.0	158.5
728.2	156.6
728.4	156.2
728.6	156.2
728.8	155.5
729.0	157.7
729.2	157.3
729.4	156.3
729.6	153.8
729.8	150.3
730.0	147.7
730.2	150.3
730.4	150.5
730.6	150.2
730.8	147.4
731.0	145.8
731.2	143.9
731.4	141.9
731.6	140.3
731.8	139.3
732.0	139.1
732.2	140.3
732.4	140.2
732.6	136.8
732.8	135.5
733.0	133.1
733.2	133.0
733.4	134.0
733.6	135.1
733.8	134.3
734.0	135.4
734.2	132.3
734.4	128.7
734.6	126.8
734.8	126.6
735.0	127.1
735.2	130.4
735.4	129.4
735.6	126.4
735.8	125.0
736.0	123.5
736.2	122.4
736.4	121.0
736.6	120.4
736.8	120.4
737.0	120.5
737.2	119.7
737.4	118.6
737.6	116.2
737.8	115.4
738.0	117.0
738.2	116.1
738.4	114.8
738.6	113.6
738.8	112.1
739.0	110.6
739.2	109.7
739.4	108.0
739.6	107.4
739.8	106.7
740.0	106.7
740.2	107.8
740.4	106.4
740.6	106.3
740.8	106.3
741.0	104.7
741.2	102.5
741.4	101.0
741.6	100.2
741.8	100.2
742.0	101.3
742.2	100.8
742.4	98.65
742.6	96.51
742.8	95.65
743.0	95.33
743.2	97.66
743.4	96.85
743.6	95.85
743.8	94.79
744.0	92.86
744.2	93.37
744.4	94.71
744.6	92.07
744.8	90.83
745.0	88.99
745.2	88.74
745.4	90.60
745.6	90.60
745.8	89.10
746.0	88.37
746.2	85.80
746.4	85.12
746.6	84.41
746.8	83.20
747.0	82.81
747.2	83.50
747.4	82.46
747.6	83.15
747.8	82.06
748.0	81.92
748.2	80.05
748.4	79.79
748.6	78.84
748.8	78.95
749.0	78.13
749.2	77.84
749.4	76.50
749.6	77.22
749.8	77.99
750.0	77.66
750.2	76.99
750.4	76.69
750.6	74.87
750.8	74.78
751.0	75.53
751.2	73.93
751.4	73.05
751.6	71.66
751.8	70.23
752.0	72.74
752.2	73.74
752.4	73.13
752.6	72.29
752.8	70.26
753.0	70.32
753.2	71.22
753.4	70.54
753.6	68.09
753.8	66.28
754.0	65.08
754.2	64.96
754.4	65.17
754.6	66.00
754.8	63.95
755.0	63.85
755.2	64.21
755.4	65.08
755.6	67.00
755.8	67.18
756.0	64.89
756.2	64.41
756.4	63.61
756.6	62.60
756.8	62.67
757.0	62.64
757.2	61.45
757.4	62.15
757.6	61.24
757.8	59.22
758.0	57.28
758.2	57.32
758.4	56.98
758.6	57.68
758.8	57.86
759.0	57.19
759.2	56.59
759.4	57.21
759.6	57.00
759.8	57.09
760.0	56.27
760.2	56.03
760.4	56.47
760.6	56.30
760.8	55.26
761.0	55.74
761.2	55.01
761.4	54.20
761.6	54.14
761.8	52.39
762.0	51.14
762.2	52.15
762.4	52.24
762.6	50.82
762.8	50.30
763.0	49.16
763.2	48.92
763.4	49.17
763.6	48.69
763.8	47.66
764.0	48.32
764.2	48.30
764.4	48.84
764.6	50.26
764.8	50.03
765.0	48.74
765.2	48.03
765.4	45.99
765.6	45.30
765.8	46.41
766.0	46.23
766.2	47.44
766.4	47.71
766.6	45.99
766.8	44.92
767.0	44.16
767.2	43.26
767.4	43.91
767.6	44.02
767.8	42.78
768.0	42.90
768.2	43.22
768.4	42.91
768.6	42.45
768.8	42.47
769.0	42.04
769.2	41.96
769.4	42.25
769.6	41.81
769.8	41.25
770.0	41.18
770.2	40.22
770.4	39.70
770.6	39.79
770.8	39.51
771.0	39.55
771.2	39.45
771.4	38.71
771.6	38.28
771.8	37.66
772.0	37.33
772.2	38.64
772.4	38.88
772.6	38.90
772.8	37.93
773.0	36.69
773.2	35.68
773.4	35.87
773.6	35.97
773.8	36.25
774.0	36.03
774.2	35.22
774.4	34.92
774.6	34.22
774.8	34.50
775.0	34.50
775.2	34.23
775.4	33.61
775.6	34.45
775.8	34.89
776.0	35.18
776.2	34.95
776.4	34.91
776.6	34.46
776.8	33.85
777.0	33.66
777.2	32.75
777.4	32.74
777.6	33.17
777.8	34.12
778.0	32.93
778.2	31.95
778.4	30.73
778.6	30.07
778.8	29.37
779.0	30.73
779.2	30.98
779.4	30.81
779.6	31.15
779.8	30.65
780.0	29.41
780.2	30.37
780.4	30.60
780.6	30.20
780.8	31.16
781.0	31.22
781.2	30.37
781.4	30.26
781.6	29.34
781.8	28.72
782.0	28.20
782.2	28.78
782.4	28.64
782.6	28.49
782.8	29.07
783.0	28.75
783.2	27.98
783.4	28.59
783.6	28.04
783.8	27.26
784.0	27.39
784.2	26.34
784.4	26.66
784.6	26.86
784.8	26.57
785.0	25.98
785.2	26.32
785.4	26.74
785.6	28.18
785.8	28.03
786.0	27.18
786.2	26.48
786.4	25.99
786.6	25.71
786.8	25.85
787.0	25.68
787.2	25.48
787.4	25.29
787.6	25.63
787.8	25.45
788.0	25.45
788.2	25.48
788.4	24.93
788.6	23.79
788.8	24.04
789.0	24.72
789.2	25.26
789.4	25.11
789.6	24.04
789.8	23.20
790.0	23.74
790.2	23.74
790.4	23.82
790.6	23.39
790.8	23.12
791.0	23.09
791.2	24.14
791.4	23.57
791.6	23.96
791.8	23.38
792.0	22.88
792.2	22.50
792.4	22.43
792.6	22.20
792.8	22.95
793.0	23.38
793.2	22.45
793.4	21.93
793.6	21.53
793.8	21.45
794.0	21.64
794.2	22.48
794.4	22.80
794.6	23.38
794.8	23.53
795.0	23.20
795.2	22.27
795.4	21.90
795.6	21.69
795.8	21.73
796.0	21.60
796.2	21.73
796.4	22.06
796.6	21.65
796.8	21.51
797.0	21.73
797.2	21.61
797.4	21.15
797.6	20.78
797.8	19.42
798.0	19.82
798.2	20.33
798.4	20.61
798.6	20.64
798.8	20.13
799.0	19.32
799.2	19.23
799.4	19.37
799.6	19.77
799.8	19.89
800.0	19.34

