Sample:	'20211010A(EM)
File name:	R-CDs 2.FDS
Run date:	'16:22:46, 06/09/2023
Operator:	Administrator
Comment:	'

Instrument
Model:	F-4700 FL Spectrophotometer
Serial number:	2019-001
ROM Version:	5J24010 00

Instrument parameters
Measurement type:	Wavelength scan
Scan mode:	Emission
Data mode:	Fluorescence
EX WL:	520.0 nm
EM  Start WL:	540.0 nm
EM  End WL:	800.0 nm
Scan speed:	1200 nm/min
Delay:	0.0 s
EX Slit:	10.0 nm
EM Slit:	10.0 nm
PMT Voltage:	615 V
Response:	0.002 s
Corrected spectra:	Off
Shutter control:	On

Processing performed
Savitsky-Golay smoothed
Smoothing order:	3
Number of points:	7
Number of times:	1

Peak integration
Integration method:	Rectangular
Sensitivity:	1
Threshold:	1.000

Peaks
No.	Start(nm)	Apex(nm)	End(nm)	Height(Data)	Valley(nm)	Valley(Data)
1	540.0	603.4	604.6	*****   	604.6	9989
2	604.6	605.4	774.2	9999	774.2	88.21
3	774.2	775.0	786.6	90.57	786.6	58.62
4	786.6	787.6	791.4	61.17	791.4	53.59
5	791.4	792.0	793.6	56.15	793.6	52.98
6	793.6	794.4	795.4	56.72	795.4	49.11
7	795.4	797.0	798.0	52.53	798.0	46.50

Data points
nm	Data
540.0	881.9
540.2	884.5
540.4	892.2
540.6	903.1
540.8	914.9
541.0	924.2
541.2	940.2
541.4	953.1
541.6	969.2
541.8	986.4
542.0	998.4
542.2	1009
542.4	1027
542.6	1036
542.8	1048
543.0	1060
543.2	1071
543.4	1080
543.6	1094
543.8	1105
544.0	1123
544.2	1141
544.4	1162
544.6	1178
544.8	1189
545.0	1205
545.2	1222
545.4	1234
545.6	1251
545.8	1267
546.0	1279
546.2	1299
546.4	1315
546.6	1334
546.8	1348
547.0	1362
547.2	1375
547.4	1396
547.6	1415
547.8	1445
548.0	1469
548.2	1487
548.4	1501
548.6	1518
548.8	1534
549.0	1552
549.2	1569
549.4	1581
549.6	1600
549.8	1623
550.0	1649
550.2	1678
550.4	1702
550.6	1720
550.8	1743
551.0	1755
551.2	1767
551.4	1789
551.6	1812
551.8	1831
552.0	1857
552.2	1875
552.4	1898
552.6	1920
552.8	1946
553.0	1968
553.2	1997
553.4	2025
553.6	2053
553.8	2079
554.0	2098
554.2	2128
554.4	2156
554.6	2180
554.8	2207
555.0	2221
555.2	2243
555.4	2274
555.6	2302
555.8	2332
556.0	2365
556.2	2381
556.4	2410
556.6	2430
556.8	2453
557.0	2492
557.2	2523
557.4	2548
557.6	2576
557.8	2599
558.0	2635
558.2	2685
558.4	2712
558.6	2736
558.8	2756
559.0	2786
559.2	2823
559.4	2862
559.6	2889
559.8	2925
560.0	2955
560.2	2994
560.4	3032
560.6	3071
560.8	3107
561.0	3160
561.2	3187
561.4	3206
561.6	3228
561.8	3257
562.0	3288
562.2	3343
562.4	3375
562.6	3410
562.8	3442
563.0	3479
563.2	3510
563.4	3553
563.6	3607
563.8	3651
564.0	3685
564.2	3720
564.4	3741
564.6	3776
564.8	3831
565.0	3876
565.2	3924
565.4	3972
565.6	4006
565.8	4045
566.0	4075
566.2	4107
566.4	4146
566.6	4200
566.8	4251
567.0	4304
567.2	4341
567.4	4373
567.6	4410
567.8	4451
568.0	4495
568.2	4542
568.4	4581
568.6	4633
568.8	4682
569.0	4726
569.2	4764
569.4	4800
569.6	4825
569.8	4877
570.0	4920
570.2	4973
570.4	5030
570.6	5087
570.8	5136
571.0	5183
571.2	5215
571.4	5240
571.6	5279
571.8	5326
572.0	5379
572.2	5419
572.4	5465
572.6	5485
572.8	5519
573.0	5565
573.2	5619
573.4	5672
573.6	5716
573.8	5742
574.0	5795
574.2	5854
574.4	5925
574.6	5986
574.8	6032
575.0	6079
575.2	6139
575.4	6197
575.6	6228
575.8	6262
576.0	6297
576.2	6333
576.4	6388
576.6	6452
576.8	6487
577.0	6546
577.2	6569
577.4	6599
577.6	6641
577.8	6690
578.0	6752
578.2	6825
578.4	6865
578.6	6902
578.8	6929
579.0	6962
579.2	7002
579.4	7049
579.6	7093
579.8	7128
580.0	7169
580.2	7210
580.4	7244
580.6	7285
580.8	7332
581.0	7374
581.2	7420
581.4	7453
581.6	7504
581.8	7560
582.0	7624
582.2	7680
582.4	7720
582.6	7730
582.8	7765
583.0	7801
583.2	7843
583.4	7899
583.6	7939
583.8	7948
584.0	7980
584.2	8017
584.4	8046
584.6	8092
584.8	8135
585.0	8159
585.2	8203
585.4	8242
585.6	8277
585.8	8298
586.0	8338
586.2	8366
586.4	8401
586.6	8433
586.8	8475
587.0	8509
587.2	8543
587.4	8578
587.6	8596
587.8	8641
588.0	8686
588.2	8712
588.4	8727
588.6	8754
588.8	8787
589.0	8849
589.2	8886
589.4	8897
589.6	8919
589.8	8929
590.0	8967
590.2	9014
590.4	9041
590.6	9071
590.8	9097
591.0	9115
591.2	9136
591.4	9169
591.6	9197
591.8	9228
592.0	9252
592.2	9283
592.4	9293
592.6	9315
592.8	9336
593.0	9362
593.2	9372
593.4	9396
593.6	9400
593.8	9403
594.0	9411
594.2	9429
594.4	9431
594.6	9473
594.8	9509
595.0	9545
595.2	9568
595.4	9575
595.6	9569
595.8	9587
596.0	9617
596.2	9648
596.4	9674
596.6	9694
596.8	9710
597.0	9721
597.2	9729
597.4	9714
597.6	9714
597.8	9732
598.0	9764
598.2	9782
598.4	9799
598.6	9807
598.8	9812
599.0	9831
599.2	9832
599.4	9826
599.6	9845
599.8	9869
600.0	9891
600.2	9905
600.4	9906
600.6	9898
600.8	9909
601.0	9927
601.2	9944
601.4	9939
601.6	9954
601.8	9957
602.0	9966
602.2	9971
602.4	9961
602.6	9950
602.8	9962
603.0	9982
603.2	9998
603.4	9999.9
603.6	9999.9
603.8	9995
604.0	9993
604.2	9996
604.4	9990
604.6	9989
604.8	9993
605.0	9991
605.2	9995
605.4	9999
605.6	9995
605.8	9996
606.0	9991
606.2	9987
606.4	9991
606.6	9986
606.8	9991
607.0	9988
607.2	9984
607.4	9987
607.6	9998
607.8	9989
608.0	9983
608.2	9981
608.4	9968
608.6	9968
608.8	9978
609.0	9972
609.2	9975
609.4	9971
609.6	9963
609.8	9970
610.0	9973
610.2	9946
610.4	9919
610.6	9896
610.8	9900
611.0	9915
611.2	9931
611.4	9914
611.6	9895
611.8	9874
612.0	9866
612.2	9856
612.4	9862
612.6	9862
612.8	9857
613.0	9819
613.2	9794
613.4	9769
613.6	9776
613.8	9774
614.0	9774
614.2	9753
614.4	9733
614.6	9695
614.8	9684
615.0	9669
615.2	9669
615.4	9657
615.6	9650
615.8	9625
616.0	9601
616.2	9567
616.4	9552
616.6	9520
616.8	9512
617.0	9526
617.2	9515
617.4	9489
617.6	9473
617.8	9453
618.0	9420
618.2	9417
618.4	9401
618.6	9379
618.8	9358
619.0	9358
619.2	9329
619.4	9317
619.6	9286
619.8	9249
620.0	9227
620.2	9221
620.4	9218
620.6	9194
620.8	9161
621.0	9148
621.2	9138
621.4	9122
621.6	9116
621.8	9077
622.0	9039
622.2	9024
622.4	9006
622.6	8977
622.8	8970
623.0	8957
623.2	8922
623.4	8913
623.6	8887
623.8	8865
624.0	8856
624.2	8832
624.4	8803
624.6	8766
624.8	8718
625.0	8703
625.2	8679
625.4	8655
625.6	8645
625.8	8614
626.0	8572
626.2	8556
626.4	8520
626.6	8500
626.8	8481
627.0	8462
627.2	8414
627.4	8382
627.6	8342
627.8	8300
628.0	8280
628.2	8275
628.4	8251
628.6	8211
628.8	8176
629.0	8138
629.2	8133
629.4	8126
629.6	8093
629.8	8043
630.0	8003
630.2	7971
630.4	7977
630.6	7951
630.8	7916
631.0	7888
631.2	7853
631.4	7831
631.6	7819
631.8	7781
632.0	7754
632.2	7734
632.4	7722
632.6	7693
632.8	7662
633.0	7623
633.2	7604
633.4	7580
633.6	7552
633.8	7508
634.0	7485
634.2	7457
634.4	7441
634.6	7414
634.8	7363
635.0	7334
635.2	7317
635.4	7299
635.6	7270
635.8	7234
636.0	7196
636.2	7184
636.4	7175
636.6	7153
636.8	7112
637.0	7067
637.2	7029
637.4	7005
637.6	6977
637.8	6947
638.0	6914
638.2	6883
638.4	6853
638.6	6828
638.8	6785
639.0	6764
639.2	6743
639.4	6728
639.6	6711
639.8	6695
640.0	6663
640.2	6622
640.4	6575
640.6	6532
640.8	6507
641.0	6496
641.2	6487
641.4	6459
641.6	6422
641.8	6384
642.0	6355
642.2	6329
642.4	6295
642.6	6277
642.8	6240
643.0	6221
643.2	6191
643.4	6174
643.6	6146
643.8	6127
644.0	6094
644.2	6061
644.4	6026
644.6	6001
644.8	5984
645.0	5962
645.2	5949
645.4	5907
645.6	5859
645.8	5812
646.0	5790
646.2	5780
646.4	5770
646.6	5753
646.8	5718
647.0	5681
647.2	5651
647.4	5622
647.6	5587
647.8	5558
648.0	5539
648.2	5504
648.4	5484
648.6	5451
648.8	5424
649.0	5394
649.2	5364
649.4	5338
649.6	5325
649.8	5306
650.0	5298
650.2	5279
650.4	5242
650.6	5229
650.8	5198
651.0	5167
651.2	5141
651.4	5107
651.6	5078
651.8	5044
652.0	5012
652.2	4979
652.4	4941
652.6	4923
652.8	4920
653.0	4903
653.2	4905
653.4	4873
653.6	4831
653.8	4804
654.0	4769
654.2	4744
654.4	4733
654.6	4703
654.8	4686
655.0	4658
655.2	4632
655.4	4603
655.6	4588
655.8	4558
656.0	4535
656.2	4494
656.4	4480
656.6	4457
656.8	4453
657.0	4425
657.2	4404
657.4	4376
657.6	4367
657.8	4332
658.0	4290
658.2	4259
658.4	4230
658.6	4207
658.8	4204
659.0	4181
659.2	4151
659.4	4133
659.6	4110
659.8	4082
660.0	4072
660.2	4057
660.4	4031
660.6	4006
660.8	3982
661.0	3954
661.2	3940
661.4	3917
661.6	3894
661.8	3875
662.0	3858
662.2	3842
662.4	3816
662.6	3788
662.8	3763
663.0	3744
663.2	3729
663.4	3708
663.6	3682
663.8	3664
664.0	3650
664.2	3636
664.4	3616
664.6	3582
664.8	3558
665.0	3532
665.2	3521
665.4	3512
665.6	3499
665.8	3481
666.0	3473
666.2	3446
666.4	3419
666.6	3400
666.8	3374
667.0	3351
667.2	3337
667.4	3312
667.6	3285
667.8	3264
668.0	3250
668.2	3227
668.4	3213
668.6	3195
668.8	3175
669.0	3153
669.2	3141
669.4	3125
669.6	3119
669.8	3107
670.0	3095
670.2	3071
670.4	3042
670.6	3014
670.8	3002
671.0	2990
671.2	2977
671.4	2965
671.6	2945
671.8	2926
672.0	2912
672.2	2897
672.4	2878
672.6	2859
672.8	2828
673.0	2803
673.2	2785
673.4	2779
673.6	2774
673.8	2763
674.0	2735
674.2	2716
674.4	2694
674.6	2679
674.8	2662
675.0	2644
675.2	2630
675.4	2631
675.6	2619
675.8	2604
676.0	2580
676.2	2563
676.4	2549
676.6	2542
676.8	2527
677.0	2504
677.2	2488
677.4	2482
677.6	2465
677.8	2448
678.0	2428
678.2	2403
678.4	2393
678.6	2383
678.8	2372
679.0	2355
679.2	2335
679.4	2316
679.6	2304
679.8	2289
680.0	2285
680.2	2279
680.4	2265
680.6	2250
680.8	2233
681.0	2209
681.2	2194
681.4	2183
681.6	2166
681.8	2155
682.0	2135
682.2	2119
682.4	2115
682.6	2110
682.8	2099
683.0	2082
683.2	2066
683.4	2060
683.6	2052
683.8	2035
684.0	2016
684.2	1993
684.4	1987
684.6	1979
684.8	1965
685.0	1945
685.2	1930
685.4	1914
685.6	1902
685.8	1895
686.0	1890
686.2	1881
686.4	1870
686.6	1851
686.8	1841
687.0	1831
687.2	1821
687.4	1810
687.6	1799
687.8	1786
688.0	1776
688.2	1760
688.4	1741
688.6	1727
688.8	1719
689.0	1718
689.2	1706
689.4	1698
689.6	1689
689.8	1682
690.0	1670
690.2	1669
690.4	1657
690.6	1646
690.8	1638
691.0	1624
691.2	1607
691.4	1592
691.6	1580
691.8	1578
692.0	1583
692.2	1581
692.4	1575
692.6	1557
692.8	1535
693.0	1524
693.2	1522
693.4	1510
693.6	1502
693.8	1491
694.0	1476
694.2	1463
694.4	1452
694.6	1449
694.8	1452
695.0	1442
695.2	1433
695.4	1419
695.6	1401
695.8	1396
696.0	1392
696.2	1381
696.4	1379
696.6	1368
696.8	1359
697.0	1349
697.2	1339
697.4	1334
697.6	1330
697.8	1320
698.0	1313
698.2	1302
698.4	1293
698.6	1293
698.8	1294
699.0	1290
699.2	1277
699.4	1267
699.6	1262
699.8	1257
700.0	1252
700.2	1243
700.4	1225
700.6	1222
700.8	1216
701.0	1209
701.2	1204
701.4	1198
701.6	1186
701.8	1180
702.0	1174
702.2	1172
702.4	1172
702.6	1168
702.8	1163
703.0	1149
703.2	1140
703.4	1136
703.6	1131
703.8	1123
704.0	1115
704.2	1105
704.4	1095
704.6	1092
704.8	1082
705.0	1071
705.2	1064
705.4	1066
705.6	1065
705.8	1062
706.0	1057
706.2	1050
706.4	1037
706.6	1026
706.8	1016
707.0	1007
707.2	998.3
707.4	997.7
707.6	989.9
707.8	983.2
708.0	982.5
708.2	981.5
708.4	973.4
708.6	971.9
708.8	962.7
709.0	952.2
709.2	948.0
709.4	945.8
709.6	937.5
709.8	932.5
710.0	923.0
710.2	918.4
710.4	913.7
710.6	909.9
710.8	906.5
711.0	899.8
711.2	895.2
711.4	890.4
711.6	883.9
711.8	876.8
712.0	873.1
712.2	865.9
712.4	861.9
712.6	856.4
712.8	851.9
713.0	843.7
713.2	839.1
713.4	834.1
713.6	826.9
713.8	822.7
714.0	817.2
714.2	811.4
714.4	806.7
714.6	796.1
714.8	786.3
715.0	778.5
715.2	772.8
715.4	769.8
715.6	769.2
715.8	764.9
716.0	758.0
716.2	747.4
716.4	743.2
716.6	737.9
716.8	737.1
717.0	742.9
717.2	739.2
717.4	730.9
717.6	726.2
717.8	721.7
718.0	718.8
718.2	715.0
718.4	707.8
718.6	704.4
718.8	700.0
719.0	697.6
719.2	690.3
719.4	678.7
719.6	674.5
719.8	672.7
720.0	665.5
720.2	659.2
720.4	652.2
720.6	648.5
720.8	646.3
721.0	640.8
721.2	635.5
721.4	629.2
721.6	620.9
721.8	616.0
722.0	612.1
722.2	609.0
722.4	606.2
722.6	600.4
722.8	593.6
723.0	584.7
723.2	584.2
723.4	581.9
723.6	578.6
723.8	575.2
724.0	571.9
724.2	566.6
724.4	566.2
724.6	567.1
724.8	570.2
725.0	568.4
725.2	561.0
725.4	551.8
725.6	544.4
725.8	538.8
726.0	533.4
726.2	528.0
726.4	522.7
726.6	517.3
726.8	519.6
727.0	519.5
727.2	512.2
727.4	504.3
727.6	498.2
727.8	495.1
728.0	494.1
728.2	492.7
728.4	490.5
728.6	485.9
728.8	484.8
729.0	483.8
729.2	475.3
729.4	468.4
729.6	464.4
729.8	457.6
730.0	455.2
730.2	453.7
730.4	450.7
730.6	450.6
730.8	448.7
731.0	446.3
731.2	443.5
731.4	439.0
731.6	434.5
731.8	429.9
732.0	423.5
732.2	417.9
732.4	415.5
732.6	412.3
732.8	408.8
733.0	409.7
733.2	408.3
733.4	403.6
733.6	400.1
733.8	396.0
734.0	392.1
734.2	390.5
734.4	388.7
734.6	386.4
734.8	386.0
735.0	384.2
735.2	381.7
735.4	375.4
735.6	370.0
735.8	366.8
736.0	367.2
736.2	362.5
736.4	359.2
736.6	355.8
736.8	353.1
737.0	348.1
737.2	345.9
737.4	342.0
737.6	339.8
737.8	340.9
738.0	342.5
738.2	337.9
738.4	334.8
738.6	330.0
738.8	326.4
739.0	326.4
739.2	326.2
739.4	325.1
739.6	323.2
739.8	317.9
740.0	316.6
740.2	314.4
740.4	310.6
740.6	310.7
740.8	309.1
741.0	305.2
741.2	304.4
741.4	301.3
741.6	300.1
741.8	300.7
742.0	295.5
742.2	288.6
742.4	283.4
742.6	280.3
742.8	279.1
743.0	277.2
743.2	274.7
743.4	270.6
743.6	272.0
743.8	274.7
744.0	274.2
744.2	273.6
744.4	271.3
744.6	268.1
744.8	267.7
745.0	261.5
745.2	258.2
745.4	256.7
745.6	252.4
745.8	254.3
746.0	250.1
746.2	246.7
746.4	245.5
746.6	244.9
746.8	242.1
747.0	244.1
747.2	238.5
747.4	235.4
747.6	233.3
747.8	232.1
748.0	232.1
748.2	236.7
748.4	234.2
748.6	231.8
748.8	228.9
749.0	225.4
749.2	223.6
749.4	220.9
749.6	214.3
749.8	215.4
750.0	216.8
750.2	217.4
750.4	217.6
750.6	213.9
750.8	207.9
751.0	207.9
751.2	209.0
751.4	209.2
751.6	207.2
751.8	205.7
752.0	201.9
752.2	200.1
752.4	199.7
752.6	198.9
752.8	197.2
753.0	197.4
753.2	196.7
753.4	194.2
753.6	191.6
753.8	188.3
754.0	185.1
754.2	182.4
754.4	181.7
754.6	180.6
754.8	179.2
755.0	179.3
755.2	177.8
755.4	175.5
755.6	173.2
755.8	174.0
756.0	173.2
756.2	172.8
756.4	172.6
756.6	170.0
756.8	169.6
757.0	170.7
757.2	169.4
757.4	166.8
757.6	165.6
757.8	162.6
758.0	160.8
758.2	161.0
758.4	160.9
758.6	158.8
758.8	157.3
759.0	154.6
759.2	152.1
759.4	152.0
759.6	153.6
759.8	154.6
760.0	154.3
760.2	151.7
760.4	151.0
760.6	147.3
760.8	146.4
761.0	147.3
761.2	145.6
761.4	144.8
761.6	144.7
761.8	144.1
762.0	143.6
762.2	141.4
762.4	139.8
762.6	137.1
762.8	137.0
763.0	136.5
763.2	133.8
763.4	131.1
763.6	132.2
763.8	131.1
764.0	133.2
764.2	132.6
764.4	129.9
764.6	127.1
764.8	126.3
765.0	124.3
765.2	122.4
765.4	121.7
765.6	122.4
765.8	121.4
766.0	123.0
766.2	121.4
766.4	119.6
766.6	119.1
766.8	119.3
767.0	117.6
767.2	115.9
767.4	116.0
767.6	115.3
767.8	114.9
768.0	112.6
768.2	111.2
768.4	108.7
768.6	108.6
768.8	106.9
769.0	107.3
769.2	108.3
769.4	108.7
769.6	109.0
769.8	107.4
770.0	104.6
770.2	104.5
770.4	104.5
770.6	103.2
770.8	103.2
771.0	103.0
771.2	102.8
771.4	103.4
771.6	100.8
771.8	99.48
772.0	99.27
772.2	97.97
772.4	97.34
772.6	96.39
772.8	94.17
773.0	92.16
773.2	92.91
773.4	91.26
773.6	90.41
773.8	89.99
774.0	89.41
774.2	88.21
774.4	88.51
774.6	88.40
774.8	88.48
775.0	90.57
775.2	89.82
775.4	88.56
775.6	86.69
775.8	86.42
776.0	87.18
776.2	88.87
776.4	89.59
776.6	87.67
776.8	85.68
777.0	84.38
777.2	84.08
777.4	83.23
777.6	83.86
777.8	81.54
778.0	79.98
778.2	79.15
778.4	78.90
778.6	79.34
778.8	78.18
779.0	75.76
779.2	75.03
779.4	75.08
779.6	74.84
779.8	75.35
780.0	75.08
780.2	75.58
780.4	75.57
780.6	74.61
780.8	73.23
781.0	72.71
781.2	72.78
781.4	73.55
781.6	72.90
781.8	71.52
782.0	70.06
782.2	70.13
782.4	70.20
782.6	69.45
782.8	69.04
783.0	68.07
783.2	67.88
783.4	67.00
783.6	66.84
783.8	65.32
784.0	63.91
784.2	62.57
784.4	63.60
784.6	64.15
784.8	63.36
785.0	63.81
785.2	63.01
785.4	62.49
785.6	62.93
785.8	62.35
786.0	59.89
786.2	59.52
786.4	59.23
786.6	58.62
786.8	58.80
787.0	58.86
787.2	60.81
787.4	60.89
787.6	61.17
787.8	60.82
788.0	60.44
788.2	59.10
788.4	59.50
788.6	59.30
788.8	59.94
789.0	60.30
789.2	59.37
789.4	57.84
789.6	58.62
789.8	59.28
790.0	59.51
790.2	58.31
790.4	57.63
790.6	57.73
790.8	57.89
791.0	55.49
791.2	54.34
791.4	53.59
791.6	54.52
791.8	55.54
792.0	56.15
792.2	54.92
792.4	55.34
792.6	55.49
792.8	55.89
793.0	55.46
793.2	55.34
793.4	53.51
793.6	52.98
793.8	54.12
794.0	54.86
794.2	56.14
794.4	56.72
794.6	54.59
794.8	52.71
795.0	51.40
795.2	49.49
795.4	49.11
795.6	49.63
795.8	50.31
796.0	49.42
796.2	49.80
796.4	49.43
796.6	49.85
796.8	51.02
797.0	52.53
797.2	51.72
797.4	51.73
797.6	49.47
797.8	47.36
798.0	46.50
798.2	46.75
798.4	46.75
798.6	48.67
798.8	49.52
799.0	49.13
799.2	49.51
799.4	48.22
799.6	46.06
799.8	45.56
800.0	48.43

